File: data/xrd_creation/results/MINES_5.xy
9.903433 2808.00
10.2077 2650.00
10.512 2554.00
10.8162 2317.00
11.1205 2452.00
11.4247 2344.00
11.729 2205.00
12.0333 2188.00
12.3375 2164.00
12.6418 1972.00
12.946 1912.00
13.2503 1824.00
13.5546 1767.00
13.8588 1716.00
14.1631 1670.00
14.4673 1661.00
14.7716 1634.00
15.0759 1547.00
15.3801 1735.00
15.6844 1696.00
15.9886 1501.00
16.2929 1605.00
16.5972 2035.00
16.9014 1500.00
17.2057 1424.00
17.5099 1356.00
17.8142 1252.00
18.1185 1267.00
18.4227 1252.00
18.727 1283.00
19.0312 1308.00
19.3355 1648.00
19.6398 2492.00
19.944 1557.00
20.2483 1337.00
20.5525 1548.00
20.8568 2521.00
21.1611 1567.00
21.4653 1137.00
21.7696 1070.00
22.0738 1072.00
22.3781 1126.00
22.6824 1383.00
22.9866 2740.00
23.2909 2629.00
23.5951 1408.00
23.8994 3456.00
24.2037 1863.00
24.5079 3157.00
24.8122 3019.00
25.1164 7315.00
25.4207 6486.00
25.725 11082.00
26.0292 8036.00
26.3335 3719.00
26.6378 9567.00
26.942 4216.00
27.2463 1098.00
27.5505 1096.00
27.8548 1012.00
28.1591 1117.00
28.4633 1660.00
28.7676 1271.00
29.0718 933.00
29.3761 847.00
29.6804 821.00
29.9846 855.00
30.2889 850.00
30.5931 1075.00
30.8974 1341.00
31.2017 883.00
31.5059 1167.00
31.8102 1326.00
32.1144 1008.00
32.4187 931.00
32.723 747.00
33.0272 708.00
33.3315 692.00
33.6357 665.00
33.94 725.00
34.2443 869.00
34.5485 828.00
34.8528 672.00
35.157 677.00
35.4613 655.00
35.7656 641.00
36.0698 766.00
36.3741 1143.00
36.6783 1098.00
36.9826 760.00
37.2869 954.00
37.5911 1899.00
37.8954 2760.00
38.1996 1619.00
38.5039 1623.00
38.8082 824.00
39.1124 872.00
39.4167 1810.00
39.7209 1694.00
40.0252 1051.00
40.3295 1027.00
40.6337 627.00
40.938 535.00
41.2422 553.00
41.5465 587.00
41.8508 599.00
42.155 725.00
42.4593 821.00
42.7635 626.00
43.0678 908.00
43.3721 853.00
43.6763 668.00
43.9806 719.00
44.2849 896.00
44.5891 512.00
44.8934 603.00
45.1976 925.00
45.5019 1006.00
45.8062 1223.00
46.1104 1385.00
46.4147 1398.00
46.7189 610.00
47.0232 751.00
47.3275 812.00
47.6317 1043.00
47.936 1351.00
48.2402 1284.00
48.5445 1305.00
48.8488 1250.00
49.153 870.00
49.4573 895.00
49.7615 876.00
50.0658 1481.00
50.3701 981.00
50.6743 852.00
50.9786 628.00
51.2828 587.00
51.5871 482.00
51.8914 439.00
52.1956 519.00
52.4999 625.00
52.8041 798.00
53.1084 497.00
53.4127 476.00
53.7169 521.00
54.0212 474.00
54.3254 565.00
54.6297 683.00
54.934 659.00
55.2382 524.00
55.5425 605.00
55.8467 828.00
56.151 1068.00
56.4553 799.00
56.7595 607.00
57.0638 509.00
57.368 505.00
57.6723 464.00
57.9766 447.00
58.2808 421.00
58.5851 408.00
58.8893 400.00
59.1936 526.00
59.4979 691.00
59.8021 916.00
60.1064 764.00
60.4106 735.00
60.7149 1099.00
61.0192 873.00
61.3234 674.00
61.6277 586.00
61.932 459.00
62.2362 470.00
62.5405 621.00
62.8447 517.00
63.149 671.00
63.4533 698.00
63.7575 879.00
64.0618 874.00
64.366 634.00
64.6703 702.00
64.9745 862.00
65.2788 765.00
65.5831 870.00
65.8873 906.00
66.1916 662.00
66.4959 745.00
66.8001 1158.00
67.1044 1342.00
67.4086 1156.00
67.7129 1025.00
68.0172 1167.00
68.3214 1215.00
68.6257 833.00
68.9299 638.00
69.2342 651.00
69.5385 498.00
69.8427 457.00
70.147 448.00
70.4512 423.00
70.7555 441.00
71.0598 505.00
71.364 532.00
71.6683 552.00
71.9725 557.00
72.2768 514.00
72.5811 516.00
72.8853 414.00
73.1896 416.00
73.4938 444.00
73.7981 413.00
74.1024 348.00
74.4066 322.00
74.7109 421.00
75.0151 468.00
75.3194 582.00
75.6237 535.00
75.9279 484.00
76.2322 628.00
76.5364 586.00
76.8407 561.00
77.145 557.00
77.4492 663.00
77.7535 712.00
78.0577 725.00
78.362 624.00
78.6663 507.00
78.9705 539.00
79.2748 600.00
79.579 608.00
79.8833 544.00
80.1876 416.00
80.4918 441.00
80.7961 512.00
81.1003 610.00
81.4046 507.00
81.7089 411.00
82.0131 357.00
82.3174 311.00
82.6217 358.00
82.9259 365.00
83.2302 370.00
83.5344 361.00
83.8387 348.00
84.143 362.00
84.4472 332.00
84.7515 394.00
85.0557 442.00
85.36 453.00
85.6643 413.00
85.9685 394.00
86.2728 333.00
86.577 302.00
86.8813 256.00
87.1856 346.00
87.4898 363.00
87.7941 385.00
88.0983 426.00
88.4026 354.00
88.7069 326.00
89.0111 319.00
89.3154 279.00
89.6196 392.00
89.9239 314.00
90.2282 372.00
90.5324 369.00
90.8367 357.00
91.1409 305.00
91.4452 326.00
91.7495 317.00
92.0537 341.00
92.358 323.00
92.6622 317.00
92.9665 350.00
93.2708 364.00
93.575 385.00
93.8793 418.00
94.1835 360.00
94.4878 441.00
94.7921 438.00
95.0963 374.00
95.4006 318.00
95.7048 371.00
96.0091 373.00
96.3134 393.00
96.6176 391.00
96.9219 386.00
97.2261 378.00
97.5304 389.00
97.8347 410.00
98.1389 382.00
98.4432 369.00
98.7474 365.00
99.0517 299.00
99.356 278.00
99.6602 345.00
99.9645 356.00
100.095 322.00