File: data/xrd_creation/results/MINES_19.xy
9.903433 2599.00
10.2077 2641.00
10.512 2389.00
10.8162 2384.00
11.1205 2274.00
11.4247 2133.00
11.729 2062.00
12.0333 2054.00
12.3375 1892.00
12.6418 1858.00
12.946 2498.00
13.2503 1699.00
13.5546 1582.00
13.8588 1620.00
14.1631 1562.00
14.4673 1511.00
14.7716 1497.00
15.0759 1607.00
15.3801 1465.00
15.6844 1384.00
15.9886 1343.00
16.2929 1492.00
16.5972 1239.00
16.9014 1218.00
17.2057 1211.00
17.5099 1243.00
17.8142 1268.00
18.1185 1179.00
18.4227 1228.00
18.727 1114.00
19.0312 1070.00
19.3355 1075.00
19.6398 1030.00
19.944 1005.00
20.2483 1011.00
20.5525 1367.00
20.8568 2630.00
21.1611 976.00
21.4653 926.00
21.7696 1106.00
22.0738 4286.00
22.3781 1383.00
22.6824 1063.00
22.9866 830.00
23.2909 922.00
23.5951 1427.00
23.8994 1137.00
24.2037 1820.00
24.5079 1070.00
24.8122 2438.00
25.1164 858.00
25.4207 774.00
25.725 881.00
26.0292 3120.00
26.3335 2473.00
26.6378 4022.00
26.942 876.00
27.2463 717.00
27.5505 775.00
27.8548 1118.00
28.1591 782.00
28.4633 688.00
28.7676 836.00
29.0718 799.00
29.3761 611.00
29.6804 643.00
29.9846 675.00
30.2889 765.00
30.5931 1259.00
30.8974 1196.00
31.2017 756.00
31.5059 619.00
31.8102 604.00
32.1144 1403.00
32.4187 1269.00
32.723 565.00
33.0272 578.00
33.3315 516.00
33.6357 594.00
33.94 524.00
34.2443 614.00
34.5485 941.00
34.8528 1718.00
35.157 630.00
35.4613 624.00
35.7656 755.00
36.0698 2069.00
36.3741 2740.00
36.6783 811.00
36.9826 569.00
37.2869 659.00
37.5911 882.00
37.8954 685.00
38.1996 706.00
38.5039 486.00
38.8082 472.00
39.1124 586.00
39.4167 941.00
39.7209 1138.00
40.0252 516.00
40.3295 568.00
40.6337 429.00
40.938 414.00
41.2422 407.00
41.5465 562.00
41.8508 429.00
42.155 486.00
42.4593 473.00
42.7635 401.00
43.0678 700.00
43.3721 408.00
43.6763 347.00
43.9806 793.00
44.2849 494.00
44.5891 411.00
44.8934 463.00
45.1976 420.00
45.5019 488.00
45.8062 415.00
46.1104 669.00
46.4147 361.00
46.7189 323.00
47.0232 364.00
47.3275 402.00
47.6317 385.00
47.936 602.00
48.2402 423.00
48.5445 349.00
48.8488 301.00
49.153 393.00
49.4573 353.00
49.7615 453.00
50.0658 1504.00
50.3701 541.00
50.6743 474.00
50.9786 435.00
51.2828 410.00
51.5871 383.00
51.8914 336.00
52.1956 343.00
52.4999 338.00
52.8041 294.00
53.1084 307.00
53.4127 310.00
53.7169 286.00
54.0212 298.00
54.3254 449.00
54.6297 631.00
54.934 521.00
55.2382 478.00
55.5425 483.00
55.8467 394.00
56.151 394.00
56.4553 323.00
56.7595 270.00
57.0638 369.00
57.368 410.00
57.6723 352.00
57.9766 431.00
58.2808 648.00
58.5851 613.00
58.8893 536.00
59.1936 393.00
59.4979 420.00
59.8021 578.00
60.1064 329.00
60.4106 345.00
60.7149 347.00
61.0192 485.00
61.3234 327.00
61.6277 297.00
61.932 288.00
62.2362 346.00
62.5405 348.00
62.8447 300.00
63.149 340.00
63.4533 329.00
63.7575 451.00
64.0618 992.00
64.366 675.00
64.6703 336.00
64.9745 325.00
65.2788 296.00
65.5831 315.00
65.8873 297.00
66.1916 303.00
66.4959 268.00
66.8001 274.00
67.1044 382.00
67.4086 777.00
67.7129 452.00
68.0172 577.00
68.3214 390.00
68.6257 296.00
68.9299 324.00
69.2342 271.00
69.5385 251.00
69.8427 247.00
70.147 264.00
70.4512 449.00
70.7555 307.00
71.0598 270.00
71.364 240.00
71.6683 283.00
71.9725 308.00
72.2768 419.00
72.5811 310.00
72.8853 338.00
73.1896 282.00
73.4938 282.00
73.7981 307.00
74.1024 263.00
74.4066 239.00
74.7109 238.00
75.0151 231.00
75.3194 310.00
75.6237 312.00
75.9279 319.00
76.2322 364.00
76.5364 303.00
76.8407 264.00
77.145 292.00
77.4492 284.00
77.7535 279.00
78.0577 300.00
78.362 317.00
78.6663 244.00
78.9705 250.00
79.2748 293.00
79.579 348.00
79.8833 327.00
80.1876 299.00
80.4918 311.00
80.7961 313.00
81.1003 437.00
81.4046 341.00
81.7089 295.00
82.0131 239.00
82.3174 260.00
82.6217 250.00
82.9259 283.00
83.2302 282.00
83.5344 289.00
83.8387 265.00
84.143 230.00
84.4472 258.00
84.7515 274.00
85.0557 247.00
85.36 278.00
85.6643 292.00
85.9685 235.00
86.2728 259.00
86.577 265.00
86.8813 235.00
87.1856 270.00
87.4898 232.00
87.7941 234.00
88.0983 275.00
88.4026 244.00
88.7069 272.00
89.0111 266.00
89.3154 237.00
89.6196 290.00
89.9239 233.00
90.2282 303.00
90.5324 295.00
90.8367 261.00
91.1409 226.00
91.4452 231.00
91.7495 260.00
92.0537 251.00
92.358 368.00
92.6622 304.00
92.9665 281.00
93.2708 282.00
93.575 238.00
93.8793 224.00
94.1835 276.00
94.4878 294.00
94.7921 266.00
95.0963 209.00
95.4006 232.00
95.7048 211.00
96.0091 267.00
96.3134 239.00
96.6176 244.00
96.9219 244.00
97.2261 284.00
97.5304 264.00
97.8347 249.00
98.1389 228.00
98.4432 307.00
98.7474 226.00
99.0517 261.00
99.356 219.00
99.6602 202.00
99.9645 195.00
100.095 198.00