File: data/xrd_creation/results/MINES_18.xy
9.903433 2735.00
10.2077 2669.00
10.512 2645.00
10.8162 2469.00
11.1205 2390.00
11.4247 2364.00
11.729 2359.00
12.0333 2294.00
12.3375 2238.00
12.6418 2014.00
12.946 2058.00
13.2503 1941.00
13.5546 1955.00
13.8588 2451.00
14.1631 1905.00
14.4673 1804.00
14.7716 1715.00
15.0759 1753.00
15.3801 1740.00
15.6844 1686.00
15.9886 1667.00
16.2929 1638.00
16.5972 1892.00
16.9014 1630.00
17.2057 1904.00
17.5099 1526.00
17.8142 1637.00
18.1185 1451.00
18.4227 1418.00
18.727 1411.00
19.0312 1397.00
19.3355 1532.00
19.6398 2042.00
19.944 1987.00
20.2483 1478.00
20.5525 1389.00
20.8568 1695.00
21.1611 1831.00
21.4653 1454.00
21.7696 3205.00
22.0738 1313.00
22.3781 1185.00
22.6824 1172.00
22.9866 1349.00
23.2909 1437.00
23.5951 1203.00
23.8994 1813.00
24.2037 1659.00
24.5079 2016.00
24.8122 1599.00
25.1164 5723.00
25.4207 1909.00
25.725 2866.00
26.0292 2413.00
26.3335 1514.00
26.6378 2937.00
26.942 4812.00
27.2463 1102.00
27.5505 992.00
27.8548 1052.00
28.1591 992.00
28.4633 993.00
28.7676 1128.00
29.0718 1389.00
29.3761 1647.00
29.6804 1373.00
29.9846 1102.00
30.2889 1189.00
30.5931 3068.00
30.8974 21373.00
31.2017 1703.00
31.5059 1243.00
31.8102 1069.00
32.1144 981.00
32.4187 866.00
32.723 839.00
33.0272 747.00
33.3315 954.00
33.6357 833.00
33.94 760.00
34.2443 853.00
34.5485 1369.00
34.8528 886.00
35.157 1698.00
35.4613 1353.00
35.7656 6974.00
36.0698 1037.00
36.3741 957.00
36.6783 1288.00
36.9826 867.00
37.2869 865.00
37.5911 1071.00
37.8954 2954.00
38.1996 1144.00
38.5039 1440.00
38.8082 715.00
39.1124 777.00
39.4167 920.00
39.7209 1242.00
40.0252 968.00
40.3295 790.00
40.6337 666.00
40.938 631.00
41.2422 812.00
41.5465 807.00
41.8508 990.00
42.155 1601.00
42.4593 936.00
42.7635 719.00
43.0678 667.00
43.3721 658.00
43.6763 599.00
43.9806 728.00
44.2849 871.00
44.5891 553.00
44.8934 678.00
45.1976 742.00
45.5019 774.00
45.8062 1385.00
46.1104 1608.00
46.4147 1176.00
46.7189 594.00
47.0232 613.00
47.3275 571.00
47.6317 591.00
47.936 602.00
48.2402 727.00
48.5445 743.00
48.8488 671.00
49.153 630.00
49.4573 905.00
49.7615 816.00
50.0658 920.00
50.3701 1140.00
50.6743 707.00
50.9786 1166.00
51.2828 7955.00
51.5871 1269.00
51.8914 633.00
52.1956 513.00
52.4999 502.00
52.8041 634.00
53.1084 766.00
53.4127 632.00
53.7169 558.00
54.0212 534.00
54.3254 478.00
54.6297 715.00
54.934 778.00
55.2382 758.00
55.5425 718.00
55.8467 699.00
56.151 1361.00
56.4553 853.00
56.7595 507.00
57.0638 495.00
57.368 598.00
57.6723 557.00
57.9766 572.00
58.2808 435.00
58.5851 468.00
58.8893 439.00
59.1936 708.00
59.4979 1023.00
59.8021 728.00
60.1064 831.00
60.4106 818.00
60.7149 1947.00
61.0192 3533.00
61.3234 926.00
61.6277 661.00
61.932 552.00
62.2362 776.00
62.5405 1030.00
62.8447 477.00
63.149 501.00
63.4533 608.00
63.7575 963.00
64.0618 1126.00
64.366 588.00
64.6703 518.00
64.9745 668.00
65.2788 722.00
65.5831 762.00
65.8873 713.00
66.1916 497.00
66.4959 504.00
66.8001 780.00
67.1044 746.00
67.4086 662.00
67.7129 803.00
68.0172 898.00
68.3214 1297.00
68.6257 759.00
68.9299 598.00
69.2342 635.00
69.5385 573.00
69.8427 562.00
70.147 403.00
70.4512 410.00
70.7555 401.00
71.0598 415.00
71.364 386.00
71.6683 431.00
71.9725 421.00
72.2768 423.00
72.5811 497.00
72.8853 439.00
73.1896 459.00
73.4938 508.00
73.7981 688.00
74.1024 588.00
74.4066 364.00
74.7109 377.00
75.0151 510.00
75.3194 850.00
75.6237 561.00
75.9279 493.00
76.2322 570.00
76.5364 818.00
76.8407 700.00
77.145 420.00
77.4492 444.00
77.7535 492.00
78.0577 733.00
78.362 631.00
78.6663 407.00
78.9705 421.00
79.2748 631.00
79.579 638.00
79.8833 494.00
80.1876 416.00
80.4918 460.00
80.7961 485.00
81.1003 478.00
81.4046 480.00
81.7089 464.00
82.0131 822.00
82.3174 553.00
82.6217 369.00
82.9259 395.00
83.2302 791.00
83.5344 815.00
83.8387 430.00
84.143 349.00
84.4472 379.00
84.7515 385.00
85.0557 343.00
85.36 432.00
85.6643 475.00
85.9685 955.00
86.2728 719.00
86.577 377.00
86.8813 352.00
87.1856 447.00
87.4898 461.00
87.7941 390.00
88.0983 427.00
88.4026 394.00
88.7069 518.00
89.0111 422.00
89.3154 385.00
89.6196 401.00
89.9239 609.00
90.2282 550.00
90.5324 391.00
90.8367 367.00
91.1409 365.00
91.4452 323.00
91.7495 344.00
92.0537 305.00
92.358 353.00
92.6622 630.00
92.9665 545.00
93.2708 364.00
93.575 360.00
93.8793 405.00
94.1835 321.00
94.4878 344.00
94.7921 392.00
95.0963 480.00
95.4006 591.00
95.7048 478.00
96.0091 426.00
96.3134 523.00
96.6176 991.00
96.9219 696.00
97.2261 408.00
97.5304 379.00
97.8347 481.00
98.1389 483.00
98.4432 449.00
98.7474 372.00
99.0517 350.00
99.356 504.00
99.6602 448.00
99.9645 366.00
100.095 356.00