File: data/xrd_creation/results/MINES_6.xy
9.903433 2762.00
10.2077 2651.00
10.512 2433.00
10.8162 2401.00
11.1205 2292.00
11.4247 2239.00
11.729 2103.00
12.0333 1998.00
12.3375 2114.00
12.6418 1946.00
12.946 1854.00
13.2503 1680.00
13.5546 1672.00
13.8588 1702.00
14.1631 1575.00
14.4673 1546.00
14.7716 1504.00
15.0759 1496.00
15.3801 1443.00
15.6844 1563.00
15.9886 1359.00
16.2929 1424.00
16.5972 1737.00
16.9014 1342.00
17.2057 1394.00
17.5099 1270.00
17.8142 1229.00
18.1185 1190.00
18.4227 1208.00
18.727 1174.00
19.0312 1172.00
19.3355 1176.00
19.6398 1595.00
19.944 1323.00
20.2483 1192.00
20.5525 1386.00
20.8568 1675.00
21.1611 1296.00
21.4653 976.00
21.7696 1019.00
22.0738 1178.00
22.3781 1325.00
22.6824 1152.00
22.9866 1630.00
23.2909 1542.00
23.5951 1080.00
23.8994 2633.00
24.2037 1749.00
24.5079 2303.00
24.8122 1981.00
25.1164 4928.00
25.4207 2604.00
25.725 4747.00
26.0292 3860.00
26.3335 1897.00
26.6378 4609.00
26.942 2908.00
27.2463 865.00
27.5505 790.00
27.8548 773.00
28.1591 788.00
28.4633 1123.00
28.7676 1403.00
29.0718 998.00
29.3761 770.00
29.6804 708.00
29.9846 787.00
30.2889 871.00
30.5931 945.00
30.8974 1337.00
31.2017 1004.00
31.5059 2140.00
31.8102 2714.00
32.1144 925.00
32.4187 702.00
32.723 576.00
33.0272 576.00
33.3315 569.00
33.6357 533.00
33.94 575.00
34.2443 608.00
34.5485 674.00
34.8528 657.00
35.157 660.00
35.4613 852.00
35.7656 573.00
36.0698 542.00
36.3741 738.00
36.6783 1029.00
36.9826 616.00
37.2869 557.00
37.5911 950.00
37.8954 1576.00
38.1996 843.00
38.5039 1081.00
38.8082 576.00
39.1124 610.00
39.4167 1049.00
39.7209 1056.00
40.0252 587.00
40.3295 625.00
40.6337 459.00
40.938 446.00
41.2422 461.00
41.5465 573.00
41.8508 511.00
42.155 562.00
42.4593 556.00
42.7635 471.00
43.0678 638.00
43.3721 818.00
43.6763 528.00
43.9806 496.00
44.2849 663.00
44.5891 444.00
44.8934 398.00
45.1976 631.00
45.5019 536.00
45.8062 615.00
46.1104 690.00
46.4147 920.00
46.7189 434.00
47.0232 495.00
47.3275 753.00
47.6317 511.00
47.936 557.00
48.2402 653.00
48.5445 752.00
48.8488 753.00
49.153 536.00
49.4573 532.00
49.7615 501.00
50.0658 806.00
50.3701 719.00
50.6743 601.00
50.9786 589.00
51.2828 476.00
51.5871 369.00
51.8914 469.00
52.1956 444.00
52.4999 822.00
52.8041 1521.00
53.1084 589.00
53.4127 350.00
53.7169 401.00
54.0212 368.00
54.3254 472.00
54.6297 500.00
54.934 433.00
55.2382 386.00
55.5425 431.00
55.8467 463.00
56.151 641.00
56.4553 523.00
56.7595 472.00
57.0638 365.00
57.368 317.00
57.6723 434.00
57.9766 376.00
58.2808 357.00
58.5851 354.00
58.8893 326.00
59.1936 310.00
59.4979 468.00
59.8021 529.00
60.1064 415.00
60.4106 408.00
60.7149 642.00
61.0192 611.00
61.3234 529.00
61.6277 362.00
61.932 422.00
62.2362 467.00
62.5405 694.00
62.8447 757.00
63.149 476.00
63.4533 458.00
63.7575 572.00
64.0618 551.00
64.366 509.00
64.6703 416.00
64.9745 511.00
65.2788 382.00
65.5831 547.00
65.8873 598.00
66.1916 400.00
66.4959 393.00
66.8001 461.00
67.1044 552.00
67.4086 573.00
67.7129 618.00
68.0172 666.00
68.3214 750.00
68.6257 617.00
68.9299 485.00
69.2342 468.00
69.5385 355.00
69.8427 320.00
70.147 304.00
70.4512 360.00
70.7555 312.00
71.0598 313.00
71.364 303.00
71.6683 329.00
71.9725 355.00
72.2768 362.00
72.5811 387.00
72.8853 298.00
73.1896 294.00
73.4938 338.00
73.7981 318.00
74.1024 274.00
74.4066 242.00
74.7109 278.00
75.0151 320.00
75.3194 328.00
75.6237 348.00
75.9279 318.00
76.2322 430.00
76.5364 394.00
76.8407 356.00
77.145 342.00
77.4492 391.00
77.7535 502.00
78.0577 418.00
78.362 413.00
78.6663 366.00
78.9705 360.00
79.2748 443.00
79.579 369.00
79.8833 360.00
80.1876 283.00
80.4918 333.00
80.7961 326.00
81.1003 350.00
81.4046 356.00
81.7089 320.00
82.0131 304.00
82.3174 296.00
82.6217 283.00
82.9259 271.00
83.2302 279.00
83.5344 324.00
83.8387 277.00
84.143 283.00
84.4472 342.00
84.7515 328.00
85.0557 320.00
85.36 295.00
85.6643 306.00
85.9685 312.00
86.2728 373.00
86.577 274.00
86.8813 245.00
87.1856 236.00
87.4898 293.00
87.7941 267.00
88.0983 328.00
88.4026 309.00
88.7069 282.00
89.0111 258.00
89.3154 278.00
89.6196 285.00
89.9239 263.00
90.2282 264.00
90.5324 294.00
90.8367 298.00
91.1409 226.00
91.4452 204.00
91.7495 240.00
92.0537 246.00
92.358 271.00
92.6622 238.00
92.9665 257.00
93.2708 274.00
93.575 268.00
93.8793 326.00
94.1835 283.00
94.4878 284.00
94.7921 269.00
95.0963 262.00
95.4006 249.00
95.7048 259.00
96.0091 263.00
96.3134 277.00
96.6176 265.00
96.9219 280.00
97.2261 250.00
97.5304 282.00
97.8347 260.00
98.1389 235.00
98.4432 268.00
98.7474 301.00
99.0517 261.00
99.356 261.00
99.6602 265.00
99.9645 280.00
100.095 300.00