File: data/xrd_creation/results/MINES_21.xy
9.903433 2749.00
10.2077 2638.00
10.512 2558.00
10.8162 2423.00
11.1205 2316.00
11.4247 2143.00
11.729 2345.00
12.0333 2055.00
12.3375 2098.00
12.6418 2043.00
12.946 1992.00
13.2503 2024.00
13.5546 1820.00
13.8588 1753.00
14.1631 1731.00
14.4673 1708.00
14.7716 1643.00
15.0759 1765.00
15.3801 2232.00
15.6844 2074.00
15.9886 1591.00
16.2929 1739.00
16.5972 2093.00
16.9014 1627.00
17.2057 1404.00
17.5099 1428.00
17.8142 1458.00
18.1185 1393.00
18.4227 1356.00
18.727 1340.00
19.0312 1441.00
19.3355 1813.00
19.6398 3174.00
19.944 1424.00
20.2483 1304.00
20.5525 1331.00
20.8568 2194.00
21.1611 2216.00
21.4653 1304.00
21.7696 1325.00
22.0738 2389.00
22.3781 3156.00
22.6824 2388.00
22.9866 5994.00
23.2909 1743.00
23.5951 1432.00
23.8994 3003.00
24.2037 2096.00
24.5079 3537.00
24.8122 2285.00
25.1164 7387.00
25.4207 3284.00
25.725 12850.00
26.0292 12146.00
26.3335 2482.00
26.6378 5026.00
26.942 5310.00
27.2463 1284.00
27.5505 1257.00
27.8548 1301.00
28.1591 2523.00
28.4633 2556.00
28.7676 1381.00
29.0718 1090.00
29.3761 1024.00
29.6804 960.00
29.9846 1003.00
30.2889 945.00
30.5931 1408.00
30.8974 2294.00
31.2017 1810.00
31.5059 1100.00
31.8102 1193.00
32.1144 1492.00
32.4187 1478.00
32.723 1150.00
33.0272 905.00
33.3315 1101.00
33.6357 902.00
33.94 1054.00
34.2443 1170.00
34.5485 1037.00
34.8528 1184.00
35.157 1327.00
35.4613 1022.00
35.7656 1211.00
36.0698 1333.00
36.3741 3581.00
36.6783 4023.00
36.9826 1538.00
37.2869 1334.00
37.5911 1714.00
37.8954 2976.00
38.1996 1867.00
38.5039 2015.00
38.8082 991.00
39.1124 1281.00
39.4167 2568.00
39.7209 2130.00
40.0252 1591.00
40.3295 1402.00
40.6337 838.00
40.938 713.00
41.2422 743.00
41.5465 916.00
41.8508 778.00
42.155 816.00
42.4593 1000.00
42.7635 859.00
43.0678 1220.00
43.3721 1274.00
43.6763 841.00
43.9806 955.00
44.2849 1560.00
44.5891 947.00
44.8934 822.00
45.1976 1009.00
45.5019 1052.00
45.8062 1359.00
46.1104 1402.00
46.4147 1727.00
46.7189 858.00
47.0232 1126.00
47.3275 1197.00
47.6317 838.00
47.936 1089.00
48.2402 1601.00
48.5445 2281.00
48.8488 2372.00
49.153 927.00
49.4573 936.00
49.7615 725.00
50.0658 1253.00
50.3701 1630.00
50.6743 1000.00
50.9786 844.00
51.2828 938.00
51.5871 722.00
51.8914 652.00
52.1956 613.00
52.4999 651.00
52.8041 773.00
53.1084 670.00
53.4127 641.00
53.7169 642.00
54.0212 667.00
54.3254 777.00
54.6297 1011.00
54.934 1264.00
55.2382 935.00
55.5425 1012.00
55.8467 1491.00
56.151 1518.00
56.4553 1060.00
56.7595 631.00
57.0638 702.00
57.368 761.00
57.6723 751.00
57.9766 724.00
58.2808 949.00
58.5851 1393.00
58.8893 1215.00
59.1936 838.00
59.4979 795.00
59.8021 1192.00
60.1064 1101.00
60.4106 1091.00
60.7149 1235.00
61.0192 1032.00
61.3234 1039.00
61.6277 877.00
61.932 688.00
62.2362 711.00
62.5405 903.00
62.8447 853.00
63.149 1002.00
63.4533 995.00
63.7575 1110.00
64.0618 1675.00
64.366 2482.00
64.6703 1538.00
64.9745 1011.00
65.2788 963.00
65.5831 1289.00
65.8873 1133.00
66.1916 821.00
66.4959 887.00
66.8001 1422.00
67.1044 1547.00
67.4086 1333.00
67.7129 1347.00
68.0172 1432.00
68.3214 1487.00
68.6257 1077.00
68.9299 754.00
69.2342 776.00
69.5385 807.00
69.8427 736.00
70.147 691.00
70.4512 593.00
70.7555 722.00
71.0598 783.00
71.364 789.00
71.6683 771.00
71.9725 716.00
72.2768 732.00
72.5811 727.00
72.8853 766.00
73.1896 661.00
73.4938 671.00
73.7981 638.00
74.1024 550.00
74.4066 622.00
74.7109 593.00
75.0151 661.00
75.3194 652.00
75.6237 716.00
75.9279 795.00
76.2322 1009.00
76.5364 870.00
76.8407 798.00
77.145 986.00
77.4492 1006.00
77.7535 857.00
78.0577 759.00
78.362 792.00
78.6663 651.00
78.9705 687.00
79.2748 674.00
79.579 626.00
79.8833 683.00
80.1876 503.00
80.4918 511.00
80.7961 646.00
81.1003 840.00
81.4046 798.00
81.7089 653.00
82.0131 526.00
82.3174 495.00
82.6217 429.00
82.9259 506.00
83.2302 526.00
83.5344 507.00
83.8387 483.00
84.143 486.00
84.4472 512.00
84.7515 541.00
85.0557 557.00
85.36 563.00
85.6643 616.00
85.9685 493.00
86.2728 481.00
86.577 458.00
86.8813 452.00
87.1856 451.00
87.4898 519.00
87.7941 481.00
88.0983 585.00
88.4026 541.00
88.7069 573.00
89.0111 488.00
89.3154 571.00
89.6196 598.00
89.9239 477.00
90.2282 490.00
90.5324 554.00
90.8367 501.00
91.1409 472.00
91.4452 450.00
91.7495 531.00
92.0537 600.00
92.358 747.00
92.6622 745.00
92.9665 701.00
93.2708 623.00
93.575 550.00
93.8793 609.00
94.1835 564.00
94.4878 538.00
94.7921 562.00
95.0963 534.00
95.4006 499.00
95.7048 517.00
96.0091 532.00
96.3134 508.00
96.6176 537.00
96.9219 555.00
97.2261 599.00
97.5304 608.00
97.8347 581.00
98.1389 513.00
98.4432 513.00
98.7474 475.00
99.0517 465.00
99.356 458.00
99.6602 446.00
99.9645 452.00
100.095 506.00