File: data/xrd_creation/results/MINES_10.xy
9.903433 2941.00
10.2077 2754.00
10.512 2754.00
10.8162 2616.00
11.1205 2513.00
11.4247 2286.00
11.729 2365.00
12.0333 2250.00
12.3375 2155.00
12.6418 2163.00
12.946 2059.00
13.2503 2115.00
13.5546 1922.00
13.8588 1989.00
14.1631 1957.00
14.4673 2314.00
14.7716 1783.00
15.0759 1841.00
15.3801 1787.00
15.6844 1759.00
15.9886 1691.00
16.2929 1717.00
16.5972 1738.00
16.9014 1690.00
17.2057 1641.00
17.5099 1594.00
17.8142 1587.00
18.1185 1623.00
18.4227 1821.00
18.727 3182.00
19.0312 1838.00
19.3355 1711.00
19.6398 1460.00
19.944 1516.00
20.2483 1597.00
20.5525 1831.00
20.8568 2115.00
21.1611 3390.00
21.4653 1492.00
21.7696 1536.00
22.0738 1679.00
22.3781 1502.00
22.6824 1357.00
22.9866 1374.00
23.2909 1361.00
23.5951 1256.00
23.8994 1555.00
24.2037 1478.00
24.5079 1651.00
24.8122 3776.00
25.1164 2330.00
25.4207 1328.00
25.725 1674.00
26.0292 1471.00
26.3335 1436.00
26.6378 2813.00
26.942 12592.00
27.2463 2639.00
27.5505 1369.00
27.8548 1413.00
28.1591 1217.00
28.4633 1254.00
28.7676 1212.00
29.0718 1196.00
29.3761 1167.00
29.6804 1181.00
29.9846 1146.00
30.2889 1666.00
30.5931 2137.00
30.8974 1198.00
31.2017 1203.00
31.5059 1145.00
31.8102 1694.00
32.1144 1441.00
32.4187 1067.00
32.723 1104.00
33.0272 1271.00
33.3315 1826.00
33.6357 1382.00
33.94 4255.00
34.2443 1103.00
34.5485 1056.00
34.8528 993.00
35.157 1083.00
35.4613 1105.00
35.7656 1034.00
36.0698 1342.00
36.3741 2657.00
36.6783 3020.00
36.9826 1447.00
37.2869 1015.00
37.5911 1080.00
37.8954 1677.00
38.1996 1318.00
38.5039 1225.00
38.8082 1405.00
39.1124 1062.00
39.4167 1052.00
39.7209 1774.00
40.0252 1216.00
40.3295 1064.00
40.6337 1308.00
40.938 929.00
41.2422 1030.00
41.5465 1082.00
41.8508 1710.00
42.155 935.00
42.4593 1077.00
42.7635 1883.00
43.0678 987.00
43.3721 1142.00
43.6763 1292.00
43.9806 1477.00
44.2849 2030.00
44.5891 1242.00
44.8934 931.00
45.1976 915.00
45.5019 968.00
45.8062 942.00
46.1104 1263.00
46.4147 1071.00
46.7189 934.00
47.0232 893.00
47.3275 848.00
47.6317 924.00
47.936 1075.00
48.2402 1313.00
48.5445 969.00
48.8488 908.00
49.153 1034.00
49.4573 925.00
49.7615 965.00
50.0658 1073.00
50.3701 2662.00
50.6743 1675.00
50.9786 977.00
51.2828 921.00
51.5871 914.00
51.8914 966.00
52.1956 894.00
52.4999 843.00
52.8041 877.00
53.1084 849.00
53.4127 900.00
53.7169 919.00
54.0212 873.00
54.3254 859.00
54.6297 1100.00
54.934 1671.00
55.2382 2937.00
55.5425 1166.00
55.8467 960.00
56.151 846.00
56.4553 877.00
56.7595 935.00
57.0638 1517.00
57.368 991.00
57.6723 927.00
57.9766 1028.00
58.2808 1334.00
58.5851 1051.00
58.8893 984.00
59.1936 1002.00
59.4979 1036.00
59.8021 973.00
60.1064 1404.00
60.4106 1329.00
60.7149 1054.00
61.0192 898.00
61.3234 861.00
61.6277 816.00
61.932 1008.00
62.2362 951.00
62.5405 982.00
62.8447 923.00
63.149 1013.00
63.4533 1164.00
63.7575 1999.00
64.0618 1009.00
64.366 1259.00
64.6703 993.00
64.9745 944.00
65.2788 1669.00
65.5831 1452.00
65.8873 933.00
66.1916 897.00
66.4959 886.00
66.8001 900.00
67.1044 814.00
67.4086 935.00
67.7129 1162.00
68.0172 1480.00
68.3214 1540.00
68.6257 1457.00
68.9299 927.00
69.2342 985.00
69.5385 985.00
69.8427 1030.00
70.147 1096.00
70.4512 881.00
70.7555 863.00
71.0598 919.00
71.364 983.00
71.6683 924.00
71.9725 802.00
72.2768 845.00
72.5811 860.00
72.8853 1016.00
73.1896 1449.00
73.4938 1050.00
73.7981 1068.00
74.1024 870.00
74.4066 838.00
74.7109 829.00
75.0151 813.00
75.3194 815.00
75.6237 787.00
75.9279 1118.00
76.2322 1046.00
76.5364 946.00
76.8407 928.00
77.145 1206.00
77.4492 1034.00
77.7535 963.00
78.0577 953.00
78.362 851.00
78.6663 837.00
78.9705 826.00
79.2748 978.00
79.579 861.00
79.8833 856.00
80.1876 1082.00
80.4918 922.00
80.7961 845.00
81.1003 984.00
81.4046 1128.00
81.7089 1113.00
82.0131 881.00
82.3174 930.00
82.6217 892.00
82.9259 931.00
83.2302 877.00
83.5344 834.00
83.8387 866.00
84.143 903.00
84.4472 1030.00
84.7515 899.00
85.0557 800.00
85.36 787.00
85.6643 841.00
85.9685 899.00
86.2728 824.00
86.577 904.00
86.8813 855.00
87.1856 783.00
87.4898 795.00
87.7941 800.00
88.0983 760.00
88.4026 782.00
88.7069 819.00
89.0111 864.00
89.3154 782.00
89.6196 808.00
89.9239 788.00
90.2282 893.00
90.5324 1040.00
90.8367 1031.00
91.1409 888.00
91.4452 854.00
91.7495 817.00
92.0537 808.00
92.358 809.00
92.6622 796.00
92.9665 769.00
93.2708 788.00
93.575 786.00
93.8793 898.00
94.1835 845.00
94.4878 796.00
94.7921 933.00
95.0963 959.00
95.4006 1050.00
95.7048 1000.00
96.0091 897.00
96.3134 893.00
96.6176 840.00
96.9219 933.00
97.2261 870.00
97.5304 853.00
97.8347 908.00
98.1389 822.00
98.4432 912.00
98.7474 849.00
99.0517 911.00
99.356 838.00
99.6602 738.00
99.9645 825.00
100.095 838.00