File: data/xrd_creation/results/MINES_9.xy
9.903433 2715.00
10.2077 2521.00
10.512 2296.00
10.8162 2320.00
11.1205 2300.00
11.4247 2086.00
11.729 2020.00
12.0333 1870.00
12.3375 1869.00
12.6418 1799.00
12.946 1732.00
13.2503 1684.00
13.5546 1621.00
13.8588 1544.00
14.1631 1532.00
14.4673 1468.00
14.7716 1510.00
15.0759 1387.00
15.3801 1488.00
15.6844 1373.00
15.9886 1260.00
16.2929 1342.00
16.5972 1317.00
16.9014 1271.00
17.2057 1310.00
17.5099 1253.00
17.8142 1159.00
18.1185 1186.00
18.4227 1281.00
18.727 1289.00
19.0312 1070.00
19.3355 1537.00
19.6398 1040.00
19.944 993.00
20.2483 1052.00
20.5525 1076.00
20.8568 1011.00
21.1611 933.00
21.4653 981.00
21.7696 920.00
22.0738 911.00
22.3781 930.00
22.6824 1249.00
22.9866 1748.00
23.2909 865.00
23.5951 846.00
23.8994 799.00
24.2037 793.00
24.5079 784.00
24.8122 823.00
25.1164 806.00
25.4207 1588.00
25.725 4134.00
26.0292 1193.00
26.3335 1476.00
26.6378 1034.00
26.942 843.00
27.2463 735.00
27.5505 794.00
27.8548 830.00
28.1591 976.00
28.4633 900.00
28.7676 978.00
29.0718 799.00
29.3761 704.00
29.6804 705.00
29.9846 835.00
30.2889 657.00
30.5931 695.00
30.8974 634.00
31.2017 635.00
31.5059 674.00
31.8102 690.00
32.1144 683.00
32.4187 590.00
32.723 664.00
33.0272 605.00
33.3315 621.00
33.6357 712.00
33.94 620.00
34.2443 562.00
34.5485 494.00
34.8528 450.00
35.157 530.00
35.4613 515.00
35.7656 492.00
36.0698 509.00
36.3741 463.00
36.6783 446.00
36.9826 470.00
37.2869 472.00
37.5911 478.00
37.8954 486.00
38.1996 455.00
38.5039 423.00
38.8082 470.00
39.1124 418.00
39.4167 537.00
39.7209 472.00
40.0252 429.00
40.3295 410.00
40.6337 401.00
40.938 358.00
41.2422 383.00
41.5465 371.00
41.8508 416.00
42.155 380.00
42.4593 406.00
42.7635 433.00
43.0678 475.00
43.3721 406.00
43.6763 380.00
43.9806 362.00
44.2849 373.00
44.5891 336.00
44.8934 361.00
45.1976 367.00
45.5019 354.00
45.8062 349.00
46.1104 307.00
46.4147 317.00
46.7189 401.00
47.0232 440.00
47.3275 448.00
47.6317 345.00
47.936 403.00
48.2402 499.00
48.5445 614.00
48.8488 543.00
49.153 349.00
49.4573 369.00
49.7615 357.00
50.0658 354.00
50.3701 316.00
50.6743 335.00
50.9786 335.00
51.2828 334.00
51.5871 412.00
51.8914 352.00
52.1956 314.00
52.4999 329.00
52.8041 340.00
53.1084 311.00
53.4127 298.00
53.7169 284.00
54.0212 345.00
54.3254 366.00
54.6297 323.00
54.934 303.00
55.2382 304.00
55.5425 368.00
55.8467 361.00
56.151 361.00
56.4553 315.00
56.7595 273.00
57.0638 269.00
57.368 308.00
57.6723 285.00
57.9766 249.00
58.2808 267.00
58.5851 286.00
58.8893 281.00
59.1936 298.00
59.4979 259.00
59.8021 244.00
60.1064 260.00
60.4106 289.00
60.7149 267.00
61.0192 242.00
61.3234 259.00
61.6277 265.00
61.932 266.00
62.2362 276.00
62.5405 264.00
62.8447 247.00
63.149 269.00
63.4533 248.00
63.7575 265.00
64.0618 262.00
64.366 246.00
64.6703 284.00
64.9745 247.00
65.2788 266.00
65.5831 271.00
65.8873 265.00
66.1916 290.00
66.4959 219.00
66.8001 281.00
67.1044 285.00
67.4086 274.00
67.7129 268.00
68.0172 256.00
68.3214 238.00
68.6257 266.00
68.9299 237.00
69.2342 227.00
69.5385 215.00
69.8427 236.00
70.147 240.00
70.4512 235.00
70.7555 245.00
71.0598 256.00
71.364 282.00
71.6683 248.00
71.9725 249.00
72.2768 240.00
72.5811 206.00
72.8853 242.00
73.1896 220.00
73.4938 229.00
73.7981 226.00
74.1024 243.00
74.4066 246.00
74.7109 245.00
75.0151 267.00
75.3194 240.00
75.6237 284.00
75.9279 258.00
76.2322 257.00
76.5364 239.00
76.8407 245.00
77.145 291.00
77.4492 303.00
77.7535 264.00
78.0577 293.00
78.362 299.00
78.6663 280.00
78.9705 272.00
79.2748 278.00
79.579 289.00
79.8833 257.00
80.1876 274.00
80.4918 257.00
80.7961 278.00
81.1003 266.00
81.4046 268.00
81.7089 280.00
82.0131 233.00
82.3174 244.00
82.6217 241.00
82.9259 232.00
83.2302 214.00
83.5344 245.00
83.8387 270.00
84.143 223.00
84.4472 234.00
84.7515 226.00
85.0557 241.00
85.36 224.00
85.6643 239.00
85.9685 211.00
86.2728 235.00
86.577 205.00
86.8813 211.00
87.1856 230.00
87.4898 274.00
87.7941 220.00
88.0983 216.00
88.4026 245.00
88.7069 205.00
89.0111 199.00
89.3154 251.00
89.6196 232.00
89.9239 235.00
90.2282 211.00
90.5324 224.00
90.8367 233.00
91.1409 211.00
91.4452 187.00
91.7495 182.00
92.0537 218.00
92.358 187.00
92.6622 219.00
92.9665 211.00
93.2708 215.00
93.575 207.00
93.8793 175.00
94.1835 220.00
94.4878 215.00
94.7921 206.00
95.0963 201.00
95.4006 213.00
95.7048 207.00
96.0091 207.00
96.3134 205.00
96.6176 248.00
96.9219 195.00
97.2261 221.00
97.5304 221.00
97.8347 194.00
98.1389 221.00
98.4432 200.00
98.7474 190.00
99.0517 225.00
99.356 201.00
99.6602 194.00
99.9645 199.00
100.095 192.00