File: data/xrd_creation/results/MINES_17.xy
9.903433 2530.00
10.2077 2539.00
10.512 2418.00
10.8162 2221.00
11.1205 2200.00
11.4247 2044.00
11.729 1995.00
12.0333 1955.00
12.3375 1849.00
12.6418 1795.00
12.946 1661.00
13.2503 1631.00
13.5546 1579.00
13.8588 1485.00
14.1631 1444.00
14.4673 1482.00
14.7716 1353.00
15.0759 1358.00
15.3801 1368.00
15.6844 1289.00
15.9886 1316.00
16.2929 1370.00
16.5972 1215.00
16.9014 1250.00
17.2057 1134.00
17.5099 1043.00
17.8142 1079.00
18.1185 1067.00
18.4227 1065.00
18.727 943.00
19.0312 1014.00
19.3355 1209.00
19.6398 1062.00
19.944 954.00
20.2483 898.00
20.5525 1120.00
20.8568 964.00
21.1611 834.00
21.4653 847.00
21.7696 749.00
22.0738 869.00
22.3781 789.00
22.6824 980.00
22.9866 999.00
23.2909 761.00
23.5951 1036.00
23.8994 899.00
24.2037 1061.00
24.5079 859.00
24.8122 1784.00
25.1164 1100.00
25.4207 2084.00
25.725 1918.00
26.0292 889.00
26.3335 1553.00
26.6378 1194.00
26.942 657.00
27.2463 691.00
27.5505 634.00
27.8548 601.00
28.1591 616.00
28.4633 667.00
28.7676 563.00
29.0718 573.00
29.3761 600.00
29.6804 582.00
29.9846 576.00
30.2889 595.00
30.5931 1014.00
30.8974 533.00
31.2017 563.00
31.5059 560.00
31.8102 554.00
32.1144 497.00
32.4187 488.00
32.723 523.00
33.0272 479.00
33.3315 500.00
33.6357 431.00
33.94 457.00
34.2443 494.00
34.5485 468.00
34.8528 531.00
35.157 396.00
35.4613 503.00
35.7656 398.00
36.0698 445.00
36.3741 499.00
36.6783 405.00
36.9826 417.00
37.2869 444.00
37.5911 747.00
37.8954 479.00
38.1996 552.00
38.5039 367.00
38.8082 400.00
39.1124 423.00
39.4167 503.00
39.7209 427.00
40.0252 432.00
40.3295 313.00
40.6337 325.00
40.938 335.00
41.2422 327.00
41.5465 314.00
41.8508 322.00
42.155 377.00
42.4593 294.00
42.7635 338.00
43.0678 384.00
43.3721 313.00
43.6763 295.00
43.9806 369.00
44.2849 270.00
44.5891 275.00
44.8934 325.00
45.1976 322.00
45.5019 383.00
45.8062 383.00
46.1104 412.00
46.4147 300.00
46.7189 247.00
47.0232 303.00
47.3275 295.00
47.6317 337.00
47.936 367.00
48.2402 377.00
48.5445 409.00
48.8488 376.00
49.153 282.00
49.4573 284.00
49.7615 356.00
50.0658 334.00
50.3701 303.00
50.6743 322.00
50.9786 354.00
51.2828 314.00
51.5871 236.00
51.8914 271.00
52.1956 271.00
52.4999 283.00
52.8041 263.00
53.1084 302.00
53.4127 242.00
53.7169 229.00
54.0212 239.00
54.3254 260.00
54.6297 297.00
54.934 222.00
55.2382 226.00
55.5425 237.00
55.8467 302.00
56.151 305.00
56.4553 258.00
56.7595 211.00
57.0638 217.00
57.368 208.00
57.6723 232.00
57.9766 199.00
58.2808 208.00
58.5851 176.00
58.8893 205.00
59.1936 220.00
59.4979 239.00
59.8021 224.00
60.1064 239.00
60.4106 280.00
60.7149 304.00
61.0192 281.00
61.3234 212.00
61.6277 210.00
61.932 203.00
62.2362 235.00
62.5405 194.00
62.8447 209.00
63.149 215.00
63.4533 224.00
63.7575 230.00
64.0618 222.00
64.366 205.00
64.6703 249.00
64.9745 186.00
65.2788 223.00
65.5831 236.00
65.8873 213.00
66.1916 196.00
66.4959 242.00
66.8001 286.00
67.1044 246.00
67.4086 285.00
67.7129 256.00
68.0172 280.00
68.3214 216.00
68.6257 199.00
68.9299 196.00
69.2342 202.00
69.5385 208.00
69.8427 184.00
70.147 208.00
70.4512 178.00
70.7555 217.00
71.0598 210.00
71.364 224.00
71.6683 187.00
71.9725 206.00
72.2768 208.00
72.5811 207.00
72.8853 204.00
73.1896 186.00
73.4938 215.00
73.7981 193.00
74.1024 168.00
74.4066 218.00
74.7109 190.00
75.0151 225.00
75.3194 206.00
75.6237 226.00
75.9279 210.00
76.2322 237.00
76.5364 234.00
76.8407 217.00
77.145 256.00
77.4492 204.00
77.7535 265.00
78.0577 236.00
78.362 210.00
78.6663 223.00
78.9705 271.00
79.2748 222.00
79.579 232.00
79.8833 240.00
80.1876 200.00
80.4918 238.00
80.7961 217.00
81.1003 232.00
81.4046 240.00
81.7089 226.00
82.0131 213.00
82.3174 219.00
82.6217 222.00
82.9259 212.00
83.2302 228.00
83.5344 218.00
83.8387 241.00
84.143 192.00
84.4472 216.00
84.7515 219.00
85.0557 224.00
85.36 214.00
85.6643 222.00
85.9685 191.00
86.2728 219.00
86.577 195.00
86.8813 179.00
87.1856 223.00
87.4898 204.00
87.7941 200.00
88.0983 210.00
88.4026 205.00
88.7069 195.00
89.0111 185.00
89.3154 200.00
89.6196 227.00
89.9239 198.00
90.2282 196.00
90.5324 169.00
90.8367 169.00
91.1409 194.00
91.4452 185.00
91.7495 193.00
92.0537 195.00
92.358 211.00
92.6622 208.00
92.9665 187.00
93.2708 172.00
93.575 184.00
93.8793 197.00
94.1835 195.00
94.4878 209.00
94.7921 197.00
95.0963 172.00
95.4006 185.00
95.7048 196.00
96.0091 196.00
96.3134 195.00
96.6176 198.00
96.9219 198.00
97.2261 200.00
97.5304 190.00
97.8347 163.00
98.1389 195.00
98.4432 187.00
98.7474 169.00
99.0517 173.00
99.356 184.00
99.6602 195.00
99.9645 172.00
100.095 175.00