File: data/xrd_creation/results/MINES_20.xy
9.903433 2624.00
10.2077 2607.00
10.512 2442.00
10.8162 2281.00
11.1205 2262.00
11.4247 2208.00
11.729 2017.00
12.0333 1917.00
12.3375 1925.00
12.6418 1797.00
12.946 1692.00
13.2503 1680.00
13.5546 1633.00
13.8588 1568.00
14.1631 1448.00
14.4673 1316.00
14.7716 1400.00
15.0759 1424.00
15.3801 1464.00
15.6844 1386.00
15.9886 1375.00
16.2929 1459.00
16.5972 1418.00
16.9014 1227.00
17.2057 1192.00
17.5099 1187.00
17.8142 1143.00
18.1185 1073.00
18.4227 1119.00
18.727 1097.00
19.0312 1074.00
19.3355 1249.00
19.6398 1338.00
19.944 1110.00
20.2483 994.00
20.5525 1147.00
20.8568 1553.00
21.1611 1035.00
21.4653 933.00
21.7696 898.00
22.0738 903.00
22.3781 920.00
22.6824 1072.00
22.9866 1444.00
23.2909 1017.00
23.5951 1136.00
23.8994 1931.00
24.2037 1282.00
24.5079 1468.00
24.8122 2494.00
25.1164 1964.00
25.4207 3417.00
25.725 4568.00
26.0292 2135.00
26.3335 1929.00
26.6378 4094.00
26.942 1509.00
27.2463 740.00
27.5505 745.00
27.8548 728.00
28.1591 805.00
28.4633 856.00
28.7676 674.00
29.0718 657.00
29.3761 642.00
29.6804 613.00
29.9846 619.00
30.2889 627.00
30.5931 698.00
30.8974 734.00
31.2017 621.00
31.5059 584.00
31.8102 606.00
32.1144 633.00
32.4187 577.00
32.723 553.00
33.0272 511.00
33.3315 535.00
33.6357 475.00
33.94 530.00
34.2443 566.00
34.5485 478.00
34.8528 503.00
35.157 462.00
35.4613 483.00
35.7656 472.00
36.0698 493.00
36.3741 721.00
36.6783 625.00
36.9826 500.00
37.2869 605.00
37.5911 1100.00
37.8954 1011.00
38.1996 840.00
38.5039 652.00
38.8082 507.00
39.1124 567.00
39.4167 823.00
39.7209 674.00
40.0252 534.00
40.3295 500.00
40.6337 381.00
40.938 383.00
41.2422 355.00
41.5465 392.00
41.8508 386.00
42.155 469.00
42.4593 469.00
42.7635 381.00
43.0678 444.00
43.3721 433.00
43.6763 374.00
43.9806 447.00
44.2849 385.00
44.5891 335.00
44.8934 375.00
45.1976 402.00
45.5019 479.00
45.8062 598.00
46.1104 665.00
46.4147 472.00
46.7189 358.00
47.0232 387.00
47.3275 359.00
47.6317 423.00
47.936 480.00
48.2402 512.00
48.5445 584.00
48.8488 456.00
49.153 375.00
49.4573 358.00
49.7615 427.00
50.0658 610.00
50.3701 436.00
50.6743 428.00
50.9786 338.00
51.2828 309.00
51.5871 293.00
51.8914 292.00
52.1956 278.00
52.4999 286.00
52.8041 315.00
53.1084 319.00
53.4127 284.00
53.7169 300.00
54.0212 261.00
54.3254 309.00
54.6297 314.00
54.934 329.00
55.2382 277.00
55.5425 295.00
55.8467 335.00
56.151 410.00
56.4553 373.00
56.7595 308.00
57.0638 321.00
57.368 276.00
57.6723 248.00
57.9766 235.00
58.2808 271.00
58.5851 276.00
58.8893 244.00
59.1936 258.00
59.4979 325.00
59.8021 371.00
60.1064 316.00
60.4106 357.00
60.7149 347.00
61.0192 369.00
61.3234 330.00
61.6277 279.00
61.932 249.00
62.2362 273.00
62.5405 242.00
62.8447 271.00
63.149 348.00
63.4533 352.00
63.7575 325.00
64.0618 331.00
64.366 333.00
64.6703 322.00
64.9745 320.00
65.2788 322.00
65.5831 386.00
65.8873 369.00
66.1916 302.00
66.4959 340.00
66.8001 462.00
67.1044 503.00
67.4086 423.00
67.7129 405.00
68.0172 453.00
68.3214 422.00
68.6257 333.00
68.9299 261.00
69.2342 266.00
69.5385 244.00
69.8427 207.00
70.147 239.00
70.4512 218.00
70.7555 199.00
71.0598 259.00
71.364 239.00
71.6683 280.00
71.9725 263.00
72.2768 283.00
72.5811 238.00
72.8853 262.00
73.1896 266.00
73.4938 241.00
73.7981 233.00
74.1024 216.00
74.4066 221.00
74.7109 204.00
75.0151 235.00
75.3194 266.00
75.6237 258.00
75.9279 290.00
76.2322 326.00
76.5364 280.00
76.8407 246.00
77.145 303.00
77.4492 278.00
77.7535 312.00
78.0577 358.00
78.362 287.00
78.6663 246.00
78.9705 292.00
79.2748 302.00
79.579 324.00
79.8833 326.00
80.1876 256.00
80.4918 286.00
80.7961 286.00
81.1003 349.00
81.4046 278.00
81.7089 268.00
82.0131 227.00
82.3174 206.00
82.6217 278.00
82.9259 214.00
83.2302 228.00
83.5344 268.00
83.8387 261.00
84.143 210.00
84.4472 263.00
84.7515 264.00
85.0557 294.00
85.36 228.00
85.6643 259.00
85.9685 243.00
86.2728 234.00
86.577 240.00
86.8813 217.00
87.1856 196.00
87.4898 245.00
87.7941 239.00
88.0983 221.00
88.4026 214.00
88.7069 204.00
89.0111 213.00
89.3154 212.00
89.6196 219.00
89.9239 202.00
90.2282 211.00
90.5324 219.00
90.8367 236.00
91.1409 194.00
91.4452 212.00
91.7495 203.00
92.0537 204.00
92.358 215.00
92.6622 229.00
92.9665 202.00
93.2708 238.00
93.575 219.00
93.8793 233.00
94.1835 245.00
94.4878 231.00
94.7921 243.00
95.0963 207.00
95.4006 204.00
95.7048 198.00
96.0091 230.00
96.3134 204.00
96.6176 185.00
96.9219 226.00
97.2261 229.00
97.5304 232.00
97.8347 199.00
98.1389 229.00
98.4432 215.00
98.7474 207.00
99.0517 212.00
99.356 178.00
99.6602 189.00
99.9645 232.00
100.095 203.00