File: data/xrd_creation/results/MINES_14.xy
9.903433 2618.00
10.2077 2514.00
10.512 2447.00
10.8162 2268.00
11.1205 2257.00
11.4247 2150.00
11.729 2020.00
12.0333 2039.00
12.3375 1900.00
12.6418 1887.00
12.946 1790.00
13.2503 1702.00
13.5546 1723.00
13.8588 1583.00
14.1631 1549.00
14.4673 1635.00
14.7716 1556.00
15.0759 1735.00
15.3801 1789.00
15.6844 1495.00
15.9886 1542.00
16.2929 1672.00
16.5972 1417.00
16.9014 1356.00
17.2057 1267.00
17.5099 1308.00
17.8142 1288.00
18.1185 1320.00
18.4227 1286.00
18.727 1404.00
19.0312 1462.00
19.3355 3280.00
19.6398 1432.00
19.944 1122.00
20.2483 1147.00
20.5525 1191.00
20.8568 1027.00
21.1611 1117.00
21.4653 1081.00
21.7696 1044.00
22.0738 974.00
22.3781 1184.00
22.6824 3675.00
22.9866 3182.00
23.2909 1059.00
23.5951 1727.00
23.8994 1453.00
24.2037 1808.00
24.5079 1337.00
24.8122 3585.00
25.1164 2722.00
25.4207 9335.00
25.725 14602.00
26.0292 1718.00
26.3335 1554.00
26.6378 1209.00
26.942 1088.00
27.2463 916.00
27.5505 942.00
27.8548 913.00
28.1591 1933.00
28.4633 1355.00
28.7676 791.00
29.0718 757.00
29.3761 732.00
29.6804 767.00
29.9846 784.00
30.2889 786.00
30.5931 892.00
30.8974 796.00
31.2017 693.00
31.5059 803.00
31.8102 921.00
32.1144 809.00
32.4187 741.00
32.723 776.00
33.0272 961.00
33.3315 700.00
33.6357 664.00
33.94 886.00
34.2443 787.00
34.5485 603.00
34.8528 597.00
35.157 630.00
35.4613 606.00
35.7656 627.00
36.0698 632.00
36.3741 629.00
36.6783 601.00
36.9826 641.00
37.2869 869.00
37.5911 1555.00
37.8954 871.00
38.1996 1040.00
38.5039 674.00
38.8082 576.00
39.1124 1051.00
39.4167 1058.00
39.7209 806.00
40.0252 859.00
40.3295 610.00
40.6337 530.00
40.938 508.00
41.2422 528.00
41.5465 573.00
41.8508 531.00
42.155 511.00
42.4593 506.00
42.7635 715.00
43.0678 995.00
43.3721 693.00
43.6763 510.00
43.9806 648.00
44.2849 469.00
44.5891 486.00
44.8934 511.00
45.1976 591.00
45.5019 627.00
45.8062 742.00
46.1104 837.00
46.4147 470.00
46.7189 538.00
47.0232 997.00
47.3275 644.00
47.6317 736.00
47.936 1005.00
48.2402 1201.00
48.5445 1805.00
48.8488 993.00
49.153 590.00
49.4573 460.00
49.7615 554.00
50.0658 468.00
50.3701 483.00
50.6743 492.00
50.9786 441.00
51.2828 460.00
51.5871 407.00
51.8914 415.00
52.1956 394.00
52.4999 480.00
52.8041 490.00
53.1084 424.00
53.4127 356.00
53.7169 377.00
54.0212 478.00
54.3254 529.00
54.6297 419.00
54.934 422.00
55.2382 432.00
55.5425 691.00
55.8467 712.00
56.151 907.00
56.4553 514.00
56.7595 403.00
57.0638 382.00
57.368 376.00
57.6723 438.00
57.9766 350.00
58.2808 346.00
58.5851 412.00
58.8893 350.00
59.1936 396.00
59.4979 393.00
59.8021 376.00
60.1064 523.00
60.4106 703.00
60.7149 584.00
61.0192 462.00
61.3234 394.00
61.6277 343.00
61.932 351.00
62.2362 385.00
62.5405 412.00
62.8447 506.00
63.149 581.00
63.4533 507.00
63.7575 559.00
64.0618 583.00
64.366 578.00
64.6703 542.00
64.9745 458.00
65.2788 618.00
65.5831 691.00
65.8873 480.00
66.1916 404.00
66.4959 605.00
66.8001 834.00
67.1044 606.00
67.4086 429.00
67.7129 459.00
68.0172 605.00
68.3214 527.00
68.6257 409.00
68.9299 424.00
69.2342 344.00
69.5385 402.00
69.8427 406.00
70.147 360.00
70.4512 362.00
70.7555 337.00
71.0598 418.00
71.364 437.00
71.6683 534.00
71.9725 476.00
72.2768 404.00
72.5811 357.00
72.8853 328.00
73.1896 315.00
73.4938 304.00
73.7981 321.00
74.1024 342.00
74.4066 348.00
74.7109 396.00
75.0151 384.00
75.3194 353.00
75.6237 347.00
75.9279 386.00
76.2322 455.00
76.5364 347.00
76.8407 468.00
77.145 529.00
77.4492 510.00
77.7535 525.00
78.0577 428.00
78.362 388.00
78.6663 363.00
78.9705 375.00
79.2748 379.00
79.579 361.00
79.8833 320.00
80.1876 320.00
80.4918 364.00
80.7961 397.00
81.1003 404.00
81.4046 361.00
81.7089 310.00
82.0131 339.00
82.3174 303.00
82.6217 328.00
82.9259 301.00
83.2302 306.00
83.5344 283.00
83.8387 314.00
84.143 336.00
84.4472 350.00
84.7515 366.00
85.0557 376.00
85.36 390.00
85.6643 367.00
85.9685 319.00
86.2728 297.00
86.577 260.00
86.8813 304.00
87.1856 286.00
87.4898 330.00
87.7941 327.00
88.0983 358.00
88.4026 311.00
88.7069 337.00
89.0111 296.00
89.3154 336.00
89.6196 278.00
89.9239 288.00
90.2282 308.00
90.5324 288.00
90.8367 293.00
91.1409 294.00
91.4452 281.00
91.7495 301.00
92.0537 303.00
92.358 307.00
92.6622 320.00
92.9665 323.00
93.2708 326.00
93.575 334.00
93.8793 363.00
94.1835 316.00
94.4878 280.00
94.7921 336.00
95.0963 281.00
95.4006 322.00
95.7048 304.00
96.0091 316.00
96.3134 332.00
96.6176 334.00
96.9219 324.00
97.2261 334.00
97.5304 304.00
97.8347 320.00
98.1389 283.00
98.4432 284.00
98.7474 284.00
99.0517 274.00
99.356 313.00
99.6602 275.00
99.9645 281.00
100.095 269.00