File: data/xrd_creation/results/MINES_3.xy
9.903433 4785.00
10.2077 4727.00
10.512 4743.00
10.8162 4586.00
11.1205 4598.00
11.4247 4308.00
11.729 4421.00
12.0333 4589.00
12.3375 4353.00
12.6418 4414.00
12.946 4445.00
13.2503 4401.00
13.5546 4442.00
13.8588 4346.00
14.1631 4458.00
14.4673 5390.00
14.7716 4147.00
15.0759 4162.00
15.3801 4352.00
15.6844 4324.00
15.9886 4141.00
16.2929 4254.00
16.5972 4477.00
16.9014 4181.00
17.2057 4192.00
17.5099 4103.00
17.8142 4039.00
18.1185 4083.00
18.4227 3993.00
18.727 4025.00
19.0312 4092.00
19.3355 3964.00
19.6398 4439.00
19.944 4221.00
20.2483 4559.00
20.5525 4110.00
20.8568 5180.00
21.1611 4680.00
21.4653 3914.00
21.7696 3839.00
22.0738 3965.00
22.3781 3872.00
22.6824 4003.00
22.9866 4364.00
23.2909 4573.00
23.5951 3785.00
23.8994 4331.00
24.2037 5263.00
24.5079 5597.00
24.8122 4249.00
25.1164 8588.00
25.4207 4658.00
25.725 8227.00
26.0292 6947.00
26.3335 4412.00
26.6378 5335.00
26.942 8901.00
27.2463 3740.00
27.5505 3761.00
27.8548 3781.00
28.1591 3670.00
28.4633 3883.00
28.7676 3875.00
29.0718 3674.00
29.3761 3634.00
29.6804 3709.00
29.9846 3748.00
30.2889 5894.00
30.5931 4139.00
30.8974 4029.00
31.2017 3645.00
31.5059 3877.00
31.8102 4013.00
32.1144 3701.00
32.4187 3716.00
32.723 3615.00
33.0272 3699.00
33.3315 4590.00
33.6357 4103.00
33.94 3515.00
34.2443 3424.00
34.5485 3546.00
34.8528 3484.00
35.157 3440.00
35.4613 3588.00
35.7656 4078.00
36.0698 5547.00
36.3741 4134.00
36.6783 3805.00
36.9826 3419.00
37.2869 3509.00
37.5911 3765.00
37.8954 5137.00
38.1996 3579.00
38.5039 4257.00
38.8082 3522.00
39.1124 3469.00
39.4167 3802.00
39.7209 4102.00
40.0252 3646.00
40.3295 3632.00
40.6337 3559.00
40.938 3589.00
41.2422 3915.00
41.5465 3426.00
41.8508 3306.00
42.155 3544.00
42.4593 3991.00
42.7635 3481.00
43.0678 3718.00
43.3721 3679.00
43.6763 3640.00
43.9806 3323.00
44.2849 3768.00
44.5891 3412.00
44.8934 3408.00
45.1976 3666.00
45.5019 3492.00
45.8062 3570.00
46.1104 3611.00
46.4147 4149.00
46.7189 3391.00
47.0232 3370.00
47.3275 3339.00
47.6317 3645.00
47.936 3685.00
48.2402 3582.00
48.5445 3801.00
48.8488 3666.00
49.153 3647.00
49.4573 3562.00
49.7615 4782.00
50.0658 3701.00
50.3701 3967.00
50.6743 3354.00
50.9786 3400.00
51.2828 3414.00
51.5871 3286.00
51.8914 3380.00
52.1956 3221.00
52.4999 3292.00
52.8041 3446.00
53.1084 3394.00
53.4127 3269.00
53.7169 3291.00
54.0212 3423.00
54.3254 4893.00
54.6297 3511.00
54.934 3413.00
55.2382 3346.00
55.5425 3418.00
55.8467 3261.00
56.151 3452.00
56.4553 3703.00
56.7595 3957.00
57.0638 3337.00
57.368 3243.00
57.6723 4012.00
57.9766 3633.00
58.2808 3302.00
58.5851 3318.00
58.8893 3308.00
59.1936 3356.00
59.4979 3376.00
59.8021 3532.00
60.1064 3653.00
60.4106 3464.00
60.7149 3560.00
61.0192 3485.00
61.3234 3479.00
61.6277 3424.00
61.932 3322.00
62.2362 3391.00
62.5405 3770.00
62.8447 4027.00
63.149 3500.00
63.4533 3807.00
63.7575 3592.00
64.0618 3741.00
64.366 3922.00
64.6703 3491.00
64.9745 3675.00
65.2788 3459.00
65.5831 3395.00
65.8873 3731.00
66.1916 3333.00
66.4959 3327.00
66.8001 3563.00
67.1044 3536.00
67.4086 3677.00
67.7129 3560.00
68.0172 3689.00
68.3214 3683.00
68.6257 3718.00
68.9299 3488.00
69.2342 3777.00
69.5385 3498.00
69.8427 3338.00
70.147 3310.00
70.4512 3416.00
70.7555 3433.00
71.0598 3314.00
71.364 3249.00
71.6683 3316.00
71.9725 3450.00
72.2768 3655.00
72.5811 3508.00
72.8853 3276.00
73.1896 3376.00
73.4938 3442.00
73.7981 3395.00
74.1024 3315.00
74.4066 3326.00
74.7109 3289.00
75.0151 3253.00
75.3194 3215.00
75.6237 3512.00
75.9279 3379.00
76.2322 3354.00
76.5364 3538.00
76.8407 3458.00
77.145 3409.00
77.4492 3332.00
77.7535 3394.00
78.0577 3350.00
78.362 3502.00
78.6663 3281.00
78.9705 3389.00
79.2748 3342.00
79.579 3348.00
79.8833 3511.00
80.1876 3417.00
80.4918 3322.00
80.7961 3455.00
81.1003 3401.00
81.4046 3489.00
81.7089 3240.00
82.0131 3349.00
82.3174 3209.00
82.6217 3246.00
82.9259 3402.00
83.2302 3482.00
83.5344 3268.00
83.8387 3214.00
84.143 3354.00
84.4472 3372.00
84.7515 3309.00
85.0557 3428.00
85.36 3349.00
85.6643 3298.00
85.9685 3347.00
86.2728 3227.00
86.577 3257.00
86.8813 3186.00
87.1856 3202.00
87.4898 3294.00
87.7941 3264.00
88.0983 3241.00
88.4026 3316.00
88.7069 3442.00
89.0111 3318.00
89.3154 3181.00
89.6196 3236.00
89.9239 3254.00
90.2282 3178.00
90.5324 3365.00
90.8367 3369.00
91.1409 3224.00
91.4452 3250.00
91.7495 3285.00
92.0537 3292.00
92.358 3208.00
92.6622 3249.00
92.9665 3269.00
93.2708 3227.00
93.575 3335.00
93.8793 3477.00
94.1835 3388.00
94.4878 3258.00
94.7921 3330.00
95.0963 3371.00
95.4006 3361.00
95.7048 3247.00
96.0091 3371.00
96.3134 3261.00
96.6176 3162.00
96.9219 3203.00
97.2261 3160.00
97.5304 3306.00
97.8347 3234.00
98.1389 3246.00
98.4432 3333.00
98.7474 3271.00
99.0517 3382.00
99.356 3238.00
99.6602 3373.00
99.9645 3186.00
100.095 3185.00