File: data/xrd_creation/results/MINES_16.xy
9.903433 2738.00
10.2077 2620.00
10.512 2543.00
10.8162 2470.00
11.1205 2435.00
11.4247 2294.00
11.729 2264.00
12.0333 2220.00
12.3375 2144.00
12.6418 2052.00
12.946 2012.00
13.2503 1974.00
13.5546 2008.00
13.8588 2518.00
14.1631 2262.00
14.4673 1901.00
14.7716 1834.00
15.0759 1753.00
15.3801 1765.00
15.6844 1718.00
15.9886 1715.00
16.2929 1645.00
16.5972 1852.00
16.9014 1702.00
17.2057 2188.00
17.5099 1623.00
17.8142 1620.00
18.1185 1601.00
18.4227 1537.00
18.727 1477.00
19.0312 1555.00
19.3355 1595.00
19.6398 2210.00
19.944 2298.00
20.2483 1444.00
20.5525 1502.00
20.8568 1435.00
21.1611 2323.00
21.4653 1458.00
21.7696 3836.00
22.0738 1452.00
22.3781 1317.00
22.6824 1271.00
22.9866 1257.00
23.2909 1284.00
23.5951 1236.00
23.8994 1466.00
24.2037 2069.00
24.5079 1528.00
24.8122 1512.00
25.1164 4414.00
25.4207 2021.00
25.725 1145.00
26.0292 1160.00
26.3335 1219.00
26.6378 1257.00
26.942 5798.00
27.2463 1143.00
27.5505 1014.00
27.8548 1075.00
28.1591 1036.00
28.4633 1034.00
28.7676 1132.00
29.0718 1518.00
29.3761 2211.00
29.6804 1403.00
29.9846 1226.00
30.2889 1303.00
30.5931 2109.00
30.8974 34910.00
31.2017 2770.00
31.5059 1528.00
31.8102 1165.00
32.1144 1015.00
32.4187 917.00
32.723 917.00
33.0272 879.00
33.3315 1036.00
33.6357 847.00
33.94 855.00
34.2443 856.00
34.5485 1811.00
34.8528 1005.00
35.157 1933.00
35.4613 1261.00
35.7656 10768.00
36.0698 1450.00
36.3741 1089.00
36.6783 1152.00
36.9826 1196.00
37.2869 928.00
37.5911 939.00
37.8954 2243.00
38.1996 980.00
38.5039 1276.00
38.8082 728.00
39.1124 812.00
39.4167 933.00
39.7209 1109.00
40.0252 896.00
40.3295 786.00
40.6337 800.00
40.938 675.00
41.2422 941.00
41.5465 867.00
41.8508 1199.00
42.155 2472.00
42.4593 967.00
42.7635 901.00
43.0678 743.00
43.3721 765.00
43.6763 698.00
43.9806 789.00
44.2849 958.00
44.5891 668.00
44.8934 785.00
45.1976 659.00
45.5019 764.00
45.8062 1068.00
46.1104 2289.00
46.4147 1086.00
46.7189 656.00
47.0232 647.00
47.3275 613.00
47.6317 661.00
47.936 606.00
48.2402 697.00
48.5445 657.00
48.8488 596.00
49.153 656.00
49.4573 778.00
49.7615 925.00
50.0658 820.00
50.3701 1094.00
50.6743 744.00
50.9786 1075.00
51.2828 10020.00
51.5871 2019.00
51.8914 762.00
52.1956 635.00
52.4999 553.00
52.8041 705.00
53.1084 958.00
53.4127 689.00
53.7169 664.00
54.0212 645.00
54.3254 589.00
54.6297 809.00
54.934 788.00
55.2382 903.00
55.5425 845.00
55.8467 721.00
56.151 1349.00
56.4553 1119.00
56.7595 540.00
57.0638 567.00
57.368 800.00
57.6723 568.00
57.9766 689.00
58.2808 489.00
58.5851 508.00
58.8893 605.00
59.1936 662.00
59.4979 1350.00
59.8021 635.00
60.1064 874.00
60.4106 945.00
60.7149 1427.00
61.0192 4896.00
61.3234 1198.00
61.6277 828.00
61.932 595.00
62.2362 746.00
62.5405 1275.00
62.8447 625.00
63.149 527.00
63.4533 621.00
63.7575 741.00
64.0618 1343.00
64.366 606.00
64.6703 590.00
64.9745 710.00
65.2788 630.00
65.5831 851.00
65.8873 766.00
66.1916 527.00
66.4959 458.00
66.8001 752.00
67.1044 603.00
67.4086 571.00
67.7129 619.00
68.0172 803.00
68.3214 1519.00
68.6257 1002.00
68.9299 648.00
69.2342 732.00
69.5385 583.00
69.8427 690.00
70.147 482.00
70.4512 511.00
70.7555 436.00
71.0598 444.00
71.364 459.00
71.6683 473.00
71.9725 523.00
72.2768 441.00
72.5811 494.00
72.8853 548.00
73.1896 569.00
73.4938 582.00
73.7981 673.00
74.1024 802.00
74.4066 456.00
74.7109 439.00
75.0151 489.00
75.3194 1195.00
75.6237 612.00
75.9279 596.00
76.2322 576.00
76.5364 771.00
76.8407 795.00
77.145 463.00
77.4492 454.00
77.7535 555.00
78.0577 932.00
78.362 612.00
78.6663 461.00
78.9705 455.00
79.2748 651.00
79.579 641.00
79.8833 470.00
80.1876 483.00
80.4918 496.00
80.7961 626.00
81.1003 499.00
81.4046 536.00
81.7089 487.00
82.0131 981.00
82.3174 811.00
82.6217 460.00
82.9259 517.00
83.2302 719.00
83.5344 1007.00
83.8387 600.00
84.143 499.00
84.4472 434.00
84.7515 465.00
85.0557 406.00
85.36 435.00
85.6643 534.00
85.9685 952.00
86.2728 913.00
86.577 461.00
86.8813 424.00
87.1856 535.00
87.4898 613.00
87.7941 522.00
88.0983 480.00
88.4026 449.00
88.7069 638.00
89.0111 590.00
89.3154 467.00
89.6196 457.00
89.9239 587.00
90.2282 591.00
90.5324 464.00
90.8367 427.00
91.1409 450.00
91.4452 488.00
91.7495 396.00
92.0537 427.00
92.358 412.00
92.6622 820.00
92.9665 708.00
93.2708 499.00
93.575 469.00
93.8793 443.00
94.1835 408.00
94.4878 387.00
94.7921 405.00
95.0963 521.00
95.4006 782.00
95.7048 692.00
96.0091 510.00
96.3134 560.00
96.6176 1033.00
96.9219 815.00
97.2261 447.00
97.5304 463.00
97.8347 502.00
98.1389 665.00
98.4432 571.00
98.7474 459.00
99.0517 470.00
99.356 754.00
99.6602 559.00
99.9645 443.00
100.095 430.00