File: data/xrd_creation/results/MINES_23.xy
9.903433 2783.00
10.2077 2742.00
10.512 2682.00
10.8162 2603.00
11.1205 2373.00
11.4247 2287.00
11.729 2265.00
12.0333 2179.00
12.3375 2249.00
12.6418 2023.00
12.946 1945.00
13.2503 2004.00
13.5546 1923.00
13.8588 1912.00
14.1631 1718.00
14.4673 1794.00
14.7716 1663.00
15.0759 1737.00
15.3801 1810.00
15.6844 1958.00
15.9886 1714.00
16.2929 1822.00
16.5972 2126.00
16.9014 1612.00
17.2057 1488.00
17.5099 1422.00
17.8142 1430.00
18.1185 1460.00
18.4227 1384.00
18.727 1347.00
19.0312 1343.00
19.3355 1813.00
19.6398 2865.00
19.944 1575.00
20.2483 1388.00
20.5525 1616.00
20.8568 2401.00
21.1611 1457.00
21.4653 1165.00
21.7696 1232.00
22.0738 1472.00
22.3781 1316.00
22.6824 1486.00
22.9866 3145.00
23.2909 3258.00
23.5951 1737.00
23.8994 4156.00
24.2037 2250.00
24.5079 3605.00
24.8122 3942.00
25.1164 6941.00
25.4207 5464.00
25.725 12835.00
26.0292 10583.00
26.3335 3562.00
26.6378 8358.00
26.942 2682.00
27.2463 1217.00
27.5505 1240.00
27.8548 1149.00
28.1591 1258.00
28.4633 1870.00
28.7676 1591.00
29.0718 1383.00
29.3761 1758.00
29.6804 1061.00
29.9846 1144.00
30.2889 1152.00
30.5931 1356.00
30.8974 1604.00
31.2017 1213.00
31.5059 1177.00
31.8102 1131.00
32.1144 1530.00
32.4187 1734.00
32.723 1068.00
33.0272 1081.00
33.3315 1146.00
33.6357 911.00
33.94 939.00
34.2443 1199.00
34.5485 1127.00
34.8528 816.00
35.157 766.00
35.4613 782.00
35.7656 756.00
36.0698 937.00
36.3741 1132.00
36.6783 1137.00
36.9826 981.00
37.2869 1203.00
37.5911 2359.00
37.8954 3345.00
38.1996 1884.00
38.5039 1794.00
38.8082 836.00
39.1124 1044.00
39.4167 2000.00
39.7209 1742.00
40.0252 1252.00
40.3295 1057.00
40.6337 800.00
40.938 705.00
41.2422 713.00
41.5465 699.00
41.8508 747.00
42.155 881.00
42.4593 958.00
42.7635 719.00
43.0678 1027.00
43.3721 1075.00
43.6763 895.00
43.9806 892.00
44.2849 1011.00
44.5891 688.00
44.8934 838.00
45.1976 1090.00
45.5019 1184.00
45.8062 1467.00
46.1104 1852.00
46.4147 1562.00
46.7189 660.00
47.0232 787.00
47.3275 1041.00
47.6317 1140.00
47.936 1204.00
48.2402 1619.00
48.5445 1724.00
48.8488 1834.00
49.153 1238.00
49.4573 1055.00
49.7615 910.00
50.0658 1518.00
50.3701 992.00
50.6743 1211.00
50.9786 834.00
51.2828 788.00
51.5871 619.00
51.8914 647.00
52.1956 640.00
52.4999 696.00
52.8041 728.00
53.1084 679.00
53.4127 652.00
53.7169 622.00
54.0212 568.00
54.3254 662.00
54.6297 871.00
54.934 741.00
55.2382 664.00
55.5425 640.00
55.8467 947.00
56.151 1134.00
56.4553 1120.00
56.7595 835.00
57.0638 700.00
57.368 600.00
57.6723 609.00
57.9766 675.00
58.2808 519.00
58.5851 566.00
58.8893 557.00
59.1936 590.00
59.4979 792.00
59.8021 942.00
60.1064 778.00
60.4106 932.00
60.7149 1292.00
61.0192 1118.00
61.3234 894.00
61.6277 652.00
61.932 622.00
62.2362 581.00
62.5405 629.00
62.8447 622.00
63.149 840.00
63.4533 876.00
63.7575 1035.00
64.0618 983.00
64.366 830.00
64.6703 856.00
64.9745 928.00
65.2788 824.00
65.5831 1049.00
65.8873 1077.00
66.1916 808.00
66.4959 874.00
66.8001 1334.00
67.1044 1730.00
67.4086 1306.00
67.7129 1052.00
68.0172 1172.00
68.3214 1153.00
68.6257 917.00
68.9299 719.00
69.2342 725.00
69.5385 613.00
69.8427 566.00
70.147 557.00
70.4512 500.00
70.7555 507.00
71.0598 509.00
71.364 632.00
71.6683 567.00
71.9725 610.00
72.2768 725.00
72.5811 683.00
72.8853 509.00
73.1896 512.00
73.4938 572.00
73.7981 483.00
74.1024 413.00
74.4066 445.00
74.7109 482.00
75.0151 580.00
75.3194 661.00
75.6237 591.00
75.9279 625.00
76.2322 732.00
76.5364 698.00
76.8407 606.00
77.145 722.00
77.4492 745.00
77.7535 824.00
78.0577 835.00
78.362 790.00
78.6663 680.00
78.9705 671.00
79.2748 724.00
79.579 731.00
79.8833 568.00
80.1876 447.00
80.4918 492.00
80.7961 533.00
81.1003 625.00
81.4046 587.00
81.7089 479.00
82.0131 456.00
82.3174 406.00
82.6217 425.00
82.9259 446.00
83.2302 416.00
83.5344 437.00
83.8387 373.00
84.143 438.00
84.4472 432.00
84.7515 512.00
85.0557 563.00
85.36 474.00
85.6643 547.00
85.9685 521.00
86.2728 420.00
86.577 371.00
86.8813 353.00
87.1856 401.00
87.4898 460.00
87.7941 470.00
88.0983 500.00
88.4026 521.00
88.7069 429.00
89.0111 439.00
89.3154 385.00
89.6196 446.00
89.9239 448.00
90.2282 445.00
90.5324 451.00
90.8367 412.00
91.1409 427.00
91.4452 349.00
91.7495 384.00
92.0537 444.00
92.358 382.00
92.6622 372.00
92.9665 467.00
93.2708 453.00
93.575 495.00
93.8793 479.00
94.1835 476.00
94.4878 475.00
94.7921 470.00
95.0963 435.00
95.4006 432.00
95.7048 430.00
96.0091 454.00
96.3134 438.00
96.6176 448.00
96.9219 487.00
97.2261 463.00
97.5304 458.00
97.8347 470.00
98.1389 481.00
98.4432 440.00
98.7474 429.00
99.0517 381.00
99.356 374.00
99.6602 364.00
99.9645 421.00
100.095 389.00