File: data/xrd_creation/results/MINES_11.xy
9.903433 2581.00
10.2077 2594.00
10.512 2483.00
10.8162 2289.00
11.1205 2224.00
11.4247 2086.00
11.729 2049.00
12.0333 1972.00
12.3375 1832.00
12.6418 1806.00
12.946 1679.00
13.2503 1648.00
13.5546 1512.00
13.8588 1610.00
14.1631 1461.00
14.4673 1501.00
14.7716 1397.00
15.0759 1403.00
15.3801 1464.00
15.6844 1345.00
15.9886 1342.00
16.2929 1365.00
16.5972 1261.00
16.9014 1248.00
17.2057 1188.00
17.5099 1262.00
17.8142 1129.00
18.1185 1108.00
18.4227 1157.00
18.727 1066.00
19.0312 1091.00
19.3355 1352.00
19.6398 1143.00
19.944 979.00
20.2483 1066.00
20.5525 1125.00
20.8568 1102.00
21.1611 917.00
21.4653 907.00
21.7696 845.00
22.0738 865.00
22.3781 858.00
22.6824 1200.00
22.9866 1220.00
23.2909 843.00
23.5951 941.00
23.8994 1033.00
24.2037 966.00
24.5079 968.00
24.8122 1423.00
25.1164 1430.00
25.4207 2372.00
25.725 2552.00
26.0292 1060.00
26.3335 1341.00
26.6378 1249.00
26.942 711.00
27.2463 683.00
27.5505 722.00
27.8548 655.00
28.1591 769.00
28.4633 769.00
28.7676 642.00
29.0718 602.00
29.3761 610.00
29.6804 607.00
29.9846 596.00
30.2889 607.00
30.5931 622.00
30.8974 548.00
31.2017 579.00
31.5059 608.00
31.8102 546.00
32.1144 591.00
32.4187 547.00
32.723 550.00
33.0272 558.00
33.3315 526.00
33.6357 485.00
33.94 528.00
34.2443 524.00
34.5485 520.00
34.8528 451.00
35.157 504.00
35.4613 483.00
35.7656 478.00
36.0698 497.00
36.3741 486.00
36.6783 502.00
36.9826 462.00
37.2869 532.00
37.5911 563.00
37.8954 458.00
38.1996 499.00
38.5039 409.00
38.8082 428.00
39.1124 454.00
39.4167 524.00
39.7209 438.00
40.0252 453.00
40.3295 382.00
40.6337 386.00
40.938 344.00
41.2422 367.00
41.5465 349.00
41.8508 349.00
42.155 344.00
42.4593 349.00
42.7635 380.00
43.0678 408.00
43.3721 386.00
43.6763 326.00
43.9806 403.00
44.2849 335.00
44.5891 319.00
44.8934 357.00
45.1976 368.00
45.5019 362.00
45.8062 381.00
46.1104 341.00
46.4147 325.00
46.7189 341.00
47.0232 336.00
47.3275 339.00
47.6317 386.00
47.936 360.00
48.2402 398.00
48.5445 380.00
48.8488 362.00
49.153 331.00
49.4573 316.00
49.7615 348.00
50.0658 362.00
50.3701 312.00
50.6743 305.00
50.9786 277.00
51.2828 312.00
51.5871 290.00
51.8914 288.00
52.1956 294.00
52.4999 274.00
52.8041 279.00
53.1084 297.00
53.4127 293.00
53.7169 263.00
54.0212 282.00
54.3254 266.00
54.6297 270.00
54.934 250.00
55.2382 256.00
55.5425 316.00
55.8467 299.00
56.151 317.00
56.4553 271.00
56.7595 245.00
57.0638 229.00
57.368 260.00
57.6723 236.00
57.9766 231.00
58.2808 227.00
58.5851 228.00
58.8893 228.00
59.1936 279.00
59.4979 224.00
59.8021 250.00
60.1064 232.00
60.4106 261.00
60.7149 246.00
61.0192 267.00
61.3234 208.00
61.6277 241.00
61.932 212.00
62.2362 237.00
62.5405 217.00
62.8447 229.00
63.149 246.00
63.4533 234.00
63.7575 274.00
64.0618 274.00
64.366 217.00
64.6703 249.00
64.9745 245.00
65.2788 231.00
65.5831 230.00
65.8873 261.00
66.1916 229.00
66.4959 259.00
66.8001 249.00
67.1044 243.00
67.4086 225.00
67.7129 244.00
68.0172 223.00
68.3214 244.00
68.6257 237.00
68.9299 232.00
69.2342 215.00
69.5385 256.00
69.8427 208.00
70.147 225.00
70.4512 198.00
70.7555 228.00
71.0598 234.00
71.364 225.00
71.6683 206.00
71.9725 202.00
72.2768 226.00
72.5811 199.00
72.8853 202.00
73.1896 219.00
73.4938 189.00
73.7981 208.00
74.1024 219.00
74.4066 216.00
74.7109 230.00
75.0151 224.00
75.3194 225.00
75.6237 236.00
75.9279 249.00
76.2322 212.00
76.5364 211.00
76.8407 221.00
77.145 258.00
77.4492 235.00
77.7535 277.00
78.0577 229.00
78.362 278.00
78.6663 232.00
78.9705 234.00
79.2748 233.00
79.579 183.00
79.8833 215.00
80.1876 245.00
80.4918 256.00
80.7961 264.00
81.1003 221.00
81.4046 248.00
81.7089 208.00
82.0131 221.00
82.3174 215.00
82.6217 233.00
82.9259 233.00
83.2302 235.00
83.5344 245.00
83.8387 257.00
84.143 223.00
84.4472 266.00
84.7515 230.00
85.0557 223.00
85.36 260.00
85.6643 224.00
85.9685 232.00
86.2728 196.00
86.577 207.00
86.8813 210.00
87.1856 201.00
87.4898 221.00
87.7941 222.00
88.0983 235.00
88.4026 201.00
88.7069 192.00
89.0111 199.00
89.3154 202.00
89.6196 218.00
89.9239 178.00
90.2282 201.00
90.5324 210.00
90.8367 215.00
91.1409 199.00
91.4452 195.00
91.7495 200.00
92.0537 216.00
92.358 197.00
92.6622 182.00
92.9665 214.00
93.2708 199.00
93.575 199.00
93.8793 209.00
94.1835 212.00
94.4878 183.00
94.7921 192.00
95.0963 193.00
95.4006 185.00
95.7048 209.00
96.0091 178.00
96.3134 184.00
96.6176 222.00
96.9219 204.00
97.2261 181.00
97.5304 190.00
97.8347 204.00
98.1389 174.00
98.4432 168.00
98.7474 198.00
99.0517 194.00
99.356 214.00
99.6602 171.00
99.9645 189.00
100.095 171.00