File: data/xrd_creation/results/MINES_8.xy
9.903433 2729.00
10.2077 2518.00
10.512 2416.00
10.8162 2370.00
11.1205 2219.00
11.4247 2128.00
11.729 1996.00
12.0333 1953.00
12.3375 1811.00
12.6418 1781.00
12.946 1691.00
13.2503 1668.00
13.5546 1571.00
13.8588 1588.00
14.1631 1462.00
14.4673 1439.00
14.7716 1339.00
15.0759 1414.00
15.3801 1450.00
15.6844 1297.00
15.9886 1305.00
16.2929 1244.00
16.5972 1274.00
16.9014 1194.00
17.2057 1212.00
17.5099 1192.00
17.8142 1087.00
18.1185 1075.00
18.4227 1011.00
18.727 1100.00
19.0312 1080.00
19.3355 1430.00
19.6398 1265.00
19.944 955.00
20.2483 904.00
20.5525 863.00
20.8568 893.00
21.1611 848.00
21.4653 934.00
21.7696 887.00
22.0738 778.00
22.3781 838.00
22.6824 1667.00
22.9866 2533.00
23.2909 768.00
23.5951 806.00
23.8994 750.00
24.2037 731.00
24.5079 797.00
24.8122 759.00
25.1164 880.00
25.4207 2528.00
25.725 8238.00
26.0292 1332.00
26.3335 729.00
26.6378 719.00
26.942 673.00
27.2463 657.00
27.5505 655.00
27.8548 629.00
28.1591 908.00
28.4633 1059.00
28.7676 628.00
29.0718 558.00
29.3761 630.00
29.6804 597.00
29.9846 555.00
30.2889 533.00
30.5931 555.00
30.8974 511.00
31.2017 533.00
31.5059 518.00
31.8102 543.00
32.1144 480.00
32.4187 472.00
32.723 543.00
33.0272 533.00
33.3315 461.00
33.6357 463.00
33.94 527.00
34.2443 497.00
34.5485 473.00
34.8528 393.00
35.157 402.00
35.4613 385.00
35.7656 401.00
36.0698 381.00
36.3741 423.00
36.6783 415.00
36.9826 419.00
37.2869 424.00
37.5911 421.00
37.8954 403.00
38.1996 411.00
38.5039 371.00
38.8082 382.00
39.1124 472.00
39.4167 515.00
39.7209 466.00
40.0252 507.00
40.3295 352.00
40.6337 360.00
40.938 320.00
41.2422 372.00
41.5465 345.00
41.8508 352.00
42.155 317.00
42.4593 276.00
42.7635 406.00
43.0678 407.00
43.3721 375.00
43.6763 285.00
43.9806 318.00
44.2849 294.00
44.5891 285.00
44.8934 266.00
45.1976 304.00
45.5019 297.00
45.8062 300.00
46.1104 299.00
46.4147 307.00
46.7189 375.00
47.0232 540.00
47.3275 293.00
47.6317 304.00
47.936 401.00
48.2402 617.00
48.5445 761.00
48.8488 356.00
49.153 286.00
49.4573 288.00
49.7615 238.00
50.0658 232.00
50.3701 257.00
50.6743 225.00
50.9786 223.00
51.2828 260.00
51.5871 256.00
51.8914 247.00
52.1956 257.00
52.4999 267.00
52.8041 267.00
53.1084 231.00
53.4127 263.00
53.7169 229.00
54.0212 249.00
54.3254 262.00
54.6297 246.00
54.934 226.00
55.2382 243.00
55.5425 336.00
55.8467 394.00
56.151 333.00
56.4553 274.00
56.7595 190.00
57.0638 221.00
57.368 203.00
57.6723 209.00
57.9766 207.00
58.2808 188.00
58.5851 215.00
58.8893 215.00
59.1936 205.00
59.4979 204.00
59.8021 220.00
60.1064 305.00
60.4106 243.00
60.7149 216.00
61.0192 202.00
61.3234 180.00
61.6277 168.00
61.932 197.00
62.2362 215.00
62.5405 205.00
62.8447 241.00
63.149 212.00
63.4533 217.00
63.7575 220.00
64.0618 263.00
64.366 274.00
64.6703 196.00
64.9745 221.00
65.2788 322.00
65.5831 208.00
65.8873 219.00
66.1916 238.00
66.4959 263.00
66.8001 263.00
67.1044 193.00
67.4086 198.00
67.7129 250.00
68.0172 227.00
68.3214 231.00
68.6257 175.00
68.9299 177.00
69.2342 213.00
69.5385 218.00
69.8427 208.00
70.147 168.00
70.4512 192.00
70.7555 227.00
71.0598 208.00
71.364 274.00
71.6683 226.00
71.9725 195.00
72.2768 183.00
72.5811 189.00
72.8853 195.00
73.1896 200.00
73.4938 234.00
73.7981 205.00
74.1024 186.00
74.4066 208.00
74.7109 223.00
75.0151 202.00
75.3194 174.00
75.6237 202.00
75.9279 190.00
76.2322 199.00
76.5364 230.00
76.8407 281.00
77.145 273.00
77.4492 231.00
77.7535 220.00
78.0577 226.00
78.362 201.00
78.6663 235.00
78.9705 203.00
79.2748 257.00
79.579 221.00
79.8833 214.00
80.1876 215.00
80.4918 241.00
80.7961 225.00
81.1003 229.00
81.4046 234.00
81.7089 222.00
82.0131 235.00
82.3174 207.00
82.6217 215.00
82.9259 213.00
83.2302 225.00
83.5344 217.00
83.8387 215.00
84.143 198.00
84.4472 218.00
84.7515 243.00
85.0557 223.00
85.36 217.00
85.6643 219.00
85.9685 201.00
86.2728 204.00
86.577 203.00
86.8813 210.00
87.1856 182.00
87.4898 183.00
87.7941 186.00
88.0983 214.00
88.4026 177.00
88.7069 182.00
89.0111 173.00
89.3154 193.00
89.6196 173.00
89.9239 187.00
90.2282 183.00
90.5324 185.00
90.8367 170.00
91.1409 194.00
91.4452 192.00
91.7495 169.00
92.0537 167.00
92.358 162.00
92.6622 176.00
92.9665 211.00
93.2708 144.00
93.575 202.00
93.8793 177.00
94.1835 159.00
94.4878 191.00
94.7921 194.00
95.0963 182.00
95.4006 162.00
95.7048 176.00
96.0091 187.00
96.3134 177.00
96.6176 179.00
96.9219 180.00
97.2261 195.00
97.5304 182.00
97.8347 172.00
98.1389 217.00
98.4432 192.00
98.7474 193.00
99.0517 181.00
99.356 176.00
99.6602 157.00
99.9645 182.00
100.095 197.00