File: data/xrd_creation/results/MINES_24.xy
9.903433 2618.00
10.2077 2466.00
10.512 2409.00
10.8162 2293.00
11.1205 2120.00
11.4247 2051.00
11.729 1991.00
12.0333 1944.00
12.3375 1850.00
12.6418 1754.00
12.946 1703.00
13.2503 1601.00
13.5546 1512.00
13.8588 1504.00
14.1631 1476.00
14.4673 1347.00
14.7716 1398.00
15.0759 1390.00
15.3801 1345.00
15.6844 1386.00
15.9886 1293.00
16.2929 1341.00
16.5972 1225.00
16.9014 1194.00
17.2057 1209.00
17.5099 1134.00
17.8142 1112.00
18.1185 1139.00
18.4227 1127.00
18.727 1116.00
19.0312 1044.00
19.3355 1084.00
19.6398 1004.00
19.944 963.00
20.2483 984.00
20.5525 974.00
20.8568 984.00
21.1611 876.00
21.4653 890.00
21.7696 1016.00
22.0738 838.00
22.3781 858.00
22.6824 866.00
22.9866 918.00
23.2909 769.00
23.5951 934.00
23.8994 910.00
24.2037 1039.00
24.5079 832.00
24.8122 1418.00
25.1164 781.00
25.4207 1067.00
25.725 938.00
26.0292 907.00
26.3335 979.00
26.6378 987.00
26.942 685.00
27.2463 679.00
27.5505 692.00
27.8548 641.00
28.1591 700.00
28.4633 653.00
28.7676 809.00
29.0718 1377.00
29.3761 692.00
29.6804 636.00
29.9846 604.00
30.2889 564.00
30.5931 674.00
30.8974 588.00
31.2017 668.00
31.5059 528.00
31.8102 586.00
32.1144 1051.00
32.4187 558.00
32.723 699.00
33.0272 548.00
33.3315 531.00
33.6357 552.00
33.94 550.00
34.2443 491.00
34.5485 518.00
34.8528 439.00
35.157 436.00
35.4613 446.00
35.7656 481.00
36.0698 448.00
36.3741 482.00
36.6783 456.00
36.9826 411.00
37.2869 447.00
37.5911 588.00
37.8954 405.00
38.1996 521.00
38.5039 409.00
38.8082 406.00
39.1124 436.00
39.4167 453.00
39.7209 426.00
40.0252 422.00
40.3295 382.00
40.6337 409.00
40.938 354.00
41.2422 350.00
41.5465 359.00
41.8508 339.00
42.155 419.00
42.4593 377.00
42.7635 377.00
43.0678 380.00
43.3721 369.00
43.6763 417.00
43.9806 383.00
44.2849 339.00
44.5891 316.00
44.8934 393.00
45.1976 346.00
45.5019 314.00
45.8062 359.00
46.1104 446.00
46.4147 353.00
46.7189 298.00
47.0232 356.00
47.3275 409.00
47.6317 336.00
47.936 344.00
48.2402 316.00
48.5445 548.00
48.8488 377.00
49.153 358.00
49.4573 345.00
49.7615 356.00
50.0658 417.00
50.3701 408.00
50.6743 374.00
50.9786 326.00
51.2828 279.00
51.5871 301.00
51.8914 331.00
52.1956 331.00
52.4999 324.00
52.8041 370.00
53.1084 305.00
53.4127 300.00
53.7169 257.00
54.0212 263.00
54.3254 250.00
54.6297 338.00
54.934 241.00
55.2382 271.00
55.5425 297.00
55.8467 275.00
56.151 294.00
56.4553 256.00
56.7595 277.00
57.0638 279.00
57.368 228.00
57.6723 367.00
57.9766 245.00
58.2808 249.00
58.5851 222.00
58.8893 274.00
59.1936 262.00
59.4979 264.00
59.8021 270.00
60.1064 270.00
60.4106 276.00
60.7149 261.00
61.0192 302.00
61.3234 235.00
61.6277 228.00
61.932 278.00
62.2362 205.00
62.5405 174.00
62.8447 192.00
63.149 267.00
63.4533 237.00
63.7575 282.00
64.0618 303.00
64.366 219.00
64.6703 275.00
64.9745 259.00
65.2788 241.00
65.5831 270.00
65.8873 266.00
66.1916 236.00
66.4959 219.00
66.8001 209.00
67.1044 231.00
67.4086 233.00
67.7129 231.00
68.0172 244.00
68.3214 237.00
68.6257 198.00
68.9299 241.00
69.2342 239.00
69.5385 220.00
69.8427 245.00
70.147 217.00
70.4512 223.00
70.7555 209.00
71.0598 218.00
71.364 230.00
71.6683 210.00
71.9725 198.00
72.2768 229.00
72.5811 224.00
72.8853 249.00
73.1896 240.00
73.4938 229.00
73.7981 192.00
74.1024 210.00
74.4066 220.00
74.7109 228.00
75.0151 233.00
75.3194 226.00
75.6237 239.00
75.9279 270.00
76.2322 284.00
76.5364 245.00
76.8407 248.00
77.145 271.00
77.4492 262.00
77.7535 241.00
78.0577 219.00
78.362 246.00
78.6663 288.00
78.9705 271.00
79.2748 264.00
79.579 235.00
79.8833 222.00
80.1876 227.00
80.4918 202.00
80.7961 268.00
81.1003 270.00
81.4046 276.00
81.7089 223.00
82.0131 242.00
82.3174 224.00
82.6217 268.00
82.9259 232.00
83.2302 235.00
83.5344 237.00
83.8387 216.00
84.143 242.00
84.4472 257.00
84.7515 249.00
85.0557 235.00
85.36 238.00
85.6643 237.00
85.9685 239.00
86.2728 195.00
86.577 216.00
86.8813 198.00
87.1856 213.00
87.4898 209.00
87.7941 231.00
88.0983 210.00
88.4026 234.00
88.7069 196.00
89.0111 186.00
89.3154 231.00
89.6196 213.00
89.9239 206.00
90.2282 208.00
90.5324 203.00
90.8367 216.00
91.1409 211.00
91.4452 191.00
91.7495 219.00
92.0537 197.00
92.358 220.00
92.6622 239.00
92.9665 178.00
93.2708 211.00
93.575 204.00
93.8793 225.00
94.1835 197.00
94.4878 223.00
94.7921 179.00
95.0963 195.00
95.4006 186.00
95.7048 236.00
96.0091 195.00
96.3134 226.00
96.6176 203.00
96.9219 214.00
97.2261 187.00
97.5304 215.00
97.8347 230.00
98.1389 227.00
98.4432 201.00
98.7474 196.00
99.0517 184.00
99.356 192.00
99.6602 206.00
99.9645 222.00
100.095 209.00