File: data/xrd_creation/results/MINES_7.xy
9.903433 3028.00
10.2077 2879.00
10.512 2776.00
10.8162 2639.00
11.1205 2675.00
11.4247 2462.00
11.729 2373.00
12.0333 2290.00
12.3375 2280.00
12.6418 2116.00
12.946 2073.00
13.2503 2048.00
13.5546 1950.00
13.8588 1977.00
14.1631 1932.00
14.4673 1882.00
14.7716 1811.00
15.0759 1703.00
15.3801 1628.00
15.6844 1652.00
15.9886 1627.00
16.2929 1572.00
16.5972 1559.00
16.9014 1505.00
17.2057 1529.00
17.5099 1401.00
17.8142 1384.00
18.1185 1401.00
18.4227 1423.00
18.727 1860.00
19.0312 4432.00
19.3355 1382.00
19.6398 1333.00
19.944 1288.00
20.2483 1331.00
20.5525 1444.00
20.8568 3855.00
21.1611 3013.00
21.4653 2409.00
21.7696 2429.00
22.0738 9191.00
22.3781 15275.00
22.6824 1966.00
22.9866 1915.00
23.2909 1842.00
23.5951 2762.00
23.8994 1583.00
24.2037 1382.00
24.5079 1251.00
24.8122 1192.00
25.1164 1032.00
25.4207 1000.00
25.725 1107.00
26.0292 1228.00
26.3335 1202.00
26.6378 1413.00
26.942 3820.00
27.2463 1333.00
27.5505 1299.00
27.8548 1943.00
28.1591 1305.00
28.4633 1719.00
28.7676 2649.00
29.0718 1282.00
29.3761 2383.00
29.6804 1342.00
29.9846 1073.00
30.2889 1796.00
30.5931 1467.00
30.8974 914.00
31.2017 975.00
31.5059 1367.00
31.8102 3163.00
32.1144 1248.00
32.4187 1081.00
32.723 1451.00
33.0272 1159.00
33.3315 932.00
33.6357 818.00
33.94 742.00
34.2443 714.00
34.5485 695.00
34.8528 699.00
35.157 733.00
35.4613 699.00
35.7656 700.00
36.0698 927.00
36.3741 3186.00
36.6783 1681.00
36.9826 846.00
37.2869 738.00
37.5911 789.00
37.8954 911.00
38.1996 889.00
38.5039 705.00
38.8082 780.00
39.1124 868.00
39.4167 1018.00
39.7209 691.00
40.0252 608.00
40.3295 553.00
40.6337 610.00
40.938 573.00
41.2422 534.00
41.5465 542.00
41.8508 609.00
42.155 595.00
42.4593 589.00
42.7635 672.00
43.0678 997.00
43.3721 682.00
43.6763 673.00
43.9806 600.00
44.2849 549.00
44.5891 647.00
44.8934 663.00
45.1976 844.00
45.5019 504.00
45.8062 546.00
46.1104 670.00
46.4147 970.00
46.7189 683.00
47.0232 713.00
47.3275 1298.00
47.6317 668.00
47.936 736.00
48.2402 646.00
48.5445 571.00
48.8488 1067.00
49.153 781.00
49.4573 790.00
49.7615 539.00
50.0658 607.00
50.3701 567.00
50.6743 506.00
50.9786 522.00
51.2828 512.00
51.5871 818.00
51.8914 695.00
52.1956 616.00
52.4999 582.00
52.8041 527.00
53.1084 618.00
53.4127 489.00
53.7169 524.00
54.0212 607.00
54.3254 865.00
54.6297 922.00
54.934 648.00
55.2382 666.00
55.5425 577.00
55.8467 559.00
56.151 757.00
56.4553 549.00
56.7595 517.00
57.0638 629.00
57.368 1078.00
57.6723 693.00
57.9766 587.00
58.2808 475.00
58.5851 607.00
58.8893 629.00
59.1936 532.00
59.4979 421.00
59.8021 452.00
60.1064 646.00
60.4106 672.00
60.7149 831.00
61.0192 558.00
61.3234 481.00
61.6277 509.00
61.932 458.00
62.2362 690.00
62.5405 614.00
62.8447 487.00
63.149 433.00
63.4533 490.00
63.7575 602.00
64.0618 466.00
64.366 439.00
64.6703 465.00
64.9745 514.00
65.2788 773.00
65.5831 682.00
65.8873 740.00
66.1916 790.00
66.4959 766.00
66.8001 627.00
67.1044 752.00
67.4086 584.00
67.7129 538.00
68.0172 569.00
68.3214 577.00
68.6257 657.00
68.9299 750.00
69.2342 625.00
69.5385 588.00
69.8427 689.00
70.147 604.00
70.4512 605.00
70.7555 608.00
71.0598 584.00
71.364 466.00
71.6683 396.00
71.9725 378.00
72.2768 430.00
72.5811 477.00
72.8853 658.00
73.1896 601.00
73.4938 428.00
73.7981 508.00
74.1024 694.00
74.4066 561.00
74.7109 441.00
75.0151 471.00
75.3194 538.00
75.6237 592.00
75.9279 483.00
76.2322 470.00
76.5364 481.00
76.8407 384.00
77.145 455.00
77.4492 432.00
77.7535 537.00
78.0577 537.00
78.362 573.00
78.6663 444.00
78.9705 445.00
79.2748 473.00
79.579 596.00
79.8833 527.00
80.1876 429.00
80.4918 442.00
80.7961 514.00
81.1003 575.00
81.4046 586.00
81.7089 533.00
82.0131 504.00
82.3174 488.00
82.6217 434.00
82.9259 462.00
83.2302 429.00
83.5344 394.00
83.8387 377.00
84.143 408.00
84.4472 364.00
84.7515 383.00
85.0557 353.00
85.36 352.00
85.6643 353.00
85.9685 394.00
86.2728 397.00
86.577 395.00
86.8813 410.00
87.1856 396.00
87.4898 411.00
87.7941 359.00
88.0983 428.00
88.4026 385.00
88.7069 369.00
89.0111 415.00
89.3154 531.00
89.6196 565.00
89.9239 425.00
90.2282 374.00
90.5324 352.00
90.8367 328.00
91.1409 421.00
91.4452 376.00
91.7495 373.00
92.0537 350.00
92.358 331.00
92.6622 339.00
92.9665 361.00
93.2708 346.00
93.575 478.00
93.8793 394.00
94.1835 356.00
94.4878 367.00
94.7921 390.00
95.0963 356.00
95.4006 377.00
95.7048 380.00
96.0091 402.00
96.3134 405.00
96.6176 356.00
96.9219 332.00
97.2261 341.00
97.5304 315.00
97.8347 392.00
98.1389 396.00
98.4432 371.00
98.7474 336.00
99.0517 355.00
99.356 339.00
99.6602 305.00
99.9645 306.00
100.095 364.00