File: data/xrd_creation/results/MINES_4.xy
9.903433 2733.00
10.2077 2641.00
10.512 2537.00
10.8162 2462.00
11.1205 2213.00
11.4247 2233.00
11.729 2083.00
12.0333 2064.00
12.3375 2014.00
12.6418 1866.00
12.946 1802.00
13.2503 1762.00
13.5546 1799.00
13.8588 1741.00
14.1631 1928.00
14.4673 1590.00
14.7716 1603.00
15.0759 1526.00
15.3801 1494.00
15.6844 1480.00
15.9886 1458.00
16.2929 1521.00
16.5972 1789.00
16.9014 1370.00
17.2057 1625.00
17.5099 1377.00
17.8142 1337.00
18.1185 1283.00
18.4227 1245.00
18.727 1179.00
19.0312 1201.00
19.3355 1169.00
19.6398 1189.00
19.944 1356.00
20.2483 1482.00
20.5525 1944.00
20.8568 1299.00
21.1611 2551.00
21.4653 1155.00
21.7696 1245.00
22.0738 1930.00
22.3781 2279.00
22.6824 1328.00
22.9866 1449.00
23.2909 1034.00
23.5951 1001.00
23.8994 1855.00
24.2037 2187.00
24.5079 2047.00
24.8122 1460.00
25.1164 6876.00
25.4207 1771.00
25.725 1061.00
26.0292 1012.00
26.3335 986.00
26.6378 1599.00
26.942 9426.00
27.2463 1167.00
27.5505 945.00
27.8548 878.00
28.1591 936.00
28.4633 907.00
28.7676 1054.00
29.0718 1126.00
29.3761 1111.00
29.6804 1069.00
29.9846 968.00
30.2889 1390.00
30.5931 1054.00
30.8974 1652.00
31.2017 1794.00
31.5059 2559.00
31.8102 6542.00
32.1144 1413.00
32.4187 755.00
32.723 669.00
33.0272 642.00
33.3315 591.00
33.6357 576.00
33.94 555.00
34.2443 630.00
34.5485 666.00
34.8528 719.00
35.157 819.00
35.4613 2121.00
35.7656 797.00
36.0698 763.00
36.3741 804.00
36.6783 1790.00
36.9826 905.00
37.2869 564.00
37.5911 618.00
37.8954 2434.00
38.1996 656.00
38.5039 1472.00
38.8082 624.00
39.1124 714.00
39.4167 943.00
39.7209 1573.00
40.0252 557.00
40.3295 533.00
40.6337 642.00
40.938 479.00
41.2422 537.00
41.5465 763.00
41.8508 542.00
42.155 538.00
42.4593 606.00
42.7635 861.00
43.0678 632.00
43.3721 1241.00
43.6763 597.00
43.9806 482.00
44.2849 938.00
44.5891 524.00
44.8934 485.00
45.1976 671.00
45.5019 659.00
45.8062 542.00
46.1104 669.00
46.4147 1320.00
46.7189 477.00
47.0232 548.00
47.3275 1020.00
47.6317 488.00
47.936 396.00
48.2402 393.00
48.5445 390.00
48.8488 572.00
49.153 446.00
49.4573 524.00
49.7615 457.00
50.0658 525.00
50.3701 1361.00
50.6743 774.00
50.9786 884.00
51.2828 582.00
51.5871 486.00
51.8914 693.00
52.1956 797.00
52.4999 955.00
52.8041 3203.00
53.1084 1257.00
53.4127 439.00
53.7169 409.00
54.0212 386.00
54.3254 563.00
54.6297 512.00
54.934 541.00
55.2382 669.00
55.5425 639.00
55.8467 585.00
56.151 481.00
56.4553 421.00
56.7595 482.00
57.0638 463.00
57.368 385.00
57.6723 494.00
57.9766 702.00
58.2808 450.00
58.5851 417.00
58.8893 327.00
59.1936 366.00
59.4979 386.00
59.8021 442.00
60.1064 838.00
60.4106 602.00
60.7149 725.00
61.0192 707.00
61.3234 799.00
61.6277 463.00
61.932 598.00
62.2362 550.00
62.5405 1007.00
62.8447 1517.00
63.149 669.00
63.4533 540.00
63.7575 532.00
64.0618 574.00
64.366 730.00
64.6703 431.00
64.9745 573.00
65.2788 406.00
65.5831 421.00
65.8873 741.00
66.1916 505.00
66.4959 371.00
66.8001 357.00
67.1044 347.00
67.4086 410.00
67.7129 458.00
68.0172 667.00
68.3214 996.00
68.6257 998.00
68.9299 703.00
69.2342 624.00
69.5385 442.00
69.8427 360.00
70.147 351.00
70.4512 493.00
70.7555 402.00
71.0598 300.00
71.364 327.00
71.6683 333.00
71.9725 376.00
72.2768 423.00
72.5811 384.00
72.8853 330.00
73.1896 323.00
73.4938 324.00
73.7981 428.00
74.1024 351.00
74.4066 263.00
74.7109 262.00
75.0151 220.00
75.3194 275.00
75.6237 311.00
75.9279 407.00
76.2322 551.00
76.5364 448.00
76.8407 346.00
77.145 278.00
77.4492 376.00
77.7535 458.00
78.0577 372.00
78.362 407.00
78.6663 369.00
78.9705 382.00
79.2748 436.00
79.579 355.00
79.8833 331.00
80.1876 392.00
80.4918 346.00
80.7961 315.00
81.1003 279.00
81.4046 408.00
81.7089 417.00
82.0131 421.00
82.3174 346.00
82.6217 221.00
82.9259 270.00
83.2302 249.00
83.5344 262.00
83.8387 313.00
84.143 304.00
84.4472 239.00
84.7515 303.00
85.0557 320.00
85.36 304.00
85.6643 297.00
85.9685 364.00
86.2728 492.00
86.577 388.00
86.8813 257.00
87.1856 226.00
87.4898 331.00
87.7941 322.00
88.0983 350.00
88.4026 302.00
88.7069 316.00
89.0111 363.00
89.3154 327.00
89.6196 300.00
89.9239 292.00
90.2282 258.00
90.5324 305.00
90.8367 301.00
91.1409 290.00
91.4452 274.00
91.7495 280.00
92.0537 265.00
92.358 243.00
92.6622 241.00
92.9665 303.00
93.2708 329.00
93.575 303.00
93.8793 331.00
94.1835 307.00
94.4878 244.00
94.7921 318.00
95.0963 311.00
95.4006 293.00
95.7048 213.00
96.0091 321.00
96.3134 295.00
96.6176 315.00
96.9219 288.00
97.2261 284.00
97.5304 260.00
97.8347 265.00
98.1389 230.00
98.4432 238.00
98.7474 389.00
99.0517 361.00
99.356 314.00
99.6602 298.00
99.9645 311.00
100.095 357.00