File: data/xrd_creation/results/MINES_12.xy
9.903433 2872.00
10.2077 2563.00
10.512 2493.00
10.8162 2384.00
11.1205 2216.00
11.4247 2101.00
11.729 2151.00
12.0333 2035.00
12.3375 1867.00
12.6418 1823.00
12.946 1800.00
13.2503 1719.00
13.5546 1639.00
13.8588 1591.00
14.1631 1810.00
14.4673 1862.00
14.7716 1543.00
15.0759 1540.00
15.3801 1486.00
15.6844 1424.00
15.9886 1454.00
16.2929 1438.00
16.5972 1381.00
16.9014 1273.00
17.2057 1275.00
17.5099 1305.00
17.8142 1218.00
18.1185 1196.00
18.4227 1260.00
18.727 1192.00
19.0312 1183.00
19.3355 1208.00
19.6398 1201.00
19.944 1244.00
20.2483 1377.00
20.5525 1414.00
20.8568 1444.00
21.1611 1001.00
21.4653 1042.00
21.7696 987.00
22.0738 961.00
22.3781 986.00
22.6824 992.00
22.9866 1087.00
23.2909 1037.00
23.5951 977.00
23.8994 1159.00
24.2037 992.00
24.5079 1152.00
24.8122 1404.00
25.1164 1262.00
25.4207 2202.00
25.725 2149.00
26.0292 1125.00
26.3335 1466.00
26.6378 1551.00
26.942 868.00
27.2463 806.00
27.5505 924.00
27.8548 851.00
28.1591 823.00
28.4633 830.00
28.7676 897.00
29.0718 836.00
29.3761 710.00
29.6804 755.00
29.9846 1006.00
30.2889 1815.00
30.5931 889.00
30.8974 723.00
31.2017 704.00
31.5059 978.00
31.8102 1370.00
32.1144 722.00
32.4187 642.00
32.723 716.00
33.0272 667.00
33.3315 678.00
33.6357 950.00
33.94 686.00
34.2443 659.00
34.5485 573.00
34.8528 623.00
35.157 650.00
35.4613 620.00
35.7656 689.00
36.0698 871.00
36.3741 1045.00
36.6783 760.00
36.9826 604.00
37.2869 642.00
37.5911 858.00
37.8954 808.00
38.1996 682.00
38.5039 550.00
38.8082 525.00
39.1124 579.00
39.4167 663.00
39.7209 605.00
40.0252 598.00
40.3295 517.00
40.6337 478.00
40.938 486.00
41.2422 539.00
41.5465 539.00
41.8508 492.00
42.155 549.00
42.4593 708.00
42.7635 601.00
43.0678 559.00
43.3721 688.00
43.6763 622.00
43.9806 583.00
44.2849 530.00
44.5891 456.00
44.8934 467.00
45.1976 524.00
45.5019 505.00
45.8062 487.00
46.1104 597.00
46.4147 464.00
46.7189 446.00
47.0232 460.00
47.3275 479.00
47.6317 566.00
47.936 732.00
48.2402 648.00
48.5445 469.00
48.8488 532.00
49.153 524.00
49.4573 509.00
49.7615 517.00
50.0658 487.00
50.3701 520.00
50.6743 441.00
50.9786 434.00
51.2828 402.00
51.5871 488.00
51.8914 459.00
52.1956 413.00
52.4999 458.00
52.8041 413.00
53.1084 427.00
53.4127 455.00
53.7169 361.00
54.0212 413.00
54.3254 428.00
54.6297 496.00
54.934 556.00
55.2382 404.00
55.5425 422.00
55.8467 438.00
56.151 485.00
56.4553 432.00
56.7595 631.00
57.0638 593.00
57.368 468.00
57.6723 390.00
57.9766 512.00
58.2808 524.00
58.5851 420.00
58.8893 368.00
59.1936 402.00
59.4979 444.00
59.8021 513.00
60.1064 397.00
60.4106 404.00
60.7149 399.00
61.0192 396.00
61.3234 403.00
61.6277 410.00
61.932 414.00
62.2362 437.00
62.5405 409.00
62.8447 393.00
63.149 489.00
63.4533 454.00
63.7575 423.00
64.0618 374.00
64.366 373.00
64.6703 416.00
64.9745 454.00
65.2788 551.00
65.5831 449.00
65.8873 415.00
66.1916 412.00
66.4959 377.00
66.8001 389.00
67.1044 392.00
67.4086 371.00
67.7129 411.00
68.0172 408.00
68.3214 385.00
68.6257 345.00
68.9299 373.00
69.2342 431.00
69.5385 383.00
69.8427 493.00
70.147 402.00
70.4512 365.00
70.7555 378.00
71.0598 393.00
71.364 422.00
71.6683 346.00
71.9725 327.00
72.2768 383.00
72.5811 358.00
72.8853 355.00
73.1896 363.00
73.4938 331.00
73.7981 351.00
74.1024 392.00
74.4066 329.00
74.7109 368.00
75.0151 347.00
75.3194 345.00
75.6237 333.00
75.9279 340.00
76.2322 356.00
76.5364 357.00
76.8407 370.00
77.145 445.00
77.4492 394.00
77.7535 448.00
78.0577 406.00
78.362 367.00
78.6663 347.00
78.9705 355.00
79.2748 353.00
79.579 390.00
79.8833 336.00
80.1876 341.00
80.4918 410.00
80.7961 403.00
81.1003 393.00
81.4046 377.00
81.7089 321.00
82.0131 353.00
82.3174 336.00
82.6217 335.00
82.9259 344.00
83.2302 334.00
83.5344 362.00
83.8387 348.00
84.143 349.00
84.4472 324.00
84.7515 339.00
85.0557 333.00
85.36 362.00
85.6643 297.00
85.9685 305.00
86.2728 338.00
86.577 311.00
86.8813 308.00
87.1856 285.00
87.4898 307.00
87.7941 314.00
88.0983 321.00
88.4026 275.00
88.7069 342.00
89.0111 305.00
89.3154 280.00
89.6196 309.00
89.9239 302.00
90.2282 337.00
90.5324 325.00
90.8367 310.00
91.1409 304.00
91.4452 320.00
91.7495 299.00
92.0537 295.00
92.358 300.00
92.6622 298.00
92.9665 298.00
93.2708 281.00
93.575 308.00
93.8793 312.00
94.1835 307.00
94.4878 302.00
94.7921 314.00
95.0963 332.00
95.4006 344.00
95.7048 302.00
96.0091 344.00
96.3134 284.00
96.6176 302.00
96.9219 301.00
97.2261 306.00
97.5304 321.00
97.8347 328.00
98.1389 327.00
98.4432 357.00
98.7474 305.00
99.0517 327.00
99.356 296.00
99.6602 285.00
99.9645 294.00
100.095 317.00