File: data/xrd_creation/results/MINES_1.xy
9.903433 3621.00
10.2077 3719.00
10.512 3549.00
10.8162 3571.00
11.1205 3457.00
11.4247 3409.00
11.729 3323.00
12.0333 3356.00
12.3375 3244.00
12.6418 3187.00
12.946 3103.00
13.2503 3201.00
13.5546 3050.00
13.8588 3157.00
14.1631 3422.00
14.4673 3795.00
14.7716 3156.00
15.0759 3088.00
15.3801 3192.00
15.6844 3104.00
15.9886 3027.00
16.2929 3227.00
16.5972 3255.00
16.9014 3065.00
17.2057 3114.00
17.5099 3057.00
17.8142 3057.00
18.1185 3073.00
18.4227 3047.00
18.727 3082.00
19.0312 2980.00
19.3355 3112.00
19.6398 3012.00
19.944 3270.00
20.2483 3594.00
20.5525 3179.00
20.8568 3625.00
21.1611 3363.00
21.4653 3112.00
21.7696 3061.00
22.0738 3005.00
22.3781 2901.00
22.6824 2871.00
22.9866 2951.00
23.2909 3028.00
23.5951 2947.00
23.8994 3319.00
24.2037 3340.00
24.5079 3530.00
24.8122 3234.00
25.1164 3890.00
25.4207 3282.00
25.725 3618.00
26.0292 2961.00
26.3335 2986.00
26.6378 3482.00
26.942 4508.00
27.2463 3009.00
27.5505 2967.00
27.8548 2877.00
28.1591 2890.00
28.4633 2912.00
28.7676 2776.00
29.0718 2777.00
29.3761 2755.00
29.6804 2926.00
29.9846 3840.00
30.2889 3574.00
30.5931 2811.00
30.8974 2868.00
31.2017 2886.00
31.5059 3580.00
31.8102 2903.00
32.1144 2664.00
32.4187 2822.00
32.723 2962.00
33.0272 2863.00
33.3315 3577.00
33.6357 2869.00
33.94 2598.00
34.2443 2667.00
34.5485 2769.00
34.8528 2754.00
35.157 2766.00
35.4613 2779.00
35.7656 3465.00
36.0698 3240.00
36.3741 3350.00
36.6783 2815.00
36.9826 2693.00
37.2869 2626.00
37.5911 3052.00
37.8954 2857.00
38.1996 2761.00
38.5039 2771.00
38.8082 2612.00
39.1124 2568.00
39.4167 2657.00
39.7209 2770.00
40.0252 2532.00
40.3295 2574.00
40.6337 2640.00
40.938 2619.00
41.2422 2763.00
41.5465 2601.00
41.8508 2554.00
42.155 2500.00
42.4593 2899.00
42.7635 2673.00
43.0678 2828.00
43.3721 2672.00
43.6763 2511.00
43.9806 2694.00
44.2849 2462.00
44.5891 2442.00
44.8934 2490.00
45.1976 2513.00
45.5019 2560.00
45.8062 2527.00
46.1104 2544.00
46.4147 2561.00
46.7189 2486.00
47.0232 2350.00
47.3275 2487.00
47.6317 2693.00
47.936 2427.00
48.2402 2420.00
48.5445 2557.00
48.8488 2431.00
49.153 2404.00
49.4573 2530.00
49.7615 2966.00
50.0658 2496.00
50.3701 2523.00
50.6743 2425.00
50.9786 2387.00
51.2828 2402.00
51.5871 2373.00
51.8914 2320.00
52.1956 2345.00
52.4999 2325.00
52.8041 2379.00
53.1084 2354.00
53.4127 2296.00
53.7169 2329.00
54.0212 2540.00
54.3254 2934.00
54.6297 2383.00
54.934 2353.00
55.2382 2369.00
55.5425 2343.00
55.8467 2245.00
56.151 2331.00
56.4553 2745.00
56.7595 2477.00
57.0638 2327.00
57.368 2431.00
57.6723 2455.00
57.9766 2325.00
58.2808 2264.00
58.5851 2159.00
58.8893 2243.00
59.1936 2372.00
59.4979 2295.00
59.8021 2227.00
60.1064 2348.00
60.4106 2310.00
60.7149 2267.00
61.0192 2315.00
61.3234 2362.00
61.6277 2320.00
61.932 2271.00
62.2362 2417.00
62.5405 2546.00
62.8447 2396.00
63.149 2208.00
63.4533 2208.00
63.7575 2261.00
64.0618 2441.00
64.366 2382.00
64.6703 2275.00
64.9745 2284.00
65.2788 2249.00
65.5831 2099.00
65.8873 2261.00
66.1916 2164.00
66.4959 2136.00
66.8001 2189.00
67.1044 2184.00
67.4086 2259.00
67.7129 2257.00
68.0172 2254.00
68.3214 2334.00
68.6257 2393.00
68.9299 2342.00
69.2342 2546.00
69.5385 2231.00
69.8427 2166.00
70.147 2231.00
70.4512 2270.00
70.7555 2086.00
71.0598 2137.00
71.364 2100.00
71.6683 2060.00
71.9725 2255.00
72.2768 2251.00
72.5811 2168.00
72.8853 2169.00
73.1896 2255.00
73.4938 2188.00
73.7981 2118.00
74.1024 2167.00
74.4066 2096.00
74.7109 2046.00
75.0151 1990.00
75.3194 2069.00
75.6237 2209.00
75.9279 2150.00
76.2322 2188.00
76.5364 2117.00
76.8407 2134.00
77.145 2084.00
77.4492 2064.00
77.7535 2118.00
78.0577 2155.00
78.362 2131.00
78.6663 2052.00
78.9705 2061.00
79.2748 1978.00
79.579 2057.00
79.8833 1997.00
80.1876 2089.00
80.4918 2123.00
80.7961 2098.00
81.1003 2052.00
81.4046 2090.00
81.7089 2003.00
82.0131 2047.00
82.3174 2007.00
82.6217 2079.00
82.9259 2007.00
83.2302 2080.00
83.5344 1925.00
83.8387 2134.00
84.143 1982.00
84.4472 1984.00
84.7515 2051.00
85.0557 2005.00
85.36 2052.00
85.6643 2025.00
85.9685 2062.00
86.2728 1990.00
86.577 1976.00
86.8813 1925.00
87.1856 1984.00
87.4898 1960.00
87.7941 2019.00
88.0983 1970.00
88.4026 2022.00
88.7069 1994.00
89.0111 2078.00
89.3154 1910.00
89.6196 1968.00
89.9239 1920.00
90.2282 1936.00
90.5324 2008.00
90.8367 1952.00
91.1409 1956.00
91.4452 2022.00
91.7495 1979.00
92.0537 1947.00
92.358 1917.00
92.6622 1827.00
92.9665 1935.00
93.2708 1892.00
93.575 1985.00
93.8793 2112.00
94.1835 2000.00
94.4878 1991.00
94.7921 1973.00
95.0963 1999.00
95.4006 1987.00
95.7048 1960.00
96.0091 1963.00
96.3134 1979.00
96.6176 1885.00
96.9219 1943.00
97.2261 1832.00
97.5304 1975.00
97.8347 1820.00
98.1389 1925.00
98.4432 1919.00
98.7474 1920.00
99.0517 1922.00
99.356 1925.00
99.6602 1891.00
99.9645 1922.00
100.095 1917.00