File: data/xrd_creation/results/MINES_13.xy
9.903433 3160.00
10.2077 2985.00
10.512 2846.00
10.8162 2684.00
11.1205 2786.00
11.4247 2586.00
11.729 2472.00
12.0333 2461.00
12.3375 2437.00
12.6418 2299.00
12.946 2274.00
13.2503 2245.00
13.5546 2171.00
13.8588 2146.00
14.1631 2087.00
14.4673 2047.00
14.7716 2030.00
15.0759 2036.00
15.3801 1991.00
15.6844 1993.00
15.9886 1970.00
16.2929 2043.00
16.5972 1940.00
16.9014 1903.00
17.2057 1879.00
17.5099 1897.00
17.8142 1762.00
18.1185 1788.00
18.4227 1870.00
18.727 1869.00
19.0312 1897.00
19.3355 1761.00
19.6398 1753.00
19.944 1799.00
20.2483 1720.00
20.5525 1811.00
20.8568 1867.00
21.1611 1747.00
21.4653 1879.00
21.7696 2830.00
22.0738 3997.00
22.3781 1788.00
22.6824 1799.00
22.9866 1736.00
23.2909 1919.00
23.5951 1950.00
23.8994 2984.00
24.2037 2092.00
24.5079 2220.00
24.8122 3369.00
25.1164 1974.00
25.4207 1830.00
25.725 1754.00
26.0292 1675.00
26.3335 1652.00
26.6378 1841.00
26.942 1629.00
27.2463 1625.00
27.5505 1610.00
27.8548 1618.00
28.1591 1635.00
28.4633 1752.00
28.7676 1533.00
29.0718 1560.00
29.3761 1555.00
29.6804 1621.00
29.9846 1563.00
30.2889 1588.00
30.5931 1656.00
30.8974 1674.00
31.2017 1640.00
31.5059 1752.00
31.8102 1544.00
32.1144 1563.00
32.4187 1556.00
32.723 1879.00
33.0272 7855.00
33.3315 1865.00
33.6357 1549.00
33.94 1533.00
34.2443 1397.00
34.5485 1503.00
34.8528 1482.00
35.157 1430.00
35.4613 1453.00
35.7656 1585.00
36.0698 1821.00
36.3741 1676.00
36.6783 1498.00
36.9826 1536.00
37.2869 1452.00
37.5911 2046.00
37.8954 1636.00
38.1996 2741.00
38.5039 1917.00
38.8082 1512.00
39.1124 1486.00
39.4167 1639.00
39.7209 1517.00
40.0252 1444.00
40.3295 1392.00
40.6337 1508.00
40.938 1453.00
41.2422 1370.00
41.5465 1372.00
41.8508 1731.00
42.155 1983.00
42.4593 1581.00
42.7635 1554.00
43.0678 1366.00
43.3721 1332.00
43.6763 1404.00
43.9806 1552.00
44.2849 1420.00
44.5891 1462.00
44.8934 1593.00
45.1976 1479.00
45.5019 1570.00
45.8062 1450.00
46.1104 1755.00
46.4147 1519.00
46.7189 1482.00
47.0232 1537.00
47.3275 1488.00
47.6317 1409.00
47.936 1407.00
48.2402 1427.00
48.5445 1745.00
48.8488 1580.00
49.153 1517.00
49.4573 1534.00
49.7615 1480.00
50.0658 1391.00
50.3701 1595.00
50.6743 1692.00
50.9786 1509.00
51.2828 1490.00
51.5871 1399.00
51.8914 1416.00
52.1956 1461.00
52.4999 1503.00
52.8041 1693.00
53.1084 1475.00
53.4127 1440.00
53.7169 1444.00
54.0212 1437.00
54.3254 1483.00
54.6297 1503.00
54.934 1691.00
55.2382 2995.00
55.5425 2550.00
55.8467 1553.00
56.151 1487.00
56.4553 1443.00
56.7595 1449.00
57.0638 1564.00
57.368 1515.00
57.6723 1403.00
57.9766 1458.00
58.2808 1406.00
58.5851 1513.00
58.8893 1399.00
59.1936 1437.00
59.4979 1403.00
59.8021 1522.00
60.1064 1730.00
60.4106 1651.00
60.7149 1580.00
61.0192 1567.00
61.3234 1465.00
61.6277 1563.00
61.932 1602.00
62.2362 1476.00
62.5405 1548.00
62.8447 1499.00
63.149 1687.00
63.4533 1708.00
63.7575 1649.00
64.0618 1463.00
64.366 1393.00
64.6703 1576.00
64.9745 1595.00
65.2788 1632.00
65.5831 2025.00
65.8873 2439.00
66.1916 2245.00
66.4959 1702.00
66.8001 1497.00
67.1044 1444.00
67.4086 1502.00
67.7129 1540.00
68.0172 1520.00
68.3214 1867.00
68.6257 1664.00
68.9299 1692.00
69.2342 1908.00
69.5385 1652.00
69.8427 1538.00
70.147 1438.00
70.4512 1539.00
70.7555 1505.00
71.0598 1422.00
71.364 1446.00
71.6683 1427.00
71.9725 1515.00
72.2768 1532.00
72.5811 1576.00
72.8853 1636.00
73.1896 1589.00
73.4938 1446.00
73.7981 1487.00
74.1024 1438.00
74.4066 1440.00
74.7109 1453.00
75.0151 1505.00
75.3194 1508.00
75.6237 1507.00
75.9279 1514.00
76.2322 1626.00
76.5364 1541.00
76.8407 1514.00
77.145 1538.00
77.4492 1498.00
77.7535 1530.00
78.0577 1603.00
78.362 1575.00
78.6663 1608.00
78.9705 1561.00
79.2748 1598.00
79.579 1580.00
79.8833 1551.00
80.1876 1484.00
80.4918 1573.00
80.7961 1507.00
81.1003 1504.00
81.4046 1552.00
81.7089 1705.00
82.0131 1563.00
82.3174 1578.00
82.6217 1705.00
82.9259 1654.00
83.2302 1487.00
83.5344 1466.00
83.8387 1464.00
84.143 1527.00
84.4472 1575.00
84.7515 1552.00
85.0557 1621.00
85.36 1451.00
85.6643 1525.00
85.9685 1449.00
86.2728 1545.00
86.577 1435.00
86.8813 1530.00
87.1856 1468.00
87.4898 1595.00
87.7941 1560.00
88.0983 1578.00
88.4026 1563.00
88.7069 1574.00
89.0111 1623.00
89.3154 1672.00
89.6196 1562.00
89.9239 1495.00
90.2282 1515.00
90.5324 1465.00
90.8367 1598.00
91.1409 1700.00
91.4452 1831.00
91.7495 1621.00
92.0537 1597.00
92.358 1529.00
92.6622 1529.00
92.9665 1512.00
93.2708 1564.00
93.575 1540.00
93.8793 1745.00
94.1835 1659.00
94.4878 1613.00
94.7921 1690.00
95.0963 1615.00
95.4006 1554.00
95.7048 1516.00
96.0091 1521.00
96.3134 1491.00
96.6176 1541.00
96.9219 1508.00
97.2261 1584.00
97.5304 1491.00
97.8347 1497.00
98.1389 1528.00
98.4432 1558.00
98.7474 1605.00
99.0517 1567.00
99.356 1530.00
99.6602 1620.00
99.9645 1615.00
100.095 1569.00