File: data/xrd_creation/results/MINES_2.xy
9.903433 2708.00
10.2077 2553.00
10.512 2464.00
10.8162 2375.00
11.1205 2252.00
11.4247 2202.00
11.729 2053.00
12.0333 2050.00
12.3375 1934.00
12.6418 1808.00
12.946 1799.00
13.2503 1661.00
13.5546 1689.00
13.8588 1626.00
14.1631 1587.00
14.4673 1577.00
14.7716 1463.00
15.0759 1506.00
15.3801 1499.00
15.6844 1353.00
15.9886 1388.00
16.2929 1603.00
16.5972 1366.00
16.9014 1279.00
17.2057 1311.00
17.5099 1249.00
17.8142 1226.00
18.1185 1182.00
18.4227 1152.00
18.727 1219.00
19.0312 1186.00
19.3355 1630.00
19.6398 1121.00
19.944 1052.00
20.2483 1104.00
20.5525 1378.00
20.8568 1146.00
21.1611 1048.00
21.4653 922.00
21.7696 937.00
22.0738 943.00
22.3781 1004.00
22.6824 1585.00
22.9866 1406.00
23.2909 911.00
23.5951 1346.00
23.8994 1141.00
24.2037 1460.00
24.5079 1060.00
24.8122 2704.00
25.1164 2027.00
25.4207 4118.00
25.725 3500.00
26.0292 1209.00
26.3335 2370.00
26.6378 1647.00
26.942 880.00
27.2463 792.00
27.5505 760.00
27.8548 802.00
28.1591 1000.00
28.4633 861.00
28.7676 729.00
29.0718 697.00
29.3761 697.00
29.6804 682.00
29.9846 682.00
30.2889 766.00
30.5931 871.00
30.8974 644.00
31.2017 677.00
31.5059 611.00
31.8102 662.00
32.1144 676.00
32.4187 641.00
32.723 616.00
33.0272 664.00
33.3315 613.00
33.6357 580.00
33.94 648.00
34.2443 624.00
34.5485 557.00
34.8528 487.00
35.157 500.00
35.4613 553.00
35.7656 592.00
36.0698 575.00
36.3741 569.00
36.6783 526.00
36.9826 562.00
37.2869 670.00
37.5911 1012.00
37.8954 720.00
38.1996 756.00
38.5039 528.00
38.8082 533.00
39.1124 707.00
39.4167 787.00
39.7209 559.00
40.0252 550.00
40.3295 476.00
40.6337 433.00
40.938 459.00
41.2422 473.00
41.5465 432.00
41.8508 434.00
42.155 458.00
42.4593 445.00
42.7635 461.00
43.0678 492.00
43.3721 494.00
43.6763 438.00
43.9806 493.00
44.2849 393.00
44.5891 422.00
44.8934 479.00
45.1976 469.00
45.5019 504.00
45.8062 541.00
46.1104 629.00
46.4147 414.00
46.7189 436.00
47.0232 445.00
47.3275 428.00
47.6317 539.00
47.936 585.00
48.2402 532.00
48.5445 618.00
48.8488 475.00
49.153 415.00
49.4573 448.00
49.7615 532.00
50.0658 476.00
50.3701 395.00
50.6743 425.00
50.9786 362.00
51.2828 340.00
51.5871 340.00
51.8914 353.00
52.1956 365.00
52.4999 384.00
52.8041 348.00
53.1084 362.00
53.4127 322.00
53.7169 370.00
54.0212 351.00
54.3254 363.00
54.6297 362.00
54.934 364.00
55.2382 355.00
55.5425 363.00
55.8467 422.00
56.151 424.00
56.4553 351.00
56.7595 322.00
57.0638 317.00
57.368 328.00
57.6723 327.00
57.9766 331.00
58.2808 294.00
58.5851 343.00
58.8893 274.00
59.1936 336.00
59.4979 364.00
59.8021 344.00
60.1064 349.00
60.4106 390.00
60.7149 383.00
61.0192 371.00
61.3234 309.00
61.6277 292.00
61.932 327.00
62.2362 284.00
62.5405 326.00
62.8447 314.00
63.149 323.00
63.4533 337.00
63.7575 350.00
64.0618 363.00
64.366 332.00
64.6703 374.00
64.9745 334.00
65.2788 326.00
65.5831 457.00
65.8873 331.00
66.1916 312.00
66.4959 379.00
66.8001 415.00
67.1044 437.00
67.4086 352.00
67.7129 394.00
68.0172 417.00
68.3214 369.00
68.6257 322.00
68.9299 325.00
69.2342 278.00
69.5385 264.00
69.8427 257.00
70.147 267.00
70.4512 257.00
70.7555 276.00
71.0598 285.00
71.364 291.00
71.6683 279.00
71.9725 306.00
72.2768 294.00
72.5811 289.00
72.8853 296.00
73.1896 292.00
73.4938 288.00
73.7981 283.00
74.1024 248.00
74.4066 303.00
74.7109 267.00
75.0151 282.00
75.3194 298.00
75.6237 300.00
75.9279 330.00
76.2322 309.00
76.5364 288.00
76.8407 306.00
77.145 331.00
77.4492 327.00
77.7535 335.00
78.0577 338.00
78.362 306.00
78.6663 298.00
78.9705 302.00
79.2748 326.00
79.579 303.00
79.8833 315.00
80.1876 287.00
80.4918 302.00
80.7961 348.00
81.1003 325.00
81.4046 291.00
81.7089 280.00
82.0131 290.00
82.3174 296.00
82.6217 303.00
82.9259 249.00
83.2302 291.00
83.5344 306.00
83.8387 246.00
84.143 299.00
84.4472 275.00
84.7515 306.00
85.0557 293.00
85.36 287.00
85.6643 290.00
85.9685 288.00
86.2728 294.00
86.577 275.00
86.8813 271.00
87.1856 240.00
87.4898 250.00
87.7941 275.00
88.0983 268.00
88.4026 271.00
88.7069 221.00
89.0111 229.00
89.3154 289.00
89.6196 265.00
89.9239 232.00
90.2282 238.00
90.5324 274.00
90.8367 273.00
91.1409 224.00
91.4452 229.00
91.7495 274.00
92.0537 271.00
92.358 236.00
92.6622 257.00
92.9665 234.00
93.2708 222.00
93.575 272.00
93.8793 245.00
94.1835 304.00
94.4878 246.00
94.7921 245.00
95.0963 233.00
95.4006 226.00
95.7048 275.00
96.0091 244.00
96.3134 230.00
96.6176 242.00
96.9219 238.00
97.2261 247.00
97.5304 303.00
97.8347 265.00
98.1389 237.00
98.4432 259.00
98.7474 258.00
99.0517 243.00
99.356 236.00
99.6602 234.00
99.9645 226.00
100.095 240.00