File: data/xrd_creation/results/Na_-3.xy
9.903433 2804.00
10.2077 2683.00
10.512 2659.00
10.8162 2606.00
11.1205 2411.00
11.4247 2330.00
11.729 2605.00
12.0333 2149.00
12.3375 2069.00
12.6418 2193.00
12.946 1912.00
13.2503 2057.00
13.5546 1945.00
13.8588 1841.00
14.1631 1799.00
14.4673 1890.00
14.7716 1759.00
15.0759 1704.00
15.3801 1589.00
15.6844 1623.00
15.9886 1620.00
16.2929 1628.00
16.5972 1674.00
16.9014 1559.00
17.2057 1604.00
17.5099 1708.00
17.8142 2682.00
18.1185 1449.00
18.4227 1411.00
18.727 1724.00
19.0312 1592.00
19.3355 1498.00
19.6398 1435.00
19.944 1522.00
20.2483 3813.00
20.5525 2303.00
20.8568 1405.00
21.1611 1745.00
21.4653 1465.00
21.7696 1853.00
22.0738 1300.00
22.3781 1392.00
22.6824 3535.00
22.9866 1485.00
23.2909 3709.00
23.5951 2154.00
23.8994 1304.00
24.2037 1152.00
24.5079 1175.00
24.8122 1150.00
25.1164 1084.00
25.4207 2770.00
25.725 1920.00
26.0292 1202.00
26.3335 1129.00
26.6378 1642.00
26.942 1703.00
27.2463 951.00
27.5505 1003.00
27.8548 969.00
28.1591 1309.00
28.4633 1022.00
28.7676 956.00
29.0718 1700.00
29.3761 1592.00
29.6804 7690.00
29.9846 1212.00
30.2889 1133.00
30.5931 903.00
30.8974 1321.00
31.2017 2120.00
31.5059 1511.00
31.8102 3490.00
32.1144 1927.00
32.4187 3131.00
32.723 2970.00
33.0272 3044.00
33.3315 4156.00
33.6357 1797.00
33.94 1474.00
34.2443 2021.00
34.5485 1511.00
34.8528 1164.00
35.157 1158.00
35.4613 1246.00
35.7656 1260.00
36.0698 1028.00
36.3741 1418.00
36.6783 784.00
36.9826 985.00
37.2869 890.00
37.5911 1200.00
37.8954 672.00
38.1996 711.00
38.5039 841.00
38.8082 1098.00
39.1124 844.00
39.4167 873.00
39.7209 1643.00
40.0252 811.00
40.3295 1023.00
40.6337 660.00
40.938 877.00
41.2422 1147.00
41.5465 770.00
41.8508 1195.00
42.155 740.00
42.4593 898.00
42.7635 681.00
43.0678 759.00
43.3721 1447.00
43.6763 1164.00
43.9806 1452.00
44.2849 796.00
44.5891 626.00
44.8934 729.00
45.1976 681.00
45.5019 721.00
45.8062 773.00
46.1104 1094.00
46.4147 712.00
46.7189 718.00
47.0232 1137.00
47.3275 1836.00
47.6317 1890.00
47.936 1353.00
48.2402 792.00
48.5445 684.00
48.8488 1221.00
49.153 597.00
49.4573 612.00
49.7615 845.00
50.0658 642.00
50.3701 564.00
50.6743 521.00
50.9786 689.00
51.2828 591.00
51.5871 587.00
51.8914 790.00
52.1956 799.00
52.4999 813.00
52.8041 1143.00
53.1084 671.00
53.4127 916.00
53.7169 793.00
54.0212 649.00
54.3254 608.00
54.6297 830.00
54.934 775.00
55.2382 618.00
55.5425 486.00
55.8467 475.00
56.151 670.00
56.4553 658.00
56.7595 804.00
57.0638 780.00
57.368 910.00
57.6723 1129.00
57.9766 720.00
58.2808 605.00
58.5851 574.00
58.8893 745.00
59.1936 768.00
59.4979 793.00
59.8021 904.00
60.1064 730.00
60.4106 555.00
60.7149 726.00
61.0192 758.00
61.3234 606.00
61.6277 615.00
61.932 498.00
62.2362 531.00
62.5405 579.00
62.8447 567.00
63.149 722.00
63.4533 664.00
63.7575 658.00
64.0618 591.00
64.366 573.00
64.6703 564.00
64.9745 689.00
65.2788 569.00
65.5831 680.00
65.8873 762.00
66.1916 623.00
66.4959 610.00
66.8001 565.00
67.1044 463.00
67.4086 458.00
67.7129 610.00
68.0172 529.00
68.3214 416.00
68.6257 337.00
68.9299 400.00
69.2342 586.00
69.5385 624.00
69.8427 509.00
70.147 446.00
70.4512 634.00
70.7555 548.00
71.0598 451.00
71.364 410.00
71.6683 476.00
71.9725 665.00
72.2768 500.00
72.5811 444.00
72.8853 530.00
73.1896 516.00
73.4938 422.00
73.7981 400.00
74.1024 379.00
74.4066 391.00
74.7109 375.00
75.0151 408.00
75.3194 469.00
75.6237 428.00
75.9279 395.00
76.2322 469.00
76.5364 503.00
76.8407 420.00
77.145 452.00
77.4492 436.00
77.7535 412.00
78.0577 452.00
78.362 423.00
78.6663 428.00
78.9705 391.00
79.2748 457.00
79.579 462.00
79.8833 403.00
80.1876 423.00
80.4918 417.00
80.7961 446.00
81.1003 463.00
81.4046 507.00
81.7089 513.00
82.0131 411.00
82.3174 377.00
82.6217 390.00
82.9259 321.00
83.2302 413.00
83.5344 403.00
83.8387 415.00
84.143 449.00
84.4472 400.00
84.7515 434.00
85.0557 462.00
85.36 399.00
85.6643 358.00
85.9685 404.00
86.2728 366.00
86.577 385.00
86.8813 410.00
87.1856 378.00
87.4898 387.00
87.7941 381.00
88.0983 407.00
88.4026 420.00
88.7069 411.00
89.0111 361.00
89.3154 332.00
89.6196 320.00
89.9239 397.00
90.2282 365.00
90.5324 391.00
90.8367 344.00
91.1409 335.00
91.4452 353.00
91.7495 402.00
92.0537 371.00
92.358 373.00
92.6622 395.00
92.9665 354.00
93.2708 436.00
93.575 448.00
93.8793 416.00
94.1835 347.00
94.4878 341.00
94.7921 466.00
95.0963 496.00
95.4006 498.00
95.7048 395.00
96.0091 374.00
96.3134 424.00
96.6176 401.00
96.9219 352.00
97.2261 371.00
97.5304 342.00
97.8347 335.00
98.1389 358.00
98.4432 418.00
98.7474 374.00
99.0517 357.00
99.356 425.00
99.6602 367.00
99.9645 352.00
100.095 353.00