File: data/xrd_creation/results/Na_-10.xy
9.903433 2718.00
10.2077 2567.00
10.512 2364.00
10.8162 2275.00
11.1205 2204.00
11.4247 2101.00
11.729 2017.00
12.0333 1916.00
12.3375 1801.00
12.6418 1743.00
12.946 1716.00
13.2503 1644.00
13.5546 1586.00
13.8588 1576.00
14.1631 1508.00
14.4673 1467.00
14.7716 1472.00
15.0759 1464.00
15.3801 1377.00
15.6844 1313.00
15.9886 1352.00
16.2929 1344.00
16.5972 1252.00
16.9014 1204.00
17.2057 1237.00
17.5099 1214.00
17.8142 1188.00
18.1185 1132.00
18.4227 1096.00
18.727 1119.00
19.0312 1056.00
19.3355 968.00
19.6398 999.00
19.944 1314.00
20.2483 933.00
20.5525 956.00
20.8568 969.00
21.1611 902.00
21.4653 930.00
21.7696 877.00
22.0738 835.00
22.3781 871.00
22.6824 797.00
22.9866 826.00
23.2909 820.00
23.5951 760.00
23.8994 774.00
24.2037 710.00
24.5079 723.00
24.8122 720.00
25.1164 738.00
25.4207 708.00
25.725 783.00
26.0292 768.00
26.3335 2060.00
26.6378 1257.00
26.942 780.00
27.2463 662.00
27.5505 717.00
27.8548 705.00
28.1591 664.00
28.4633 724.00
28.7676 875.00
29.0718 735.00
29.3761 628.00
29.6804 646.00
29.9846 639.00
30.2889 640.00
30.5931 562.00
30.8974 553.00
31.2017 600.00
31.5059 547.00
31.8102 561.00
32.1144 540.00
32.4187 594.00
32.723 778.00
33.0272 939.00
33.3315 736.00
33.6357 1632.00
33.94 1054.00
34.2443 566.00
34.5485 466.00
34.8528 491.00
35.157 471.00
35.4613 481.00
35.7656 438.00
36.0698 475.00
36.3741 442.00
36.6783 470.00
36.9826 448.00
37.2869 481.00
37.5911 492.00
37.8954 995.00
38.1996 466.00
38.5039 434.00
38.8082 536.00
39.1124 406.00
39.4167 385.00
39.7209 373.00
40.0252 376.00
40.3295 342.00
40.6337 383.00
40.938 346.00
41.2422 336.00
41.5465 381.00
41.8508 338.00
42.155 338.00
42.4593 398.00
42.7635 370.00
43.0678 379.00
43.3721 383.00
43.6763 390.00
43.9806 362.00
44.2849 350.00
44.5891 351.00
44.8934 335.00
45.1976 354.00
45.5019 325.00
45.8062 332.00
46.1104 292.00
46.4147 333.00
46.7189 332.00
47.0232 315.00
47.3275 363.00
47.6317 316.00
47.936 316.00
48.2402 348.00
48.5445 315.00
48.8488 318.00
49.153 261.00
49.4573 244.00
49.7615 295.00
50.0658 306.00
50.3701 271.00
50.6743 290.00
50.9786 322.00
51.2828 375.00
51.5871 1550.00
51.8914 746.00
52.1956 368.00
52.4999 311.00
52.8041 306.00
53.1084 303.00
53.4127 260.00
53.7169 265.00
54.0212 296.00
54.3254 309.00
54.6297 726.00
54.934 333.00
55.2382 273.00
55.5425 272.00
55.8467 247.00
56.151 224.00
56.4553 258.00
56.7595 274.00
57.0638 300.00
57.368 294.00
57.6723 462.00
57.9766 269.00
58.2808 225.00
58.5851 202.00
58.8893 283.00
59.1936 268.00
59.4979 249.00
59.8021 226.00
60.1064 247.00
60.4106 245.00
60.7149 223.00
61.0192 220.00
61.3234 261.00
61.6277 330.00
61.932 453.00
62.2362 268.00
62.5405 237.00
62.8447 192.00
63.149 218.00
63.4533 209.00
63.7575 203.00
64.0618 235.00
64.366 312.00
64.6703 561.00
64.9745 275.00
65.2788 267.00
65.5831 275.00
65.8873 619.00
66.1916 308.00
66.4959 241.00
66.8001 209.00
67.1044 192.00
67.4086 224.00
67.7129 223.00
68.0172 176.00
68.3214 209.00
68.6257 217.00
68.9299 194.00
69.2342 212.00
69.5385 208.00
69.8427 181.00
70.147 182.00
70.4512 223.00
70.7555 237.00
71.0598 297.00
71.364 295.00
71.6683 213.00
71.9725 247.00
72.2768 220.00
72.5811 200.00
72.8853 219.00
73.1896 195.00
73.4938 196.00
73.7981 188.00
74.1024 207.00
74.4066 201.00
74.7109 200.00
75.0151 228.00
75.3194 214.00
75.6237 184.00
75.9279 245.00
76.2322 264.00
76.5364 197.00
76.8407 223.00
77.145 216.00
77.4492 218.00
77.7535 221.00
78.0577 259.00
78.362 302.00
78.6663 436.00
78.9705 282.00
79.2748 211.00
79.579 247.00
79.8833 237.00
80.1876 226.00
80.4918 244.00
80.7961 268.00
81.1003 316.00
81.4046 264.00
81.7089 223.00
82.0131 203.00
82.3174 262.00
82.6217 227.00
82.9259 221.00
83.2302 222.00
83.5344 365.00
83.8387 348.00
84.143 242.00
84.4472 218.00
84.7515 223.00
85.0557 211.00
85.36 209.00
85.6643 198.00
85.9685 207.00
86.2728 180.00
86.577 195.00
86.8813 182.00
87.1856 291.00
87.4898 221.00
87.7941 203.00
88.0983 194.00
88.4026 181.00
88.7069 193.00
89.0111 182.00
89.3154 219.00
89.6196 326.00
89.9239 351.00
90.2282 211.00
90.5324 249.00
90.8367 407.00
91.1409 339.00
91.4452 211.00
91.7495 239.00
92.0537 228.00
92.358 198.00
92.6622 185.00
92.9665 226.00
93.2708 318.00
93.575 260.00
93.8793 198.00
94.1835 206.00
94.4878 198.00
94.7921 213.00
95.0963 172.00
95.4006 199.00
95.7048 216.00
96.0091 239.00
96.3134 227.00
96.6176 188.00
96.9219 204.00
97.2261 212.00
97.5304 194.00
97.8347 195.00
98.1389 179.00
98.4432 210.00
98.7474 184.00
99.0517 194.00
99.356 202.00
99.6602 173.00
99.9645 185.00
100.095 205.00