File: data/xrd_creation/results/Na_-6.xy
9.903433 2535.00
10.2077 2465.00
10.512 2394.00
10.8162 2247.00
11.1205 2177.00
11.4247 2095.00
11.729 1973.00
12.0333 1941.00
12.3375 1808.00
12.6418 1767.00
12.946 1737.00
13.2503 1563.00
13.5546 1545.00
13.8588 1562.00
14.1631 1455.00
14.4673 1419.00
14.7716 1412.00
15.0759 1362.00
15.3801 1308.00
15.6844 1250.00
15.9886 1294.00
16.2929 1222.00
16.5972 1254.00
16.9014 1304.00
17.2057 1244.00
17.5099 1192.00
17.8142 1109.00
18.1185 1157.00
18.4227 1079.00
18.727 978.00
19.0312 1077.00
19.3355 1028.00
19.6398 972.00
19.944 953.00
20.2483 908.00
20.5525 960.00
20.8568 915.00
21.1611 857.00
21.4653 858.00
21.7696 819.00
22.0738 828.00
22.3781 793.00
22.6824 841.00
22.9866 765.00
23.2909 804.00
23.5951 740.00
23.8994 779.00
24.2037 704.00
24.5079 796.00
24.8122 686.00
25.1164 668.00
25.4207 718.00
25.725 662.00
26.0292 642.00
26.3335 792.00
26.6378 661.00
26.942 668.00
27.2463 637.00
27.5505 650.00
27.8548 590.00
28.1591 614.00
28.4633 599.00
28.7676 623.00
29.0718 611.00
29.3761 561.00
29.6804 550.00
29.9846 586.00
30.2889 593.00
30.5931 539.00
30.8974 572.00
31.2017 542.00
31.5059 513.00
31.8102 523.00
32.1144 481.00
32.4187 487.00
32.723 489.00
33.0272 550.00
33.3315 448.00
33.6357 559.00
33.94 504.00
34.2443 451.00
34.5485 433.00
34.8528 492.00
35.157 422.00
35.4613 415.00
35.7656 367.00
36.0698 417.00
36.3741 428.00
36.6783 409.00
36.9826 400.00
37.2869 361.00
37.5911 372.00
37.8954 402.00
38.1996 367.00
38.5039 389.00
38.8082 343.00
39.1124 382.00
39.4167 374.00
39.7209 338.00
40.0252 376.00
40.3295 342.00
40.6337 363.00
40.938 355.00
41.2422 365.00
41.5465 345.00
41.8508 308.00
42.155 353.00
42.4593 334.00
42.7635 347.00
43.0678 336.00
43.3721 346.00
43.6763 326.00
43.9806 318.00
44.2849 311.00
44.5891 305.00
44.8934 286.00
45.1976 289.00
45.5019 303.00
45.8062 317.00
46.1104 299.00
46.4147 306.00
46.7189 265.00
47.0232 310.00
47.3275 300.00
47.6317 298.00
47.936 301.00
48.2402 277.00
48.5445 266.00
48.8488 292.00
49.153 286.00
49.4573 276.00
49.7615 244.00
50.0658 257.00
50.3701 271.00
50.6743 306.00
50.9786 233.00
51.2828 239.00
51.5871 326.00
51.8914 275.00
52.1956 275.00
52.4999 276.00
52.8041 217.00
53.1084 233.00
53.4127 239.00
53.7169 257.00
54.0212 277.00
54.3254 260.00
54.6297 278.00
54.934 266.00
55.2382 226.00
55.5425 243.00
55.8467 226.00
56.151 239.00
56.4553 221.00
56.7595 238.00
57.0638 200.00
57.368 205.00
57.6723 217.00
57.9766 250.00
58.2808 215.00
58.5851 211.00
58.8893 223.00
59.1936 206.00
59.4979 224.00
59.8021 206.00
60.1064 208.00
60.4106 205.00
60.7149 194.00
61.0192 207.00
61.3234 223.00
61.6277 207.00
61.932 190.00
62.2362 211.00
62.5405 210.00
62.8447 199.00
63.149 205.00
63.4533 183.00
63.7575 173.00
64.0618 197.00
64.366 213.00
64.6703 201.00
64.9745 216.00
65.2788 203.00
65.5831 203.00
65.8873 196.00
66.1916 181.00
66.4959 203.00
66.8001 185.00
67.1044 191.00
67.4086 194.00
67.7129 203.00
68.0172 215.00
68.3214 184.00
68.6257 199.00
68.9299 181.00
69.2342 185.00
69.5385 170.00
69.8427 189.00
70.147 187.00
70.4512 182.00
70.7555 191.00
71.0598 206.00
71.364 187.00
71.6683 211.00
71.9725 191.00
72.2768 191.00
72.5811 192.00
72.8853 204.00
73.1896 199.00
73.4938 180.00
73.7981 196.00
74.1024 180.00
74.4066 184.00
74.7109 204.00
75.0151 197.00
75.3194 212.00
75.6237 204.00
75.9279 220.00
76.2322 221.00
76.5364 211.00
76.8407 229.00
77.145 218.00
77.4492 214.00
77.7535 219.00
78.0577 222.00
78.362 232.00
78.6663 237.00
78.9705 215.00
79.2748 178.00
79.579 233.00
79.8833 218.00
80.1876 209.00
80.4918 238.00
80.7961 236.00
81.1003 232.00
81.4046 210.00
81.7089 265.00
82.0131 269.00
82.3174 267.00
82.6217 200.00
82.9259 238.00
83.2302 231.00
83.5344 225.00
83.8387 230.00
84.143 208.00
84.4472 208.00
84.7515 210.00
85.0557 222.00
85.36 213.00
85.6643 234.00
85.9685 222.00
86.2728 195.00
86.577 228.00
86.8813 191.00
87.1856 205.00
87.4898 190.00
87.7941 174.00
88.0983 174.00
88.4026 213.00
88.7069 193.00
89.0111 181.00
89.3154 222.00
89.6196 212.00
89.9239 185.00
90.2282 179.00
90.5324 181.00
90.8367 174.00
91.1409 188.00
91.4452 186.00
91.7495 202.00
92.0537 186.00
92.358 190.00
92.6622 171.00
92.9665 165.00
93.2708 230.00
93.575 189.00
93.8793 180.00
94.1835 190.00
94.4878 176.00
94.7921 171.00
95.0963 175.00
95.4006 166.00
95.7048 195.00
96.0091 187.00
96.3134 170.00
96.6176 204.00
96.9219 170.00
97.2261 206.00
97.5304 195.00
97.8347 186.00
98.1389 200.00
98.4432 187.00
98.7474 165.00
99.0517 175.00
99.356 182.00
99.6602 186.00
99.9645 184.00
100.095 175.00