File: data/xrd_creation/results/Na_-9.xy
9.903433 2679.00
10.2077 2566.00
10.512 2531.00
10.8162 2371.00
11.1205 2217.00
11.4247 2186.00
11.729 2088.00
12.0333 1976.00
12.3375 1858.00
12.6418 1781.00
12.946 1698.00
13.2503 1702.00
13.5546 1647.00
13.8588 1551.00
14.1631 1524.00
14.4673 1483.00
14.7716 1552.00
15.0759 1431.00
15.3801 1378.00
15.6844 1387.00
15.9886 1341.00
16.2929 1394.00
16.5972 1328.00
16.9014 1247.00
17.2057 1248.00
17.5099 1228.00
17.8142 1245.00
18.1185 1199.00
18.4227 1121.00
18.727 1148.00
19.0312 1113.00
19.3355 1133.00
19.6398 1047.00
19.944 1156.00
20.2483 1088.00
20.5525 1014.00
20.8568 1048.00
21.1611 962.00
21.4653 945.00
21.7696 975.00
22.0738 994.00
22.3781 970.00
22.6824 880.00
22.9866 881.00
23.2909 858.00
23.5951 881.00
23.8994 905.00
24.2037 885.00
24.5079 823.00
24.8122 754.00
25.1164 821.00
25.4207 801.00
25.725 858.00
26.0292 803.00
26.3335 907.00
26.6378 786.00
26.942 725.00
27.2463 740.00
27.5505 742.00
27.8548 806.00
28.1591 815.00
28.4633 754.00
28.7676 731.00
29.0718 752.00
29.3761 667.00
29.6804 691.00
29.9846 725.00
30.2889 699.00
30.5931 743.00
30.8974 654.00
31.2017 652.00
31.5059 672.00
31.8102 593.00
32.1144 644.00
32.4187 620.00
32.723 634.00
33.0272 615.00
33.3315 637.00
33.6357 670.00
33.94 629.00
34.2443 576.00
34.5485 560.00
34.8528 595.00
35.157 531.00
35.4613 507.00
35.7656 530.00
36.0698 506.00
36.3741 500.00
36.6783 534.00
36.9826 533.00
37.2869 495.00
37.5911 464.00
37.8954 518.00
38.1996 472.00
38.5039 417.00
38.8082 442.00
39.1124 441.00
39.4167 426.00
39.7209 429.00
40.0252 389.00
40.3295 406.00
40.6337 395.00
40.938 400.00
41.2422 389.00
41.5465 378.00
41.8508 436.00
42.155 409.00
42.4593 414.00
42.7635 451.00
43.0678 582.00
43.3721 426.00
43.6763 369.00
43.9806 392.00
44.2849 376.00
44.5891 346.00
44.8934 362.00
45.1976 347.00
45.5019 427.00
45.8062 385.00
46.1104 332.00
46.4147 388.00
46.7189 347.00
47.0232 363.00
47.3275 349.00
47.6317 324.00
47.936 313.00
48.2402 344.00
48.5445 360.00
48.8488 369.00
49.153 365.00
49.4573 307.00
49.7615 315.00
50.0658 320.00
50.3701 332.00
50.6743 316.00
50.9786 349.00
51.2828 359.00
51.5871 438.00
51.8914 336.00
52.1956 322.00
52.4999 314.00
52.8041 354.00
53.1084 331.00
53.4127 350.00
53.7169 313.00
54.0212 303.00
54.3254 311.00
54.6297 330.00
54.934 267.00
55.2382 322.00
55.5425 288.00
55.8467 283.00
56.151 295.00
56.4553 306.00
56.7595 274.00
57.0638 241.00
57.368 301.00
57.6723 296.00
57.9766 278.00
58.2808 283.00
58.5851 248.00
58.8893 298.00
59.1936 246.00
59.4979 267.00
59.8021 256.00
60.1064 302.00
60.4106 283.00
60.7149 224.00
61.0192 247.00
61.3234 241.00
61.6277 259.00
61.932 264.00
62.2362 266.00
62.5405 291.00
62.8447 300.00
63.149 283.00
63.4533 265.00
63.7575 234.00
64.0618 206.00
64.366 243.00
64.6703 285.00
64.9745 267.00
65.2788 245.00
65.5831 269.00
65.8873 256.00
66.1916 244.00
66.4959 213.00
66.8001 220.00
67.1044 246.00
67.4086 239.00
67.7129 216.00
68.0172 227.00
68.3214 232.00
68.6257 226.00
68.9299 229.00
69.2342 245.00
69.5385 232.00
69.8427 221.00
70.147 230.00
70.4512 279.00
70.7555 216.00
71.0598 237.00
71.364 223.00
71.6683 211.00
71.9725 248.00
72.2768 234.00
72.5811 243.00
72.8853 258.00
73.1896 240.00
73.4938 235.00
73.7981 247.00
74.1024 212.00
74.4066 236.00
74.7109 240.00
75.0151 245.00
75.3194 292.00
75.6237 265.00
75.9279 273.00
76.2322 243.00
76.5364 239.00
76.8407 271.00
77.145 260.00
77.4492 290.00
77.7535 226.00
78.0577 231.00
78.362 270.00
78.6663 294.00
78.9705 302.00
79.2748 275.00
79.579 258.00
79.8833 234.00
80.1876 246.00
80.4918 261.00
80.7961 300.00
81.1003 242.00
81.4046 299.00
81.7089 268.00
82.0131 227.00
82.3174 249.00
82.6217 276.00
82.9259 280.00
83.2302 264.00
83.5344 275.00
83.8387 259.00
84.143 275.00
84.4472 227.00
84.7515 256.00
85.0557 212.00
85.36 230.00
85.6643 269.00
85.9685 249.00
86.2728 240.00
86.577 231.00
86.8813 237.00
87.1856 259.00
87.4898 239.00
87.7941 264.00
88.0983 227.00
88.4026 232.00
88.7069 259.00
89.0111 236.00
89.3154 249.00
89.6196 263.00
89.9239 225.00
90.2282 238.00
90.5324 240.00
90.8367 245.00
91.1409 219.00
91.4452 213.00
91.7495 215.00
92.0537 239.00
92.358 216.00
92.6622 220.00
92.9665 202.00
93.2708 238.00
93.575 209.00
93.8793 225.00
94.1835 237.00
94.4878 222.00
94.7921 206.00
95.0963 222.00
95.4006 257.00
95.7048 235.00
96.0091 216.00
96.3134 259.00
96.6176 207.00
96.9219 212.00
97.2261 228.00
97.5304 213.00
97.8347 200.00
98.1389 223.00
98.4432 205.00
98.7474 222.00
99.0517 199.00
99.356 256.00
99.6602 216.00
99.9645 211.00
100.095 226.00