File: data/xrd_creation/results/Na_-1.xy
9.903433 2794.00
10.2077 2689.00
10.512 2613.00
10.8162 2492.00
11.1205 2340.00
11.4247 2350.00
11.729 2496.00
12.0333 2113.00
12.3375 2043.00
12.6418 2113.00
12.946 1945.00
13.2503 1944.00
13.5546 1840.00
13.8588 1912.00
14.1631 1711.00
14.4673 1753.00
14.7716 1766.00
15.0759 1671.00
15.3801 1611.00
15.6844 1578.00
15.9886 1567.00
16.2929 1537.00
16.5972 1521.00
16.9014 1418.00
17.2057 1567.00
17.5099 1626.00
17.8142 2534.00
18.1185 1426.00
18.4227 1325.00
18.727 1478.00
19.0312 1507.00
19.3355 1485.00
19.6398 1351.00
19.944 1604.00
20.2483 3395.00
20.5525 2099.00
20.8568 1246.00
21.1611 1361.00
21.4653 1434.00
21.7696 1618.00
22.0738 1093.00
22.3781 1351.00
22.6824 3369.00
22.9866 1537.00
23.2909 3534.00
23.5951 1908.00
23.8994 1207.00
24.2037 1101.00
24.5079 1191.00
24.8122 1141.00
25.1164 1109.00
25.4207 2726.00
25.725 1969.00
26.0292 1170.00
26.3335 1135.00
26.6378 1602.00
26.942 1681.00
27.2463 857.00
27.5505 927.00
27.8548 938.00
28.1591 1199.00
28.4633 910.00
28.7676 1010.00
29.0718 1486.00
29.3761 1388.00
29.6804 6471.00
29.9846 1107.00
30.2889 954.00
30.5931 756.00
30.8974 1062.00
31.2017 1456.00
31.5059 1436.00
31.8102 3792.00
32.1144 2013.00
32.4187 3297.00
32.723 2779.00
33.0272 3291.00
33.3315 4055.00
33.6357 1844.00
33.94 1400.00
34.2443 2067.00
34.5485 1438.00
34.8528 1174.00
35.157 1048.00
35.4613 1055.00
35.7656 1219.00
36.0698 1016.00
36.3741 1316.00
36.6783 778.00
36.9826 1009.00
37.2869 810.00
37.5911 1092.00
37.8954 670.00
38.1996 706.00
38.5039 752.00
38.8082 1072.00
39.1124 809.00
39.4167 941.00
39.7209 1351.00
40.0252 793.00
40.3295 895.00
40.6337 603.00
40.938 929.00
41.2422 1185.00
41.5465 737.00
41.8508 1158.00
42.155 757.00
42.4593 846.00
42.7635 683.00
43.0678 697.00
43.3721 1331.00
43.6763 1217.00
43.9806 1417.00
44.2849 720.00
44.5891 605.00
44.8934 659.00
45.1976 699.00
45.5019 751.00
45.8062 848.00
46.1104 995.00
46.4147 686.00
46.7189 697.00
47.0232 1198.00
47.3275 1741.00
47.6317 2129.00
47.936 1233.00
48.2402 748.00
48.5445 749.00
48.8488 1045.00
49.153 592.00
49.4573 553.00
49.7615 693.00
50.0658 647.00
50.3701 532.00
50.6743 579.00
50.9786 642.00
51.2828 553.00
51.5871 627.00
51.8914 819.00
52.1956 744.00
52.4999 927.00
52.8041 1119.00
53.1084 708.00
53.4127 889.00
53.7169 724.00
54.0212 629.00
54.3254 581.00
54.6297 842.00
54.934 800.00
55.2382 535.00
55.5425 502.00
55.8467 510.00
56.151 607.00
56.4553 702.00
56.7595 806.00
57.0638 848.00
57.368 906.00
57.6723 1065.00
57.9766 726.00
58.2808 521.00
58.5851 532.00
58.8893 746.00
59.1936 746.00
59.4979 775.00
59.8021 867.00
60.1064 735.00
60.4106 611.00
60.7149 822.00
61.0192 799.00
61.3234 560.00
61.6277 513.00
61.932 469.00
62.2362 483.00
62.5405 502.00
62.8447 565.00
63.149 690.00
63.4533 671.00
63.7575 593.00
64.0618 528.00
64.366 570.00
64.6703 587.00
64.9745 710.00
65.2788 535.00
65.5831 693.00
65.8873 676.00
66.1916 602.00
66.4959 625.00
66.8001 482.00
67.1044 498.00
67.4086 427.00
67.7129 594.00
68.0172 490.00
68.3214 401.00
68.6257 308.00
68.9299 348.00
69.2342 575.00
69.5385 575.00
69.8427 521.00
70.147 494.00
70.4512 622.00
70.7555 536.00
71.0598 404.00
71.364 399.00
71.6683 440.00
71.9725 624.00
72.2768 440.00
72.5811 448.00
72.8853 564.00
73.1896 514.00
73.4938 410.00
73.7981 394.00
74.1024 423.00
74.4066 398.00
74.7109 394.00
75.0151 392.00
75.3194 415.00
75.6237 477.00
75.9279 398.00
76.2322 492.00
76.5364 467.00
76.8407 396.00
77.145 501.00
77.4492 451.00
77.7535 399.00
78.0577 445.00
78.362 456.00
78.6663 346.00
78.9705 398.00
79.2748 450.00
79.579 452.00
79.8833 405.00
80.1876 394.00
80.4918 436.00
80.7961 465.00
81.1003 433.00
81.4046 519.00
81.7089 523.00
82.0131 395.00
82.3174 344.00
82.6217 375.00
82.9259 310.00
83.2302 370.00
83.5344 408.00
83.8387 429.00
84.143 428.00
84.4472 395.00
84.7515 403.00
85.0557 458.00
85.36 413.00
85.6643 365.00
85.9685 403.00
86.2728 455.00
86.577 400.00
86.8813 427.00
87.1856 384.00
87.4898 399.00
87.7941 404.00
88.0983 393.00
88.4026 401.00
88.7069 391.00
89.0111 395.00
89.3154 312.00
89.6196 308.00
89.9239 320.00
90.2282 349.00
90.5324 376.00
90.8367 341.00
91.1409 334.00
91.4452 355.00
91.7495 352.00
92.0537 322.00
92.358 352.00
92.6622 372.00
92.9665 388.00
93.2708 356.00
93.575 370.00
93.8793 374.00
94.1835 396.00
94.4878 355.00
94.7921 407.00
95.0963 530.00
95.4006 462.00
95.7048 465.00
96.0091 403.00
96.3134 394.00
96.6176 333.00
96.9219 335.00
97.2261 332.00
97.5304 298.00
97.8347 326.00
98.1389 317.00
98.4432 358.00
98.7474 361.00
99.0517 400.00
99.356 365.00
99.6602 376.00
99.9645 340.00
100.095 373.00