File: data/xrd_creation/results/Na_-2.xy
9.903433 2745.00
10.2077 2662.00
10.512 2583.00
10.8162 2510.00
11.1205 2482.00
11.4247 2385.00
11.729 2530.00
12.0333 2143.00
12.3375 2051.00
12.6418 2032.00
12.946 1966.00
13.2503 1955.00
13.5546 1892.00
13.8588 1813.00
14.1631 1737.00
14.4673 1800.00
14.7716 1706.00
15.0759 1675.00
15.3801 1629.00
15.6844 1596.00
15.9886 1551.00
16.2929 1586.00
16.5972 1615.00
16.9014 1515.00
17.2057 1560.00
17.5099 1755.00
17.8142 2910.00
18.1185 1411.00
18.4227 1508.00
18.727 1527.00
19.0312 1459.00
19.3355 1551.00
19.6398 1365.00
19.944 1491.00
20.2483 3595.00
20.5525 2151.00
20.8568 1367.00
21.1611 1558.00
21.4653 1640.00
21.7696 1749.00
22.0738 1308.00
22.3781 1464.00
22.6824 3746.00
22.9866 1587.00
23.2909 3568.00
23.5951 2291.00
23.8994 1189.00
24.2037 1084.00
24.5079 1098.00
24.8122 1027.00
25.1164 1043.00
25.4207 2981.00
25.725 2091.00
26.0292 1210.00
26.3335 1157.00
26.6378 1451.00
26.942 1815.00
27.2463 951.00
27.5505 1032.00
27.8548 891.00
28.1591 1337.00
28.4633 974.00
28.7676 973.00
29.0718 1565.00
29.3761 1398.00
29.6804 5732.00
29.9846 1239.00
30.2889 1095.00
30.5931 932.00
30.8974 1163.00
31.2017 1826.00
31.5059 1468.00
31.8102 3901.00
32.1144 1803.00
32.4187 3462.00
32.723 3095.00
33.0272 3283.00
33.3315 4296.00
33.6357 1776.00
33.94 1513.00
34.2443 2135.00
34.5485 1561.00
34.8528 1096.00
35.157 1048.00
35.4613 1034.00
35.7656 1202.00
36.0698 973.00
36.3741 1273.00
36.6783 740.00
36.9826 843.00
37.2869 828.00
37.5911 1214.00
37.8954 631.00
38.1996 697.00
38.5039 805.00
38.8082 1083.00
39.1124 842.00
39.4167 925.00
39.7209 1365.00
40.0252 714.00
40.3295 993.00
40.6337 631.00
40.938 934.00
41.2422 1196.00
41.5465 751.00
41.8508 1173.00
42.155 709.00
42.4593 839.00
42.7635 647.00
43.0678 714.00
43.3721 1255.00
43.6763 1294.00
43.9806 1473.00
44.2849 740.00
44.5891 602.00
44.8934 629.00
45.1976 855.00
45.5019 822.00
45.8062 945.00
46.1104 1104.00
46.4147 667.00
46.7189 676.00
47.0232 1255.00
47.3275 1867.00
47.6317 1973.00
47.936 1354.00
48.2402 761.00
48.5445 694.00
48.8488 975.00
49.153 588.00
49.4573 545.00
49.7615 687.00
50.0658 655.00
50.3701 523.00
50.6743 531.00
50.9786 676.00
51.2828 578.00
51.5871 575.00
51.8914 881.00
52.1956 795.00
52.4999 928.00
52.8041 1209.00
53.1084 745.00
53.4127 872.00
53.7169 731.00
54.0212 681.00
54.3254 611.00
54.6297 850.00
54.934 793.00
55.2382 571.00
55.5425 490.00
55.8467 485.00
56.151 659.00
56.4553 691.00
56.7595 758.00
57.0638 802.00
57.368 971.00
57.6723 1085.00
57.9766 692.00
58.2808 518.00
58.5851 522.00
58.8893 702.00
59.1936 707.00
59.4979 763.00
59.8021 877.00
60.1064 744.00
60.4106 550.00
60.7149 795.00
61.0192 731.00
61.3234 557.00
61.6277 532.00
61.932 472.00
62.2362 489.00
62.5405 506.00
62.8447 533.00
63.149 682.00
63.4533 614.00
63.7575 587.00
64.0618 507.00
64.366 594.00
64.6703 546.00
64.9745 662.00
65.2788 535.00
65.5831 666.00
65.8873 713.00
66.1916 620.00
66.4959 639.00
66.8001 574.00
67.1044 442.00
67.4086 455.00
67.7129 566.00
68.0172 538.00
68.3214 367.00
68.6257 348.00
68.9299 366.00
69.2342 621.00
69.5385 656.00
69.8427 511.00
70.147 461.00
70.4512 604.00
70.7555 534.00
71.0598 431.00
71.364 411.00
71.6683 452.00
71.9725 658.00
72.2768 498.00
72.5811 461.00
72.8853 564.00
73.1896 518.00
73.4938 431.00
73.7981 383.00
74.1024 398.00
74.4066 391.00
74.7109 405.00
75.0151 401.00
75.3194 445.00
75.6237 435.00
75.9279 421.00
76.2322 463.00
76.5364 473.00
76.8407 404.00
77.145 453.00
77.4492 415.00
77.7535 392.00
78.0577 480.00
78.362 427.00
78.6663 389.00
78.9705 353.00
79.2748 432.00
79.579 462.00
79.8833 435.00
80.1876 431.00
80.4918 502.00
80.7961 416.00
81.1003 460.00
81.4046 518.00
81.7089 493.00
82.0131 401.00
82.3174 379.00
82.6217 373.00
82.9259 319.00
83.2302 367.00
83.5344 422.00
83.8387 451.00
84.143 464.00
84.4472 434.00
84.7515 386.00
85.0557 427.00
85.36 390.00
85.6643 358.00
85.9685 388.00
86.2728 395.00
86.577 410.00
86.8813 397.00
87.1856 392.00
87.4898 396.00
87.7941 391.00
88.0983 360.00
88.4026 460.00
88.7069 460.00
89.0111 437.00
89.3154 393.00
89.6196 305.00
89.9239 368.00
90.2282 363.00
90.5324 365.00
90.8367 382.00
91.1409 350.00
91.4452 311.00
91.7495 361.00
92.0537 367.00
92.358 364.00
92.6622 370.00
92.9665 395.00
93.2708 381.00
93.575 413.00
93.8793 389.00
94.1835 358.00
94.4878 318.00
94.7921 430.00
95.0963 470.00
95.4006 460.00
95.7048 449.00
96.0091 433.00
96.3134 412.00
96.6176 361.00
96.9219 341.00
97.2261 337.00
97.5304 322.00
97.8347 326.00
98.1389 337.00
98.4432 354.00
98.7474 344.00
99.0517 362.00
99.356 405.00
99.6602 347.00
99.9645 348.00
100.095 383.00