File: data/xrd_creation/results/Na_-4.xy
9.903433 2797.00
10.2077 2622.00
10.512 2637.00
10.8162 2566.00
11.1205 2477.00
11.4247 2438.00
11.729 2712.00
12.0333 2227.00
12.3375 2174.00
12.6418 2110.00
12.946 2140.00
13.2503 1959.00
13.5546 1945.00
13.8588 1933.00
14.1631 1965.00
14.4673 1818.00
14.7716 1859.00
15.0759 1783.00
15.3801 1666.00
15.6844 1649.00
15.9886 1655.00
16.2929 1689.00
16.5972 1629.00
16.9014 1594.00
17.2057 1549.00
17.5099 1784.00
17.8142 3271.00
18.1185 1450.00
18.4227 1503.00
18.727 1648.00
19.0312 1543.00
19.3355 1659.00
19.6398 1494.00
19.944 1492.00
20.2483 3285.00
20.5525 1926.00
20.8568 1333.00
21.1611 1643.00
21.4653 1578.00
21.7696 1610.00
22.0738 1355.00
22.3781 1434.00
22.6824 4234.00
22.9866 1540.00
23.2909 3900.00
23.5951 2469.00
23.8994 1257.00
24.2037 1176.00
24.5079 1179.00
24.8122 1073.00
25.1164 1066.00
25.4207 3184.00
25.725 2112.00
26.0292 1178.00
26.3335 1166.00
26.6378 1494.00
26.942 1880.00
27.2463 950.00
27.5505 1028.00
27.8548 893.00
28.1591 1338.00
28.4633 1014.00
28.7676 1036.00
29.0718 1807.00
29.3761 1356.00
29.6804 6194.00
29.9846 1167.00
30.2889 1091.00
30.5931 872.00
30.8974 1183.00
31.2017 2103.00
31.5059 1600.00
31.8102 3795.00
32.1144 1842.00
32.4187 3417.00
32.723 3174.00
33.0272 2915.00
33.3315 3980.00
33.6357 1680.00
33.94 1433.00
34.2443 2129.00
34.5485 1720.00
34.8528 1202.00
35.157 1086.00
35.4613 1115.00
35.7656 1087.00
36.0698 927.00
36.3741 1375.00
36.6783 785.00
36.9826 927.00
37.2869 821.00
37.5911 1252.00
37.8954 641.00
38.1996 652.00
38.5039 810.00
38.8082 1034.00
39.1124 799.00
39.4167 868.00
39.7209 1404.00
40.0252 722.00
40.3295 1097.00
40.6337 672.00
40.938 978.00
41.2422 1188.00
41.5465 740.00
41.8508 1313.00
42.155 682.00
42.4593 864.00
42.7635 687.00
43.0678 722.00
43.3721 1258.00
43.6763 1295.00
43.9806 1631.00
44.2849 785.00
44.5891 631.00
44.8934 641.00
45.1976 627.00
45.5019 792.00
45.8062 916.00
46.1104 1231.00
46.4147 746.00
46.7189 688.00
47.0232 1168.00
47.3275 1919.00
47.6317 1863.00
47.936 1468.00
48.2402 692.00
48.5445 665.00
48.8488 1052.00
49.153 577.00
49.4573 574.00
49.7615 818.00
50.0658 640.00
50.3701 573.00
50.6743 477.00
50.9786 642.00
51.2828 555.00
51.5871 552.00
51.8914 855.00
52.1956 785.00
52.4999 902.00
52.8041 1360.00
53.1084 720.00
53.4127 939.00
53.7169 806.00
54.0212 682.00
54.3254 651.00
54.6297 868.00
54.934 752.00
55.2382 638.00
55.5425 448.00
55.8467 511.00
56.151 639.00
56.4553 701.00
56.7595 824.00
57.0638 886.00
57.368 1085.00
57.6723 996.00
57.9766 758.00
58.2808 558.00
58.5851 580.00
58.8893 744.00
59.1936 755.00
59.4979 710.00
59.8021 948.00
60.1064 709.00
60.4106 654.00
60.7149 759.00
61.0192 803.00
61.3234 607.00
61.6277 573.00
61.932 495.00
62.2362 479.00
62.5405 555.00
62.8447 538.00
63.149 640.00
63.4533 637.00
63.7575 636.00
64.0618 545.00
64.366 530.00
64.6703 515.00
64.9745 630.00
65.2788 536.00
65.5831 660.00
65.8873 733.00
66.1916 654.00
66.4959 602.00
66.8001 571.00
67.1044 483.00
67.4086 456.00
67.7129 634.00
68.0172 537.00
68.3214 396.00
68.6257 349.00
68.9299 366.00
69.2342 596.00
69.5385 627.00
69.8427 522.00
70.147 514.00
70.4512 564.00
70.7555 524.00
71.0598 473.00
71.364 369.00
71.6683 472.00
71.9725 688.00
72.2768 460.00
72.5811 426.00
72.8853 588.00
73.1896 508.00
73.4938 435.00
73.7981 406.00
74.1024 411.00
74.4066 347.00
74.7109 410.00
75.0151 367.00
75.3194 465.00
75.6237 424.00
75.9279 396.00
76.2322 469.00
76.5364 454.00
76.8407 397.00
77.145 415.00
77.4492 412.00
77.7535 418.00
78.0577 445.00
78.362 441.00
78.6663 398.00
78.9705 372.00
79.2748 404.00
79.579 437.00
79.8833 386.00
80.1876 421.00
80.4918 458.00
80.7961 391.00
81.1003 488.00
81.4046 527.00
81.7089 548.00
82.0131 418.00
82.3174 401.00
82.6217 365.00
82.9259 308.00
83.2302 345.00
83.5344 442.00
83.8387 415.00
84.143 452.00
84.4472 415.00
84.7515 405.00
85.0557 419.00
85.36 356.00
85.6643 392.00
85.9685 377.00
86.2728 420.00
86.577 430.00
86.8813 439.00
87.1856 391.00
87.4898 436.00
87.7941 386.00
88.0983 400.00
88.4026 454.00
88.7069 459.00
89.0111 405.00
89.3154 380.00
89.6196 322.00
89.9239 340.00
90.2282 378.00
90.5324 433.00
90.8367 383.00
91.1409 321.00
91.4452 344.00
91.7495 369.00
92.0537 417.00
92.358 322.00
92.6622 361.00
92.9665 389.00
93.2708 375.00
93.575 405.00
93.8793 403.00
94.1835 350.00
94.4878 375.00
94.7921 444.00
95.0963 434.00
95.4006 477.00
95.7048 453.00
96.0091 415.00
96.3134 420.00
96.6176 364.00
96.9219 349.00
97.2261 353.00
97.5304 325.00
97.8347 380.00
98.1389 349.00
98.4432 346.00
98.7474 362.00
99.0517 379.00
99.356 373.00
99.6602 391.00
99.9645 431.00
100.095 390.00