File: data/xrd_creation/results/Na_-11.xy
9.903433 2444.00
10.2077 2442.00
10.512 2441.00
10.8162 2221.00
11.1205 2155.00
11.4247 2127.00
11.729 1944.00
12.0333 1918.00
12.3375 1718.00
12.6418 1706.00
12.946 1648.00
13.2503 1594.00
13.5546 1591.00
13.8588 1475.00
14.1631 1457.00
14.4673 1437.00
14.7716 1338.00
15.0759 1378.00
15.3801 1353.00
15.6844 1379.00
15.9886 1293.00
16.2929 1250.00
16.5972 1186.00
16.9014 1169.00
17.2057 1199.00
17.5099 1171.00
17.8142 1113.00
18.1185 1025.00
18.4227 1061.00
18.727 1010.00
19.0312 974.00
19.3355 979.00
19.6398 931.00
19.944 948.00
20.2483 879.00
20.5525 923.00
20.8568 860.00
21.1611 877.00
21.4653 848.00
21.7696 787.00
22.0738 776.00
22.3781 777.00
22.6824 806.00
22.9866 727.00
23.2909 704.00
23.5951 768.00
23.8994 734.00
24.2037 685.00
24.5079 692.00
24.8122 686.00
25.1164 729.00
25.4207 672.00
25.725 676.00
26.0292 637.00
26.3335 713.00
26.6378 653.00
26.942 584.00
27.2463 658.00
27.5505 636.00
27.8548 579.00
28.1591 606.00
28.4633 562.00
28.7676 554.00
29.0718 599.00
29.3761 540.00
29.6804 537.00
29.9846 519.00
30.2889 540.00
30.5931 545.00
30.8974 559.00
31.2017 512.00
31.5059 474.00
31.8102 478.00
32.1144 492.00
32.4187 481.00
32.723 436.00
33.0272 469.00
33.3315 475.00
33.6357 495.00
33.94 454.00
34.2443 454.00
34.5485 434.00
34.8528 445.00
35.157 395.00
35.4613 398.00
35.7656 366.00
36.0698 416.00
36.3741 374.00
36.6783 380.00
36.9826 412.00
37.2869 392.00
37.5911 381.00
37.8954 395.00
38.1996 388.00
38.5039 338.00
38.8082 353.00
39.1124 355.00
39.4167 359.00
39.7209 286.00
40.0252 320.00
40.3295 347.00
40.6337 340.00
40.938 300.00
41.2422 291.00
41.5465 312.00
41.8508 309.00
42.155 314.00
42.4593 308.00
42.7635 335.00
43.0678 346.00
43.3721 328.00
43.6763 313.00
43.9806 311.00
44.2849 300.00
44.5891 312.00
44.8934 293.00
45.1976 282.00
45.5019 288.00
45.8062 259.00
46.1104 265.00
46.4147 245.00
46.7189 264.00
47.0232 291.00
47.3275 302.00
47.6317 295.00
47.936 292.00
48.2402 284.00
48.5445 258.00
48.8488 267.00
49.153 264.00
49.4573 278.00
49.7615 256.00
50.0658 287.00
50.3701 271.00
50.6743 262.00
50.9786 272.00
51.2828 247.00
51.5871 324.00
51.8914 236.00
52.1956 236.00
52.4999 236.00
52.8041 259.00
53.1084 227.00
53.4127 242.00
53.7169 248.00
54.0212 244.00
54.3254 241.00
54.6297 244.00
54.934 240.00
55.2382 190.00
55.5425 209.00
55.8467 214.00
56.151 206.00
56.4553 198.00
56.7595 211.00
57.0638 190.00
57.368 209.00
57.6723 219.00
57.9766 221.00
58.2808 184.00
58.5851 198.00
58.8893 195.00
59.1936 214.00
59.4979 219.00
59.8021 179.00
60.1064 166.00
60.4106 189.00
60.7149 201.00
61.0192 207.00
61.3234 226.00
61.6277 198.00
61.932 181.00
62.2362 181.00
62.5405 184.00
62.8447 206.00
63.149 183.00
63.4533 175.00
63.7575 188.00
64.0618 183.00
64.366 171.00
64.6703 192.00
64.9745 180.00
65.2788 200.00
65.5831 185.00
65.8873 209.00
66.1916 173.00
66.4959 198.00
66.8001 152.00
67.1044 207.00
67.4086 202.00
67.7129 163.00
68.0172 185.00
68.3214 187.00
68.6257 172.00
68.9299 180.00
69.2342 179.00
69.5385 152.00
69.8427 167.00
70.147 196.00
70.4512 185.00
70.7555 186.00
71.0598 175.00
71.364 187.00
71.6683 173.00
71.9725 159.00
72.2768 145.00
72.5811 180.00
72.8853 230.00
73.1896 183.00
73.4938 186.00
73.7981 175.00
74.1024 187.00
74.4066 179.00
74.7109 208.00
75.0151 201.00
75.3194 186.00
75.6237 200.00
75.9279 187.00
76.2322 203.00
76.5364 202.00
76.8407 195.00
77.145 225.00
77.4492 203.00
77.7535 181.00
78.0577 190.00
78.362 192.00
78.6663 209.00
78.9705 201.00
79.2748 212.00
79.579 187.00
79.8833 202.00
80.1876 210.00
80.4918 212.00
80.7961 202.00
81.1003 242.00
81.4046 223.00
81.7089 206.00
82.0131 226.00
82.3174 196.00
82.6217 240.00
82.9259 229.00
83.2302 220.00
83.5344 246.00
83.8387 205.00
84.143 208.00
84.4472 216.00
84.7515 203.00
85.0557 218.00
85.36 201.00
85.6643 213.00
85.9685 193.00
86.2728 185.00
86.577 164.00
86.8813 169.00
87.1856 202.00
87.4898 179.00
87.7941 236.00
88.0983 224.00
88.4026 196.00
88.7069 186.00
89.0111 166.00
89.3154 196.00
89.6196 189.00
89.9239 182.00
90.2282 195.00
90.5324 199.00
90.8367 188.00
91.1409 181.00
91.4452 172.00
91.7495 199.00
92.0537 181.00
92.358 166.00
92.6622 197.00
92.9665 174.00
93.2708 173.00
93.575 162.00
93.8793 164.00
94.1835 191.00
94.4878 185.00
94.7921 169.00
95.0963 168.00
95.4006 157.00
95.7048 178.00
96.0091 198.00
96.3134 158.00
96.6176 172.00
96.9219 172.00
97.2261 178.00
97.5304 165.00
97.8347 161.00
98.1389 192.00
98.4432 173.00
98.7474 207.00
99.0517 186.00
99.356 158.00
99.6602 171.00
99.9645 179.00
100.095 191.00