File: data/xrd_creation/results/Na_-12.xy
9.903433 2699.00
10.2077 2438.00
10.512 2378.00
10.8162 2373.00
11.1205 2176.00
11.4247 2052.00
11.729 1955.00
12.0333 1863.00
12.3375 1795.00
12.6418 1711.00
12.946 1648.00
13.2503 1624.00
13.5546 1520.00
13.8588 1551.00
14.1631 1444.00
14.4673 1467.00
14.7716 1391.00
15.0759 1345.00
15.3801 1312.00
15.6844 1267.00
15.9886 1237.00
16.2929 1263.00
16.5972 1206.00
16.9014 1223.00
17.2057 1177.00
17.5099 1141.00
17.8142 1064.00
18.1185 1038.00
18.4227 1062.00
18.727 1031.00
19.0312 1030.00
19.3355 991.00
19.6398 932.00
19.944 1026.00
20.2483 894.00
20.5525 877.00
20.8568 866.00
21.1611 860.00
21.4653 840.00
21.7696 842.00
22.0738 794.00
22.3781 804.00
22.6824 840.00
22.9866 758.00
23.2909 759.00
23.5951 719.00
23.8994 719.00
24.2037 712.00
24.5079 688.00
24.8122 699.00
25.1164 676.00
25.4207 657.00
25.725 649.00
26.0292 605.00
26.3335 675.00
26.6378 604.00
26.942 607.00
27.2463 625.00
27.5505 563.00
27.8548 592.00
28.1591 583.00
28.4633 619.00
28.7676 560.00
29.0718 579.00
29.3761 565.00
29.6804 553.00
29.9846 524.00
30.2889 555.00
30.5931 478.00
30.8974 471.00
31.2017 512.00
31.5059 525.00
31.8102 476.00
32.1144 460.00
32.4187 473.00
32.723 470.00
33.0272 439.00
33.3315 471.00
33.6357 448.00
33.94 443.00
34.2443 436.00
34.5485 446.00
34.8528 420.00
35.157 384.00
35.4613 384.00
35.7656 410.00
36.0698 378.00
36.3741 369.00
36.6783 362.00
36.9826 385.00
37.2869 349.00
37.5911 360.00
37.8954 342.00
38.1996 362.00
38.5039 339.00
38.8082 354.00
39.1124 363.00
39.4167 340.00
39.7209 337.00
40.0252 321.00
40.3295 302.00
40.6337 331.00
40.938 301.00
41.2422 293.00
41.5465 321.00
41.8508 336.00
42.155 311.00
42.4593 308.00
42.7635 312.00
43.0678 317.00
43.3721 330.00
43.6763 294.00
43.9806 249.00
44.2849 283.00
44.5891 234.00
44.8934 290.00
45.1976 275.00
45.5019 232.00
45.8062 266.00
46.1104 268.00
46.4147 265.00
46.7189 269.00
47.0232 294.00
47.3275 256.00
47.6317 243.00
47.936 299.00
48.2402 244.00
48.5445 262.00
48.8488 259.00
49.153 257.00
49.4573 261.00
49.7615 259.00
50.0658 242.00
50.3701 267.00
50.6743 233.00
50.9786 249.00
51.2828 272.00
51.5871 241.00
51.8914 248.00
52.1956 216.00
52.4999 218.00
52.8041 245.00
53.1084 262.00
53.4127 218.00
53.7169 257.00
54.0212 240.00
54.3254 225.00
54.6297 250.00
54.934 215.00
55.2382 214.00
55.5425 194.00
55.8467 226.00
56.151 192.00
56.4553 181.00
56.7595 211.00
57.0638 222.00
57.368 168.00
57.6723 197.00
57.9766 203.00
58.2808 201.00
58.5851 197.00
58.8893 192.00
59.1936 192.00
59.4979 216.00
59.8021 204.00
60.1064 177.00
60.4106 202.00
60.7149 211.00
61.0192 191.00
61.3234 182.00
61.6277 184.00
61.932 187.00
62.2362 171.00
62.5405 201.00
62.8447 165.00
63.149 187.00
63.4533 203.00
63.7575 164.00
64.0618 189.00
64.366 168.00
64.6703 189.00
64.9745 204.00
65.2788 182.00
65.5831 161.00
65.8873 173.00
66.1916 164.00
66.4959 197.00
66.8001 165.00
67.1044 177.00
67.4086 169.00
67.7129 179.00
68.0172 161.00
68.3214 157.00
68.6257 180.00
68.9299 209.00
69.2342 199.00
69.5385 172.00
69.8427 163.00
70.147 168.00
70.4512 177.00
70.7555 178.00
71.0598 164.00
71.364 201.00
71.6683 165.00
71.9725 179.00
72.2768 187.00
72.5811 172.00
72.8853 180.00
73.1896 169.00
73.4938 176.00
73.7981 193.00
74.1024 204.00
74.4066 212.00
74.7109 159.00
75.0151 190.00
75.3194 197.00
75.6237 197.00
75.9279 205.00
76.2322 207.00
76.5364 195.00
76.8407 230.00
77.145 184.00
77.4492 198.00
77.7535 197.00
78.0577 196.00
78.362 230.00
78.6663 205.00
78.9705 224.00
79.2748 200.00
79.579 196.00
79.8833 188.00
80.1876 229.00
80.4918 206.00
80.7961 218.00
81.1003 238.00
81.4046 256.00
81.7089 263.00
82.0131 216.00
82.3174 226.00
82.6217 207.00
82.9259 218.00
83.2302 192.00
83.5344 221.00
83.8387 187.00
84.143 218.00
84.4472 200.00
84.7515 206.00
85.0557 161.00
85.36 236.00
85.6643 206.00
85.9685 178.00
86.2728 203.00
86.577 182.00
86.8813 201.00
87.1856 187.00
87.4898 176.00
87.7941 204.00
88.0983 193.00
88.4026 172.00
88.7069 155.00
89.0111 194.00
89.3154 176.00
89.6196 189.00
89.9239 193.00
90.2282 185.00
90.5324 184.00
90.8367 171.00
91.1409 160.00
91.4452 182.00
91.7495 147.00
92.0537 170.00
92.358 157.00
92.6622 179.00
92.9665 178.00
93.2708 181.00
93.575 216.00
93.8793 176.00
94.1835 157.00
94.4878 182.00
94.7921 176.00
95.0963 170.00
95.4006 140.00
95.7048 177.00
96.0091 152.00
96.3134 165.00
96.6176 169.00
96.9219 170.00
97.2261 182.00
97.5304 169.00
97.8347 165.00
98.1389 173.00
98.4432 190.00
98.7474 197.00
99.0517 190.00
99.356 178.00
99.6602 191.00
99.9645 166.00
100.095 182.00