File: data/xrd_creation/results/Na_16.xy
9.903433 2660.00
10.2077 2538.00
10.512 2419.00
10.8162 2272.00
11.1205 2341.00
11.4247 2238.00
11.729 2181.00
12.0333 2106.00
12.3375 1961.00
12.6418 1985.00
12.946 1921.00
13.2503 1872.00
13.5546 1730.00
13.8588 1830.00
14.1631 1693.00
14.4673 1761.00
14.7716 1645.00
15.0759 1625.00
15.3801 1639.00
15.6844 1508.00
15.9886 1484.00
16.2929 1539.00
16.5972 1497.00
16.9014 1527.00
17.2057 1448.00
17.5099 1403.00
17.8142 1419.00
18.1185 1390.00
18.4227 1345.00
18.727 1362.00
19.0312 1376.00
19.3355 1271.00
19.6398 1260.00
19.944 1233.00
20.2483 1249.00
20.5525 1179.00
20.8568 1261.00
21.1611 1281.00
21.4653 1710.00
21.7696 2372.00
22.0738 1192.00
22.3781 1105.00
22.6824 1149.00
22.9866 1089.00
23.2909 1037.00
23.5951 1030.00
23.8994 1006.00
24.2037 965.00
24.5079 974.00
24.8122 990.00
25.1164 956.00
25.4207 925.00
25.725 942.00
26.0292 928.00
26.3335 883.00
26.6378 942.00
26.942 858.00
27.2463 851.00
27.5505 951.00
27.8548 913.00
28.1591 856.00
28.4633 808.00
28.7676 850.00
29.0718 831.00
29.3761 786.00
29.6804 858.00
29.9846 952.00
30.2889 1356.00
30.5931 6233.00
30.8974 13333.00
31.2017 1323.00
31.5059 1018.00
31.8102 1648.00
32.1144 1201.00
32.4187 797.00
32.723 735.00
33.0272 725.00
33.3315 845.00
33.6357 722.00
33.94 664.00
34.2443 625.00
34.5485 661.00
34.8528 686.00
35.157 746.00
35.4613 2119.00
35.7656 4757.00
36.0698 834.00
36.3741 655.00
36.6783 627.00
36.9826 586.00
37.2869 594.00
37.5911 678.00
37.8954 1275.00
38.1996 637.00
38.5039 601.00
38.8082 588.00
39.1124 548.00
39.4167 599.00
39.7209 590.00
40.0252 737.00
40.3295 544.00
40.6337 527.00
40.938 522.00
41.2422 506.00
41.5465 563.00
41.8508 740.00
42.155 1166.00
42.4593 523.00
42.7635 498.00
43.0678 478.00
43.3721 474.00
43.6763 486.00
43.9806 645.00
44.2849 522.00
44.5891 484.00
44.8934 513.00
45.1976 505.00
45.5019 971.00
45.8062 1902.00
46.1104 1011.00
46.4147 498.00
46.7189 511.00
47.0232 515.00
47.3275 437.00
47.6317 502.00
47.936 461.00
48.2402 481.00
48.5445 435.00
48.8488 471.00
49.153 516.00
49.4573 764.00
49.7615 570.00
50.0658 435.00
50.3701 518.00
50.6743 618.00
50.9786 1801.00
51.2828 6907.00
51.5871 949.00
51.8914 555.00
52.1956 479.00
52.4999 448.00
52.8041 611.00
53.1084 610.00
53.4127 466.00
53.7169 408.00
54.0212 452.00
54.3254 458.00
54.6297 523.00
54.934 402.00
55.2382 412.00
55.5425 434.00
55.8467 493.00
56.151 1143.00
56.4553 643.00
56.7595 661.00
57.0638 475.00
57.368 435.00
57.6723 511.00
57.9766 500.00
58.2808 364.00
58.5851 387.00
58.8893 442.00
59.1936 771.00
59.4979 858.00
59.8021 449.00
60.1064 489.00
60.4106 614.00
60.7149 2320.00
61.0192 2877.00
61.3234 609.00
61.6277 451.00
61.932 466.00
62.2362 825.00
62.5405 913.00
62.8447 458.00
63.149 428.00
63.4533 455.00
63.7575 814.00
64.0618 832.00
64.366 417.00
64.6703 399.00
64.9745 424.00
65.2788 579.00
65.5831 488.00
65.8873 402.00
66.1916 456.00
66.4959 490.00
66.8001 552.00
67.1044 393.00
67.4086 395.00
67.7129 375.00
68.0172 504.00
68.3214 737.00
68.6257 402.00
68.9299 344.00
69.2342 406.00
69.5385 488.00
69.8427 509.00
70.147 363.00
70.4512 344.00
70.7555 378.00
71.0598 327.00
71.364 337.00
71.6683 373.00
71.9725 331.00
72.2768 361.00
72.5811 344.00
72.8853 339.00
73.1896 358.00
73.4938 405.00
73.7981 611.00
74.1024 558.00
74.4066 378.00
74.7109 414.00
75.0151 568.00
75.3194 887.00
75.6237 610.00
75.9279 372.00
76.2322 403.00
76.5364 777.00
76.8407 690.00
77.145 347.00
77.4492 350.00
77.7535 498.00
78.0577 565.00
78.362 347.00
78.6663 298.00
78.9705 355.00
79.2748 633.00
79.579 520.00
79.8833 338.00
80.1876 321.00
80.4918 441.00
80.7961 437.00
81.1003 364.00
81.4046 355.00
81.7089 460.00
82.0131 807.00
82.3174 549.00
82.6217 395.00
82.9259 456.00
83.2302 980.00
83.5344 892.00
83.8387 456.00
84.143 487.00
84.4472 439.00
84.7515 327.00
85.0557 368.00
85.36 402.00
85.6643 411.00
85.9685 1056.00
86.2728 786.00
86.577 380.00
86.8813 359.00
87.1856 429.00
87.4898 368.00
87.7941 336.00
88.0983 347.00
88.4026 370.00
88.7069 499.00
89.0111 410.00
89.3154 346.00
89.6196 371.00
89.9239 658.00
90.2282 528.00
90.5324 295.00
90.8367 316.00
91.1409 345.00
91.4452 320.00
91.7495 327.00
92.0537 351.00
92.358 366.00
92.6622 715.00
92.9665 529.00
93.2708 352.00
93.575 330.00
93.8793 339.00
94.1835 309.00
94.4878 353.00
94.7921 309.00
95.0963 459.00
95.4006 546.00
95.7048 439.00
96.0091 400.00
96.3134 429.00
96.6176 997.00
96.9219 692.00
97.2261 385.00
97.5304 398.00
97.8347 526.00
98.1389 512.00
98.4432 421.00
98.7474 350.00
99.0517 439.00
99.356 544.00
99.6602 467.00
99.9645 354.00
100.095 348.00