File: data/xrd_creation/results/Na_192.xy
9.903433 2850.00
10.2077 2803.00
10.512 2775.00
10.8162 2662.00
11.1205 2634.00
11.4247 3492.00
11.729 10823.00
12.0333 2803.00
12.3375 2402.00
12.6418 2372.00
12.946 2245.00
13.2503 2242.00
13.5546 2168.00
13.8588 2089.00
14.1631 2130.00
14.4673 2069.00
14.7716 2163.00
15.0759 2215.00
15.3801 1920.00
15.6844 1978.00
15.9886 1987.00
16.2929 2220.00
16.5972 6620.00
16.9014 1966.00
17.2057 1963.00
17.5099 1872.00
17.8142 1970.00
18.1185 3974.00
18.4227 1918.00
18.727 1776.00
19.0312 1703.00
19.3355 1635.00
19.6398 1802.00
19.944 1748.00
20.2483 1568.00
20.5525 1658.00
20.8568 1693.00
21.1611 1754.00
21.4653 1619.00
21.7696 1549.00
22.0738 1482.00
22.3781 1471.00
22.6824 1494.00
22.9866 1585.00
23.2909 1889.00
23.5951 1811.00
23.8994 1527.00
24.2037 1777.00
24.5079 3037.00
24.8122 2935.00
25.1164 1696.00
25.4207 1545.00
25.725 1622.00
26.0292 4529.00
26.3335 6504.00
26.6378 1730.00
26.942 3817.00
27.2463 1694.00
27.5505 2135.00
27.8548 7804.00
28.1591 2212.00
28.4633 1825.00
28.7676 1408.00
29.0718 1372.00
29.3761 1312.00
29.6804 1319.00
29.9846 1569.00
30.2889 2022.00
30.5931 1398.00
30.8974 1385.00
31.2017 1458.00
31.5059 2797.00
31.8102 3066.00
32.1144 2081.00
32.4187 1348.00
32.723 1386.00
33.0272 2490.00
33.3315 4687.00
33.6357 1400.00
33.94 1848.00
34.2443 4703.00
34.5485 8574.00
34.8528 4111.00
35.157 1406.00
35.4613 1194.00
35.7656 1196.00
36.0698 1209.00
36.3741 1338.00
36.6783 1114.00
36.9826 1197.00
37.2869 1269.00
37.5911 1124.00
37.8954 1329.00
38.1996 1445.00
38.5039 1165.00
38.8082 1059.00
39.1124 1203.00
39.4167 1139.00
39.7209 1176.00
40.0252 1109.00
40.3295 1193.00
40.6337 978.00
40.938 1027.00
41.2422 1265.00
41.5465 1227.00
41.8508 1679.00
42.155 1798.00
42.4593 1545.00
42.7635 1572.00
43.0678 1113.00
43.3721 1105.00
43.6763 1353.00
43.9806 1217.00
44.2849 954.00
44.5891 1012.00
44.8934 1026.00
45.1976 1222.00
45.5019 1272.00
45.8062 1062.00
46.1104 1099.00
46.4147 1050.00
46.7189 1056.00
47.0232 1263.00
47.3275 1706.00
47.6317 1817.00
47.936 2227.00
48.2402 1197.00
48.5445 1148.00
48.8488 1145.00
49.153 1198.00
49.4573 1526.00
49.7615 1801.00
50.0658 1836.00
50.3701 1746.00
50.6743 1508.00
50.9786 1064.00
51.2828 1525.00
51.5871 1898.00
51.8914 1271.00
52.1956 1863.00
52.4999 1152.00
52.8041 1168.00
53.1084 1178.00
53.4127 1082.00
53.7169 1100.00
54.0212 1175.00
54.3254 1148.00
54.6297 1053.00
54.934 1025.00
55.2382 1084.00
55.5425 1172.00
55.8467 1241.00
56.151 1076.00
56.4553 1230.00
56.7595 1190.00
57.0638 1445.00
57.368 1276.00
57.6723 1104.00
57.9766 1189.00
58.2808 1671.00
58.5851 1736.00
58.8893 1422.00
59.1936 1091.00
59.4979 1716.00
59.8021 2726.00
60.1064 1479.00
60.4106 1866.00
60.7149 1158.00
61.0192 1161.00
61.3234 1001.00
61.6277 926.00
61.932 1147.00
62.2362 1650.00
62.5405 1094.00
62.8447 1294.00
63.149 949.00
63.4533 962.00
63.7575 914.00
64.0618 979.00
64.366 1109.00
64.6703 1126.00
64.9745 1178.00
65.2788 940.00
65.5831 947.00
65.8873 1124.00
66.1916 1286.00
66.4959 1129.00
66.8001 948.00
67.1044 1016.00
67.4086 891.00
67.7129 969.00
68.0172 919.00
68.3214 936.00
68.6257 1015.00
68.9299 862.00
69.2342 1025.00
69.5385 900.00
69.8427 822.00
70.147 794.00
70.4512 792.00
70.7555 727.00
71.0598 827.00
71.364 841.00
71.6683 873.00
71.9725 973.00
72.2768 1188.00
72.5811 825.00
72.8853 797.00
73.1896 1048.00
73.4938 852.00
73.7981 788.00
74.1024 781.00
74.4066 876.00
74.7109 781.00
75.0151 782.00
75.3194 768.00
75.6237 820.00
75.9279 864.00
76.2322 847.00
76.5364 805.00
76.8407 885.00
77.145 834.00
77.4492 933.00
77.7535 737.00
78.0577 820.00
78.362 795.00
78.6663 802.00
78.9705 1014.00
79.2748 1049.00
79.579 953.00
79.8833 829.00
80.1876 920.00
80.4918 901.00
80.7961 811.00
81.1003 875.00
81.4046 822.00
81.7089 869.00
82.0131 744.00
82.3174 769.00
82.6217 812.00
82.9259 782.00
83.2302 763.00
83.5344 727.00
83.8387 830.00
84.143 832.00
84.4472 769.00
84.7515 787.00
85.0557 964.00
85.36 986.00
85.6643 1011.00
85.9685 858.00
86.2728 844.00
86.577 791.00
86.8813 753.00
87.1856 830.00
87.4898 814.00
87.7941 720.00
88.0983 705.00
88.4026 747.00
88.7069 836.00
89.0111 797.00
89.3154 745.00
89.6196 819.00
89.9239 933.00
90.2282 833.00
90.5324 858.00
90.8367 894.00
91.1409 982.00
91.4452 828.00
91.7495 830.00
92.0537 813.00
92.358 795.00
92.6622 787.00
92.9665 748.00
93.2708 724.00
93.575 713.00
93.8793 713.00
94.1835 676.00
94.4878 701.00
94.7921 749.00
95.0963 688.00
95.4006 727.00
95.7048 759.00
96.0091 794.00
96.3134 798.00
96.6176 821.00
96.9219 805.00
97.2261 843.00
97.5304 780.00
97.8347 869.00
98.1389 832.00
98.4432 736.00
98.7474 732.00
99.0517 759.00
99.356 769.00
99.6602 805.00
99.9645 887.00
100.095 852.00