File: data/xrd_creation/results/Na_107.xy
9.903433 2745.00
10.2077 2431.00
10.512 2412.00
10.8162 2281.00
11.1205 2155.00
11.4247 2073.00
11.729 1924.00
12.0333 1872.00
12.3375 1757.00
12.6418 1739.00
12.946 1742.00
13.2503 1528.00
13.5546 1605.00
13.8588 1509.00
14.1631 1416.00
14.4673 1361.00
14.7716 1405.00
15.0759 1314.00
15.3801 1343.00
15.6844 1316.00
15.9886 1275.00
16.2929 1271.00
16.5972 1244.00
16.9014 1208.00
17.2057 1121.00
17.5099 1047.00
17.8142 1097.00
18.1185 1069.00
18.4227 1047.00
18.727 1000.00
19.0312 978.00
19.3355 1016.00
19.6398 906.00
19.944 914.00
20.2483 890.00
20.5525 885.00
20.8568 899.00
21.1611 823.00
21.4653 835.00
21.7696 811.00
22.0738 787.00
22.3781 795.00
22.6824 793.00
22.9866 772.00
23.2909 777.00
23.5951 724.00
23.8994 731.00
24.2037 716.00
24.5079 708.00
24.8122 688.00
25.1164 644.00
25.4207 675.00
25.725 651.00
26.0292 624.00
26.3335 600.00
26.6378 607.00
26.942 600.00
27.2463 608.00
27.5505 617.00
27.8548 647.00
28.1591 581.00
28.4633 621.00
28.7676 626.00
29.0718 547.00
29.3761 512.00
29.6804 559.00
29.9846 504.00
30.2889 535.00
30.5931 523.00
30.8974 485.00
31.2017 492.00
31.5059 526.00
31.8102 498.00
32.1144 443.00
32.4187 439.00
32.723 504.00
33.0272 466.00
33.3315 467.00
33.6357 456.00
33.94 415.00
34.2443 500.00
34.5485 413.00
34.8528 412.00
35.157 400.00
35.4613 393.00
35.7656 369.00
36.0698 393.00
36.3741 424.00
36.6783 421.00
36.9826 397.00
37.2869 405.00
37.5911 372.00
37.8954 424.00
38.1996 333.00
38.5039 380.00
38.8082 357.00
39.1124 360.00
39.4167 337.00
39.7209 348.00
40.0252 355.00
40.3295 337.00
40.6337 339.00
40.938 331.00
41.2422 320.00
41.5465 310.00
41.8508 323.00
42.155 297.00
42.4593 311.00
42.7635 317.00
43.0678 309.00
43.3721 334.00
43.6763 282.00
43.9806 261.00
44.2849 316.00
44.5891 329.00
44.8934 287.00
45.1976 276.00
45.5019 276.00
45.8062 297.00
46.1104 266.00
46.4147 238.00
46.7189 275.00
47.0232 275.00
47.3275 289.00
47.6317 283.00
47.936 276.00
48.2402 284.00
48.5445 229.00
48.8488 264.00
49.153 263.00
49.4573 271.00
49.7615 271.00
50.0658 270.00
50.3701 227.00
50.6743 237.00
50.9786 233.00
51.2828 237.00
51.5871 237.00
51.8914 235.00
52.1956 246.00
52.4999 258.00
52.8041 222.00
53.1084 265.00
53.4127 231.00
53.7169 223.00
54.0212 261.00
54.3254 202.00
54.6297 220.00
54.934 226.00
55.2382 235.00
55.5425 219.00
55.8467 203.00
56.151 230.00
56.4553 219.00
56.7595 187.00
57.0638 225.00
57.368 204.00
57.6723 217.00
57.9766 201.00
58.2808 202.00
58.5851 198.00
58.8893 199.00
59.1936 200.00
59.4979 193.00
59.8021 187.00
60.1064 182.00
60.4106 207.00
60.7149 200.00
61.0192 196.00
61.3234 184.00
61.6277 191.00
61.932 176.00
62.2362 168.00
62.5405 177.00
62.8447 208.00
63.149 193.00
63.4533 197.00
63.7575 190.00
64.0618 208.00
64.366 197.00
64.6703 174.00
64.9745 184.00
65.2788 184.00
65.5831 212.00
65.8873 150.00
66.1916 185.00
66.4959 162.00
66.8001 194.00
67.1044 171.00
67.4086 179.00
67.7129 173.00
68.0172 210.00
68.3214 195.00
68.6257 190.00
68.9299 188.00
69.2342 178.00
69.5385 180.00
69.8427 199.00
70.147 205.00
70.4512 175.00
70.7555 206.00
71.0598 186.00
71.364 152.00
71.6683 172.00
71.9725 194.00
72.2768 205.00
72.5811 183.00
72.8853 205.00
73.1896 187.00
73.4938 175.00
73.7981 211.00
74.1024 192.00
74.4066 187.00
74.7109 195.00
75.0151 187.00
75.3194 237.00
75.6237 167.00
75.9279 206.00
76.2322 184.00
76.5364 205.00
76.8407 182.00
77.145 211.00
77.4492 208.00
77.7535 212.00
78.0577 207.00
78.362 196.00
78.6663 207.00
78.9705 239.00
79.2748 197.00
79.579 215.00
79.8833 229.00
80.1876 232.00
80.4918 205.00
80.7961 190.00
81.1003 211.00
81.4046 235.00
81.7089 206.00
82.0131 229.00
82.3174 246.00
82.6217 215.00
82.9259 209.00
83.2302 218.00
83.5344 200.00
83.8387 209.00
84.143 212.00
84.4472 207.00
84.7515 205.00
85.0557 231.00
85.36 208.00
85.6643 238.00
85.9685 209.00
86.2728 158.00
86.577 199.00
86.8813 217.00
87.1856 210.00
87.4898 180.00
87.7941 181.00
88.0983 180.00
88.4026 192.00
88.7069 190.00
89.0111 178.00
89.3154 179.00
89.6196 200.00
89.9239 207.00
90.2282 186.00
90.5324 178.00
90.8367 168.00
91.1409 173.00
91.4452 174.00
91.7495 169.00
92.0537 174.00
92.358 191.00
92.6622 176.00
92.9665 178.00
93.2708 149.00
93.575 177.00
93.8793 170.00
94.1835 176.00
94.4878 164.00
94.7921 165.00
95.0963 182.00
95.4006 178.00
95.7048 158.00
96.0091 178.00
96.3134 182.00
96.6176 187.00
96.9219 167.00
97.2261 187.00
97.5304 141.00
97.8347 152.00
98.1389 181.00
98.4432 192.00
98.7474 165.00
99.0517 153.00
99.356 193.00
99.6602 171.00
99.9645 168.00
100.095 183.00