File: data/xrd_creation/results/Na_121.xy
9.903433 2658.00
10.2077 2554.00
10.512 2521.00
10.8162 2353.00
11.1205 2313.00
11.4247 2225.00
11.729 2121.00
12.0333 2037.00
12.3375 1961.00
12.6418 1925.00
12.946 1957.00
13.2503 1904.00
13.5546 1754.00
13.8588 1782.00
14.1631 1758.00
14.4673 1611.00
14.7716 1659.00
15.0759 1707.00
15.3801 1631.00
15.6844 1573.00
15.9886 1531.00
16.2929 1543.00
16.5972 1544.00
16.9014 1560.00
17.2057 1567.00
17.5099 1541.00
17.8142 1465.00
18.1185 1398.00
18.4227 1416.00
18.727 1416.00
19.0312 1450.00
19.3355 1641.00
19.6398 4381.00
19.944 2137.00
20.2483 1407.00
20.5525 1301.00
20.8568 1324.00
21.1611 1212.00
21.4653 1318.00
21.7696 1276.00
22.0738 1439.00
22.3781 1920.00
22.6824 8366.00
22.9866 2516.00
23.2909 1348.00
23.5951 1317.00
23.8994 1131.00
24.2037 1118.00
24.5079 1094.00
24.8122 1097.00
25.1164 1373.00
25.4207 2876.00
25.725 1296.00
26.0292 1015.00
26.3335 1023.00
26.6378 1048.00
26.942 2465.00
27.2463 1145.00
27.5505 1257.00
27.8548 2667.00
28.1591 1268.00
28.4633 1035.00
28.7676 1067.00
29.0718 968.00
29.3761 903.00
29.6804 883.00
29.9846 906.00
30.2889 889.00
30.5931 867.00
30.8974 857.00
31.2017 841.00
31.5059 948.00
31.8102 1122.00
32.1144 3157.00
32.4187 1761.00
32.723 891.00
33.0272 794.00
33.3315 751.00
33.6357 791.00
33.94 893.00
34.2443 2435.00
34.5485 974.00
34.8528 836.00
35.157 756.00
35.4613 700.00
35.7656 711.00
36.0698 750.00
36.3741 704.00
36.6783 705.00
36.9826 729.00
37.2869 883.00
37.5911 1531.00
37.8954 5182.00
38.1996 1496.00
38.5039 1019.00
38.8082 741.00
39.1124 741.00
39.4167 1203.00
39.7209 1450.00
40.0252 731.00
40.3295 620.00
40.6337 585.00
40.938 633.00
41.2422 776.00
41.5465 667.00
41.8508 596.00
42.155 591.00
42.4593 590.00
42.7635 621.00
43.0678 610.00
43.3721 640.00
43.6763 672.00
43.9806 672.00
44.2849 585.00
44.5891 564.00
44.8934 523.00
45.1976 596.00
45.5019 535.00
45.8062 643.00
46.1104 818.00
46.4147 588.00
46.7189 574.00
47.0232 536.00
47.3275 593.00
47.6317 689.00
47.936 558.00
48.2402 534.00
48.5445 551.00
48.8488 664.00
49.153 636.00
49.4573 601.00
49.7615 582.00
50.0658 840.00
50.3701 1900.00
50.6743 943.00
50.9786 666.00
51.2828 776.00
51.5871 1565.00
51.8914 1954.00
52.1956 2069.00
52.4999 735.00
52.8041 568.00
53.1084 585.00
53.4127 516.00
53.7169 469.00
54.0212 564.00
54.3254 564.00
54.6297 570.00
54.934 686.00
55.2382 885.00
55.5425 571.00
55.8467 560.00
56.151 530.00
56.4553 603.00
56.7595 884.00
57.0638 1753.00
57.368 908.00
57.6723 599.00
57.9766 540.00
58.2808 634.00
58.5851 504.00
58.8893 484.00
59.1936 491.00
59.4979 528.00
59.8021 462.00
60.1064 578.00
60.4106 751.00
60.7149 1859.00
61.0192 1727.00
61.3234 775.00
61.6277 671.00
61.932 601.00
62.2362 715.00
62.5405 615.00
62.8447 511.00
63.149 537.00
63.4533 522.00
63.7575 466.00
64.0618 483.00
64.366 535.00
64.6703 518.00
64.9745 611.00
65.2788 655.00
65.5831 465.00
65.8873 511.00
66.1916 529.00
66.4959 780.00
66.8001 921.00
67.1044 708.00
67.4086 533.00
67.7129 480.00
68.0172 580.00
68.3214 545.00
68.6257 498.00
68.9299 468.00
69.2342 474.00
69.5385 506.00
69.8427 513.00
70.147 780.00
70.4512 829.00
70.7555 584.00
71.0598 617.00
71.364 902.00
71.6683 872.00
71.9725 543.00
72.2768 498.00
72.5811 483.00
72.8853 430.00
73.1896 416.00
73.4938 475.00
73.7981 504.00
74.1024 455.00
74.4066 467.00
74.7109 471.00
75.0151 459.00
75.3194 452.00
75.6237 482.00
75.9279 603.00
76.2322 552.00
76.5364 404.00
76.8407 399.00
77.145 456.00
77.4492 415.00
77.7535 423.00
78.0577 391.00
78.362 396.00
78.6663 426.00
78.9705 599.00
79.2748 781.00
79.579 554.00
79.8833 495.00
80.1876 538.00
80.4918 597.00
80.7961 453.00
81.1003 408.00
81.4046 464.00
81.7089 473.00
82.0131 368.00
82.3174 408.00
82.6217 402.00
82.9259 339.00
83.2302 404.00
83.5344 380.00
83.8387 390.00
84.143 497.00
84.4472 438.00
84.7515 379.00
85.0557 388.00
85.36 379.00
85.6643 379.00
85.9685 421.00
86.2728 402.00
86.577 431.00
86.8813 441.00
87.1856 403.00
87.4898 492.00
87.7941 543.00
88.0983 592.00
88.4026 497.00
88.7069 549.00
89.0111 649.00
89.3154 508.00
89.6196 462.00
89.9239 462.00
90.2282 543.00
90.5324 468.00
90.8367 458.00
91.1409 580.00
91.4452 621.00
91.7495 514.00
92.0537 409.00
92.358 450.00
92.6622 429.00
92.9665 549.00
93.2708 658.00
93.575 590.00
93.8793 457.00
94.1835 386.00
94.4878 377.00
94.7921 388.00
95.0963 374.00
95.4006 409.00
95.7048 416.00
96.0091 483.00
96.3134 709.00
96.6176 714.00
96.9219 615.00
97.2261 483.00
97.5304 439.00
97.8347 439.00
98.1389 391.00
98.4432 421.00
98.7474 382.00
99.0517 344.00
99.356 359.00
99.6602 389.00
99.9645 434.00
100.095 403.00