File: data/xrd_creation/results/Na_15.xy
9.903433 2648.00
10.2077 2642.00
10.512 2563.00
10.8162 2468.00
11.1205 2337.00
11.4247 2228.00
11.729 2179.00
12.0333 2120.00
12.3375 2087.00
12.6418 2007.00
12.946 2012.00
13.2503 1982.00
13.5546 1964.00
13.8588 1810.00
14.1631 1814.00
14.4673 1888.00
14.7716 1839.00
15.0759 1755.00
15.3801 1614.00
15.6844 1721.00
15.9886 1674.00
16.2929 1658.00
16.5972 1625.00
16.9014 1650.00
17.2057 1625.00
17.5099 1608.00
17.8142 1644.00
18.1185 1534.00
18.4227 1552.00
18.727 1399.00
19.0312 1468.00
19.3355 1412.00
19.6398 1369.00
19.944 1307.00
20.2483 1384.00
20.5525 1329.00
20.8568 1301.00
21.1611 1415.00
21.4653 1423.00
21.7696 5098.00
22.0738 1355.00
22.3781 1275.00
22.6824 1319.00
22.9866 1205.00
23.2909 1209.00
23.5951 1122.00
23.8994 1167.00
24.2037 1111.00
24.5079 1051.00
24.8122 1072.00
25.1164 1059.00
25.4207 1101.00
25.725 974.00
26.0292 1013.00
26.3335 1012.00
26.6378 974.00
26.942 969.00
27.2463 899.00
27.5505 1024.00
27.8548 1120.00
28.1591 904.00
28.4633 938.00
28.7676 922.00
29.0718 860.00
29.3761 938.00
29.6804 1007.00
29.9846 1099.00
30.2889 1419.00
30.5931 2854.00
30.8974 48077.00
31.2017 2457.00
31.5059 1186.00
31.8102 1238.00
32.1144 2815.00
32.4187 927.00
32.723 930.00
33.0272 859.00
33.3315 1237.00
33.6357 846.00
33.94 860.00
34.2443 777.00
34.5485 831.00
34.8528 799.00
35.157 988.00
35.4613 1342.00
35.7656 15153.00
36.0698 1279.00
36.3741 869.00
36.6783 744.00
36.9826 710.00
37.2869 681.00
37.5911 763.00
37.8954 1723.00
38.1996 1002.00
38.5039 729.00
38.8082 657.00
39.1124 627.00
39.4167 660.00
39.7209 620.00
40.0252 900.00
40.3295 622.00
40.6337 649.00
40.938 592.00
41.2422 633.00
41.5465 607.00
41.8508 703.00
42.155 2779.00
42.4593 688.00
42.7635 598.00
43.0678 609.00
43.3721 562.00
43.6763 581.00
43.9806 699.00
44.2849 656.00
44.5891 582.00
44.8934 609.00
45.1976 599.00
45.5019 759.00
45.8062 2433.00
46.1104 2574.00
46.4147 631.00
46.7189 600.00
47.0232 532.00
47.3275 551.00
47.6317 560.00
47.936 527.00
48.2402 524.00
48.5445 568.00
48.8488 489.00
49.153 546.00
49.4573 873.00
49.7615 822.00
50.0658 596.00
50.3701 643.00
50.6743 699.00
50.9786 1184.00
51.2828 16424.00
51.5871 1760.00
51.8914 723.00
52.1956 648.00
52.4999 568.00
52.8041 657.00
53.1084 1089.00
53.4127 522.00
53.7169 542.00
54.0212 500.00
54.3254 571.00
54.6297 719.00
54.934 517.00
55.2382 500.00
55.5425 520.00
55.8467 581.00
56.151 1165.00
56.4553 1138.00
56.7595 1156.00
57.0638 519.00
57.368 532.00
57.6723 592.00
57.9766 784.00
58.2808 538.00
58.5851 518.00
58.8893 545.00
59.1936 624.00
59.4979 1330.00
59.8021 559.00
60.1064 538.00
60.4106 749.00
60.7149 1480.00
61.0192 5536.00
61.3234 956.00
61.6277 629.00
61.932 601.00
62.2362 750.00
62.5405 1480.00
62.8447 596.00
63.149 509.00
63.4533 547.00
63.7575 689.00
64.0618 1505.00
64.366 537.00
64.6703 492.00
64.9745 448.00
65.2788 636.00
65.5831 901.00
65.8873 483.00
66.1916 490.00
66.4959 779.00
66.8001 843.00
67.1044 598.00
67.4086 435.00
67.7129 441.00
68.0172 531.00
68.3214 1380.00
68.6257 529.00
68.9299 483.00
69.2342 441.00
69.5385 509.00
69.8427 682.00
70.147 487.00
70.4512 419.00
70.7555 420.00
71.0598 405.00
71.364 436.00
71.6683 389.00
71.9725 389.00
72.2768 390.00
72.5811 422.00
72.8853 415.00
73.1896 476.00
73.4938 476.00
73.7981 664.00
74.1024 950.00
74.4066 446.00
74.7109 425.00
75.0151 533.00
75.3194 1410.00
75.6237 853.00
75.9279 511.00
76.2322 496.00
76.5364 806.00
76.8407 1036.00
77.145 457.00
77.4492 465.00
77.7535 485.00
78.0577 905.00
78.362 486.00
78.6663 439.00
78.9705 429.00
79.2748 742.00
79.579 845.00
79.8833 430.00
80.1876 407.00
80.4918 453.00
80.7961 610.00
81.1003 537.00
81.4046 443.00
81.7089 480.00
82.0131 1367.00
82.3174 977.00
82.6217 421.00
82.9259 515.00
83.2302 870.00
83.5344 1098.00
83.8387 637.00
84.143 665.00
84.4472 620.00
84.7515 485.00
85.0557 436.00
85.36 461.00
85.6643 463.00
85.9685 1180.00
86.2728 1162.00
86.577 482.00
86.8813 413.00
87.1856 437.00
87.4898 520.00
87.7941 408.00
88.0983 432.00
88.4026 395.00
88.7069 719.00
89.0111 570.00
89.3154 446.00
89.6196 408.00
89.9239 640.00
90.2282 654.00
90.5324 444.00
90.8367 349.00
91.1409 429.00
91.4452 414.00
91.7495 440.00
92.0537 397.00
92.358 417.00
92.6622 1084.00
92.9665 727.00
93.2708 404.00
93.575 394.00
93.8793 355.00
94.1835 378.00
94.4878 401.00
94.7921 365.00
95.0963 451.00
95.4006 863.00
95.7048 647.00
96.0091 451.00
96.3134 474.00
96.6176 1428.00
96.9219 934.00
97.2261 497.00
97.5304 454.00
97.8347 558.00
98.1389 636.00
98.4432 536.00
98.7474 431.00
99.0517 422.00
99.356 908.00
99.6602 616.00
99.9645 395.00
100.095 419.00