File: data/xrd_creation/results/Na_119.xy
9.903433 2715.00
10.2077 2629.00
10.512 2475.00
10.8162 2475.00
11.1205 2438.00
11.4247 2311.00
11.729 2255.00
12.0333 2235.00
12.3375 2009.00
12.6418 2037.00
12.946 1967.00
13.2503 1993.00
13.5546 1854.00
13.8588 1965.00
14.1631 1884.00
14.4673 1797.00
14.7716 1841.00
15.0759 1806.00
15.3801 1775.00
15.6844 1797.00
15.9886 2097.00
16.2929 4860.00
16.5972 8244.00
16.9014 2173.00
17.2057 1841.00
17.5099 1754.00
17.8142 1751.00
18.1185 1664.00
18.4227 1745.00
18.727 2571.00
19.0312 2936.00
19.3355 2504.00
19.6398 2290.00
19.944 1987.00
20.2483 1961.00
20.5525 1921.00
20.8568 1849.00
21.1611 1744.00
21.4653 1706.00
21.7696 1666.00
22.0738 1595.00
22.3781 1559.00
22.6824 1530.00
22.9866 1457.00
23.2909 1386.00
23.5951 1401.00
23.8994 1387.00
24.2037 1275.00
24.5079 1309.00
24.8122 1305.00
25.1164 1156.00
25.4207 1170.00
25.725 1196.00
26.0292 1201.00
26.3335 1263.00
26.6378 1319.00
26.942 1835.00
27.2463 1237.00
27.5505 1103.00
27.8548 1185.00
28.1591 1049.00
28.4633 1001.00
28.7676 1025.00
29.0718 975.00
29.3761 936.00
29.6804 913.00
29.9846 943.00
30.2889 1263.00
30.5931 1075.00
30.8974 882.00
31.2017 936.00
31.5059 892.00
31.8102 897.00
32.1144 1000.00
32.4187 1085.00
32.723 1559.00
33.0272 6398.00
33.3315 3004.00
33.6357 1230.00
33.94 1268.00
34.2443 2968.00
34.5485 7266.00
34.8528 1920.00
35.157 1072.00
35.4613 1384.00
35.7656 975.00
36.0698 824.00
36.3741 800.00
36.6783 729.00
36.9826 757.00
37.2869 823.00
37.5911 854.00
37.8954 1155.00
38.1996 1653.00
38.5039 1305.00
38.8082 1212.00
39.1124 1811.00
39.4167 6793.00
39.7209 8303.00
40.0252 1847.00
40.3295 1344.00
40.6337 894.00
40.938 834.00
41.2422 880.00
41.5465 1027.00
41.8508 1019.00
42.155 747.00
42.4593 762.00
42.7635 1023.00
43.0678 1875.00
43.3721 943.00
43.6763 685.00
43.9806 614.00
44.2849 646.00
44.5891 587.00
44.8934 691.00
45.1976 588.00
45.5019 592.00
45.8062 598.00
46.1104 608.00
46.4147 565.00
46.7189 729.00
47.0232 628.00
47.3275 632.00
47.6317 546.00
47.936 570.00
48.2402 600.00
48.5445 832.00
48.8488 566.00
49.153 565.00
49.4573 547.00
49.7615 574.00
50.0658 659.00
50.3701 831.00
50.6743 908.00
50.9786 1065.00
51.2828 2007.00
51.5871 1449.00
51.8914 1037.00
52.1956 1125.00
52.4999 733.00
52.8041 693.00
53.1084 685.00
53.4127 667.00
53.7169 700.00
54.0212 719.00
54.3254 595.00
54.6297 637.00
54.934 760.00
55.2382 772.00
55.5425 825.00
55.8467 1713.00
56.151 3142.00
56.4553 1375.00
56.7595 807.00
57.0638 622.00
57.368 694.00
57.6723 1190.00
57.9766 3512.00
58.2808 1567.00
58.5851 822.00
58.8893 667.00
59.1936 625.00
59.4979 557.00
59.8021 528.00
60.1064 653.00
60.4106 1004.00
60.7149 1763.00
61.0192 841.00
61.3234 559.00
61.6277 523.00
61.932 508.00
62.2362 566.00
62.5405 517.00
62.8447 546.00
63.149 468.00
63.4533 438.00
63.7575 457.00
64.0618 466.00
64.366 484.00
64.6703 456.00
64.9745 527.00
65.2788 490.00
65.5831 470.00
65.8873 492.00
66.1916 785.00
66.4959 1177.00
66.8001 816.00
67.1044 539.00
67.4086 544.00
67.7129 702.00
68.0172 1221.00
68.3214 1960.00
68.6257 1078.00
68.9299 1273.00
69.2342 1089.00
69.5385 559.00
69.8427 459.00
70.147 451.00
70.4512 456.00
70.7555 454.00
71.0598 537.00
71.364 570.00
71.6683 668.00
71.9725 1081.00
72.2768 1852.00
72.5811 1221.00
72.8853 634.00
73.1896 494.00
73.4938 451.00
73.7981 436.00
74.1024 406.00
74.4066 449.00
74.7109 604.00
75.0151 470.00
75.3194 404.00
75.6237 395.00
75.9279 381.00
76.2322 361.00
76.5364 352.00
76.8407 338.00
77.145 363.00
77.4492 328.00
77.7535 378.00
78.0577 353.00
78.362 353.00
78.6663 350.00
78.9705 432.00
79.2748 412.00
79.579 424.00
79.8833 488.00
80.1876 618.00
80.4918 575.00
80.7961 622.00
81.1003 565.00
81.4046 462.00
81.7089 420.00
82.0131 376.00
82.3174 372.00
82.6217 340.00
82.9259 322.00
83.2302 388.00
83.5344 360.00
83.8387 426.00
84.143 500.00
84.4472 594.00
84.7515 787.00
85.0557 607.00
85.36 425.00
85.6643 366.00
85.9685 322.00
86.2728 375.00
86.577 331.00
86.8813 314.00
87.1856 361.00
87.4898 340.00
87.7941 315.00
88.0983 320.00
88.4026 331.00
88.7069 342.00
89.0111 329.00
89.3154 341.00
89.6196 380.00
89.9239 506.00
90.2282 406.00
90.5324 386.00
90.8367 407.00
91.1409 506.00
91.4452 615.00
91.7495 559.00
92.0537 408.00
92.358 338.00
92.6622 359.00
92.9665 378.00
93.2708 437.00
93.575 500.00
93.8793 534.00
94.1835 496.00
94.4878 475.00
94.7921 435.00
95.0963 495.00
95.4006 744.00
95.7048 852.00
96.0091 1155.00
96.3134 1116.00
96.6176 805.00
96.9219 555.00
97.2261 438.00
97.5304 410.00
97.8347 408.00
98.1389 379.00
98.4432 450.00
98.7474 541.00
99.0517 795.00
99.356 978.00
99.6602 789.00
99.9645 521.00
100.095 465.00