File: data/xrd_creation/results/Na_191.xy
9.903433 2828.00
10.2077 2899.00
10.512 3069.00
10.8162 2778.00
11.1205 2706.00
11.4247 3550.00
11.729 6377.00
12.0333 4924.00
12.3375 2623.00
12.6418 2355.00
12.946 2333.00
13.2503 2272.00
13.5546 2094.00
13.8588 2316.00
14.1631 2525.00
14.4673 2081.00
14.7716 2151.00
15.0759 1938.00
15.3801 1964.00
15.6844 1957.00
15.9886 2108.00
16.2929 2543.00
16.5972 2953.00
16.9014 1902.00
17.2057 1854.00
17.5099 1839.00
17.8142 2029.00
18.1185 1974.00
18.4227 1831.00
18.727 1636.00
19.0312 1691.00
19.3355 1863.00
19.6398 3483.00
19.944 3453.00
20.2483 1745.00
20.5525 1734.00
20.8568 2156.00
21.1611 1806.00
21.4653 1476.00
21.7696 1568.00
22.0738 1623.00
22.3781 1638.00
22.6824 1620.00
22.9866 3202.00
23.2909 2960.00
23.5951 2197.00
23.8994 1812.00
24.2037 3081.00
24.5079 2389.00
24.8122 1819.00
25.1164 1550.00
25.4207 1691.00
25.725 1748.00
26.0292 3834.00
26.3335 2235.00
26.6378 2422.00
26.942 7652.00
27.2463 2576.00
27.5505 3716.00
27.8548 2033.00
28.1591 1800.00
28.4633 2497.00
28.7676 2550.00
29.0718 1562.00
29.3761 1364.00
29.6804 1655.00
29.9846 2017.00
30.2889 2716.00
30.5931 2074.00
30.8974 1781.00
31.2017 3474.00
31.5059 4034.00
31.8102 3462.00
32.1144 2107.00
32.4187 1393.00
32.723 1493.00
33.0272 4382.00
33.3315 1504.00
33.6357 1608.00
33.94 3760.00
34.2443 13037.00
34.5485 4011.00
34.8528 1898.00
35.157 1377.00
35.4613 1394.00
35.7656 1698.00
36.0698 1493.00
36.3741 1779.00
36.6783 1402.00
36.9826 1249.00
37.2869 1357.00
37.5911 1231.00
37.8954 1284.00
38.1996 2370.00
38.5039 1343.00
38.8082 1239.00
39.1124 1406.00
39.4167 1258.00
39.7209 1118.00
40.0252 1151.00
40.3295 1169.00
40.6337 1153.00
40.938 1221.00
41.2422 1402.00
41.5465 2207.00
41.8508 1659.00
42.155 1571.00
42.4593 1627.00
42.7635 1179.00
43.0678 1281.00
43.3721 1274.00
43.6763 1264.00
43.9806 981.00
44.2849 1081.00
44.5891 1300.00
44.8934 1292.00
45.1976 1197.00
45.5019 1118.00
45.8062 1174.00
46.1104 1377.00
46.4147 1768.00
46.7189 1621.00
47.0232 2848.00
47.3275 1645.00
47.6317 1971.00
47.936 1216.00
48.2402 1164.00
48.5445 1182.00
48.8488 1321.00
49.153 1920.00
49.4573 1689.00
49.7615 1706.00
50.0658 1460.00
50.3701 1660.00
50.6743 2203.00
50.9786 1618.00
51.2828 1554.00
51.5871 1317.00
51.8914 2394.00
52.1956 3976.00
52.4999 1407.00
52.8041 1049.00
53.1084 1995.00
53.4127 1407.00
53.7169 1277.00
54.0212 1137.00
54.3254 1182.00
54.6297 1399.00
54.934 1882.00
55.2382 1651.00
55.5425 1344.00
55.8467 1368.00
56.151 1515.00
56.4553 1282.00
56.7595 1288.00
57.0638 1140.00
57.368 1246.00
57.6723 1349.00
57.9766 1558.00
58.2808 1441.00
58.5851 1326.00
58.8893 1310.00
59.1936 2143.00
59.4979 1900.00
59.8021 1459.00
60.1064 1314.00
60.4106 1338.00
60.7149 1438.00
61.0192 1732.00
61.3234 1375.00
61.6277 1386.00
61.932 1679.00
62.2362 2004.00
62.5405 1419.00
62.8447 1143.00
63.149 1226.00
63.4533 1199.00
63.7575 1091.00
64.0618 1093.00
64.366 1089.00
64.6703 1215.00
64.9745 1821.00
65.2788 1235.00
65.5831 1140.00
65.8873 1324.00
66.1916 2221.00
66.4959 1624.00
66.8001 1165.00
67.1044 1001.00
67.4086 1019.00
67.7129 1056.00
68.0172 1027.00
68.3214 990.00
68.6257 951.00
68.9299 994.00
69.2342 912.00
69.5385 1053.00
69.8427 994.00
70.147 888.00
70.4512 842.00
70.7555 932.00
71.0598 972.00
71.364 1305.00
71.6683 1442.00
71.9725 1021.00
72.2768 981.00
72.5811 954.00
72.8853 1022.00
73.1896 1007.00
73.4938 957.00
73.7981 883.00
74.1024 857.00
74.4066 892.00
74.7109 920.00
75.0151 1012.00
75.3194 916.00
75.6237 958.00
75.9279 954.00
76.2322 931.00
76.5364 927.00
76.8407 975.00
77.145 920.00
77.4492 919.00
77.7535 876.00
78.0577 884.00
78.362 895.00
78.6663 921.00
78.9705 1392.00
79.2748 1122.00
79.579 951.00
79.8833 1071.00
80.1876 1091.00
80.4918 963.00
80.7961 893.00
81.1003 958.00
81.4046 1019.00
81.7089 1048.00
82.0131 974.00
82.3174 974.00
82.6217 905.00
82.9259 920.00
83.2302 853.00
83.5344 918.00
83.8387 1136.00
84.143 1261.00
84.4472 1038.00
84.7515 949.00
85.0557 993.00
85.36 903.00
85.6643 875.00
85.9685 990.00
86.2728 929.00
86.577 975.00
86.8813 898.00
87.1856 934.00
87.4898 1084.00
87.7941 932.00
88.0983 981.00
88.4026 926.00
88.7069 906.00
89.0111 896.00
89.3154 962.00
89.6196 1068.00
89.9239 1329.00
90.2282 1184.00
90.5324 966.00
90.8367 1125.00
91.1409 1345.00
91.4452 1202.00
91.7495 937.00
92.0537 851.00
92.358 900.00
92.6622 933.00
92.9665 849.00
93.2708 843.00
93.575 957.00
93.8793 839.00
94.1835 834.00
94.4878 835.00
94.7921 920.00
95.0963 892.00
95.4006 872.00
95.7048 957.00
96.0091 1003.00
96.3134 1047.00
96.6176 904.00
96.9219 901.00
97.2261 955.00
97.5304 889.00
97.8347 925.00
98.1389 891.00
98.4432 859.00
98.7474 920.00
99.0517 896.00
99.356 946.00
99.6602 982.00
99.9645 947.00
100.095 907.00