File: data/xrd_creation/results/Na_138.xy
9.903433 2750.00
10.2077 2551.00
10.512 2437.00
10.8162 2295.00
11.1205 2372.00
11.4247 2166.00
11.729 2105.00
12.0333 1989.00
12.3375 1986.00
12.6418 1982.00
12.946 1920.00
13.2503 1878.00
13.5546 1796.00
13.8588 1693.00
14.1631 1875.00
14.4673 1694.00
14.7716 1685.00
15.0759 1607.00
15.3801 1594.00
15.6844 1492.00
15.9886 1503.00
16.2929 1501.00
16.5972 1486.00
16.9014 1464.00
17.2057 1439.00
17.5099 1413.00
17.8142 1441.00
18.1185 1412.00
18.4227 1448.00
18.727 1393.00
19.0312 1380.00
19.3355 1383.00
19.6398 1362.00
19.944 1282.00
20.2483 1537.00
20.5525 1287.00
20.8568 1491.00
21.1611 1458.00
21.4653 1696.00
21.7696 1553.00
22.0738 1511.00
22.3781 1242.00
22.6824 1821.00
22.9866 1230.00
23.2909 1189.00
23.5951 1559.00
23.8994 1710.00
24.2037 1588.00
24.5079 1521.00
24.8122 1138.00
25.1164 1135.00
25.4207 1100.00
25.725 1264.00
26.0292 1595.00
26.3335 3655.00
26.6378 2187.00
26.942 1863.00
27.2463 1841.00
27.5505 3675.00
27.8548 1788.00
28.1591 1142.00
28.4633 1109.00
28.7676 1122.00
29.0718 1594.00
29.3761 1056.00
29.6804 1096.00
29.9846 1067.00
30.2889 1086.00
30.5931 1307.00
30.8974 1947.00
31.2017 1043.00
31.5059 1095.00
31.8102 972.00
32.1144 1020.00
32.4187 1177.00
32.723 912.00
33.0272 953.00
33.3315 956.00
33.6357 1219.00
33.94 1211.00
34.2443 1362.00
34.5485 1063.00
34.8528 933.00
35.157 860.00
35.4613 971.00
35.7656 779.00
36.0698 775.00
36.3741 1011.00
36.6783 896.00
36.9826 916.00
37.2869 912.00
37.5911 1073.00
37.8954 979.00
38.1996 1349.00
38.5039 1094.00
38.8082 884.00
39.1124 804.00
39.4167 891.00
39.7209 1142.00
40.0252 888.00
40.3295 759.00
40.6337 785.00
40.938 955.00
41.2422 717.00
41.5465 770.00
41.8508 607.00
42.155 645.00
42.4593 666.00
42.7635 655.00
43.0678 684.00
43.3721 841.00
43.6763 824.00
43.9806 785.00
44.2849 1034.00
44.5891 838.00
44.8934 920.00
45.1976 1413.00
45.5019 719.00
45.8062 813.00
46.1104 879.00
46.4147 788.00
46.7189 750.00
47.0232 990.00
47.3275 748.00
47.6317 688.00
47.936 563.00
48.2402 620.00
48.5445 712.00
48.8488 861.00
49.153 873.00
49.4573 748.00
49.7615 707.00
50.0658 604.00
50.3701 667.00
50.6743 580.00
50.9786 705.00
51.2828 691.00
51.5871 802.00
51.8914 955.00
52.1956 1131.00
52.4999 876.00
52.8041 787.00
53.1084 712.00
53.4127 807.00
53.7169 656.00
54.0212 688.00
54.3254 640.00
54.6297 623.00
54.934 788.00
55.2382 701.00
55.5425 749.00
55.8467 559.00
56.151 688.00
56.4553 670.00
56.7595 671.00
57.0638 651.00
57.368 705.00
57.6723 695.00
57.9766 724.00
58.2808 742.00
58.5851 683.00
58.8893 692.00
59.1936 573.00
59.4979 617.00
59.8021 605.00
60.1064 643.00
60.4106 521.00
60.7149 586.00
61.0192 615.00
61.3234 655.00
61.6277 638.00
61.932 665.00
62.2362 650.00
62.5405 727.00
62.8447 692.00
63.149 657.00
63.4533 632.00
63.7575 599.00
64.0618 641.00
64.366 600.00
64.6703 664.00
64.9745 816.00
65.2788 630.00
65.5831 645.00
65.8873 621.00
66.1916 644.00
66.4959 550.00
66.8001 536.00
67.1044 543.00
67.4086 506.00
67.7129 541.00
68.0172 525.00
68.3214 501.00
68.6257 461.00
68.9299 502.00
69.2342 505.00
69.5385 486.00
69.8427 530.00
70.147 492.00
70.4512 463.00
70.7555 510.00
71.0598 545.00
71.364 579.00
71.6683 551.00
71.9725 504.00
72.2768 491.00
72.5811 514.00
72.8853 632.00
73.1896 501.00
73.4938 532.00
73.7981 442.00
74.1024 423.00
74.4066 438.00
74.7109 436.00
75.0151 419.00
75.3194 473.00
75.6237 425.00
75.9279 532.00
76.2322 454.00
76.5364 484.00
76.8407 381.00
77.145 428.00
77.4492 442.00
77.7535 475.00
78.0577 434.00
78.362 482.00
78.6663 459.00
78.9705 576.00
79.2748 468.00
79.579 484.00
79.8833 538.00
80.1876 449.00
80.4918 485.00
80.7961 473.00
81.1003 477.00
81.4046 508.00
81.7089 449.00
82.0131 464.00
82.3174 438.00
82.6217 417.00
82.9259 420.00
83.2302 421.00
83.5344 474.00
83.8387 491.00
84.143 489.00
84.4472 415.00
84.7515 455.00
85.0557 454.00
85.36 432.00
85.6643 440.00
85.9685 400.00
86.2728 437.00
86.577 355.00
86.8813 404.00
87.1856 401.00
87.4898 431.00
87.7941 447.00
88.0983 475.00
88.4026 480.00
88.7069 471.00
89.0111 431.00
89.3154 441.00
89.6196 596.00
89.9239 537.00
90.2282 507.00
90.5324 460.00
90.8367 441.00
91.1409 491.00
91.4452 458.00
91.7495 440.00
92.0537 463.00
92.358 468.00
92.6622 438.00
92.9665 433.00
93.2708 453.00
93.575 410.00
93.8793 388.00
94.1835 381.00
94.4878 430.00
94.7921 443.00
95.0963 464.00
95.4006 471.00
95.7048 547.00
96.0091 430.00
96.3134 435.00
96.6176 481.00
96.9219 471.00
97.2261 432.00
97.5304 445.00
97.8347 445.00
98.1389 395.00
98.4432 415.00
98.7474 394.00
99.0517 403.00
99.356 441.00
99.6602 423.00
99.9645 369.00
100.095 405.00