File: data/xrd_creation/results/Na_113.xy
9.903433 2946.00
10.2077 2918.00
10.512 2774.00
10.8162 2723.00
11.1205 3404.00
11.4247 10039.00
11.729 5547.00
12.0333 2633.00
12.3375 2470.00
12.6418 2390.00
12.946 2191.00
13.2503 2081.00
13.5546 2091.00
13.8588 2010.00
14.1631 1968.00
14.4673 2006.00
14.7716 2522.00
15.0759 1872.00
15.3801 1877.00
15.6844 1908.00
15.9886 2224.00
16.2929 8567.00
16.5972 1905.00
16.9014 1849.00
17.2057 1786.00
17.5099 1738.00
17.8142 2121.00
18.1185 2299.00
18.4227 1656.00
18.727 1618.00
19.0312 1512.00
19.3355 1523.00
19.6398 1520.00
19.944 1435.00
20.2483 1682.00
20.5525 1451.00
20.8568 1775.00
21.1611 1331.00
21.4653 1356.00
21.7696 1350.00
22.0738 1261.00
22.3781 1308.00
22.6824 1337.00
22.9866 1344.00
23.2909 1341.00
23.5951 1209.00
23.8994 1340.00
24.2037 1721.00
24.5079 2676.00
24.8122 1319.00
25.1164 1321.00
25.4207 1495.00
25.725 4098.00
26.0292 8558.00
26.3335 1446.00
26.6378 4200.00
26.942 1623.00
27.2463 1416.00
27.5505 2044.00
27.8548 4792.00
28.1591 1610.00
28.4633 1089.00
28.7676 1070.00
29.0718 967.00
29.3761 1006.00
29.6804 1065.00
29.9846 2404.00
30.2889 2344.00
30.5931 928.00
30.8974 1001.00
31.2017 1157.00
31.5059 1353.00
31.8102 2174.00
32.1144 932.00
32.4187 1177.00
32.723 2153.00
33.0272 3940.00
33.3315 1179.00
33.6357 1110.00
33.94 4057.00
34.2443 6196.00
34.5485 2141.00
34.8528 2522.00
35.157 1250.00
35.4613 867.00
35.7656 754.00
36.0698 957.00
36.3741 1083.00
36.6783 1426.00
36.9826 1396.00
37.2869 805.00
37.5911 967.00
37.8954 1049.00
38.1996 1303.00
38.5039 735.00
38.8082 756.00
39.1124 1099.00
39.4167 775.00
39.7209 729.00
40.0252 636.00
40.3295 723.00
40.6337 681.00
40.938 830.00
41.2422 818.00
41.5465 1072.00
41.8508 866.00
42.155 2170.00
42.4593 1298.00
42.7635 668.00
43.0678 625.00
43.3721 1277.00
43.6763 941.00
43.9806 647.00
44.2849 585.00
44.5891 632.00
44.8934 867.00
45.1976 794.00
45.5019 802.00
45.8062 590.00
46.1104 711.00
46.4147 580.00
46.7189 893.00
47.0232 1249.00
47.3275 2651.00
47.6317 945.00
47.936 678.00
48.2402 655.00
48.5445 891.00
48.8488 1165.00
49.153 911.00
49.4573 1101.00
49.7615 1249.00
50.0658 1473.00
50.3701 960.00
50.6743 651.00
50.9786 633.00
51.2828 668.00
51.5871 1636.00
51.8914 3237.00
52.1956 1072.00
52.4999 578.00
52.8041 664.00
53.1084 1051.00
53.4127 836.00
53.7169 825.00
54.0212 787.00
54.3254 751.00
54.6297 821.00
54.934 1039.00
55.2382 928.00
55.5425 1020.00
55.8467 600.00
56.151 906.00
56.4553 715.00
56.7595 990.00
57.0638 826.00
57.368 822.00
57.6723 752.00
57.9766 1009.00
58.2808 1639.00
58.5851 935.00
58.8893 1083.00
59.1936 1154.00
59.4979 2095.00
59.8021 1258.00
60.1064 1668.00
60.4106 693.00
60.7149 709.00
61.0192 566.00
61.3234 546.00
61.6277 856.00
61.932 888.00
62.2362 1236.00
62.5405 565.00
62.8447 1137.00
63.149 586.00
63.4533 552.00
63.7575 591.00
64.0618 652.00
64.366 779.00
64.6703 777.00
64.9745 945.00
65.2788 781.00
65.5831 835.00
65.8873 1045.00
66.1916 1047.00
66.4959 659.00
66.8001 598.00
67.1044 608.00
67.4086 606.00
67.7129 535.00
68.0172 613.00
68.3214 523.00
68.6257 688.00
68.9299 595.00
69.2342 517.00
69.5385 501.00
69.8427 475.00
70.147 471.00
70.4512 397.00
70.7555 523.00
71.0598 467.00
71.364 614.00
71.6683 516.00
71.9725 589.00
72.2768 713.00
72.5811 381.00
72.8853 407.00
73.1896 704.00
73.4938 562.00
73.7981 412.00
74.1024 520.00
74.4066 640.00
74.7109 455.00
75.0151 503.00
75.3194 481.00
75.6237 376.00
75.9279 447.00
76.2322 470.00
76.5364 514.00
76.8407 508.00
77.145 631.00
77.4492 479.00
77.7535 442.00
78.0577 408.00
78.362 460.00
78.6663 746.00
78.9705 848.00
79.2748 598.00
79.579 468.00
79.8833 492.00
80.1876 558.00
80.4918 445.00
80.7961 509.00
81.1003 529.00
81.4046 532.00
81.7089 468.00
82.0131 409.00
82.3174 356.00
82.6217 480.00
82.9259 444.00
83.2302 413.00
83.5344 523.00
83.8387 677.00
84.143 536.00
84.4472 553.00
84.7515 527.00
85.0557 517.00
85.36 526.00
85.6643 481.00
85.9685 572.00
86.2728 529.00
86.577 501.00
86.8813 521.00
87.1856 504.00
87.4898 458.00
87.7941 418.00
88.0983 418.00
88.4026 561.00
88.7069 481.00
89.0111 477.00
89.3154 544.00
89.6196 496.00
89.9239 544.00
90.2282 686.00
90.5324 549.00
90.8367 539.00
91.1409 600.00
91.4452 600.00
91.7495 562.00
92.0537 440.00
92.358 479.00
92.6622 515.00
92.9665 441.00
93.2708 461.00
93.575 467.00
93.8793 393.00
94.1835 415.00
94.4878 424.00
94.7921 389.00
95.0963 369.00
95.4006 421.00
95.7048 504.00
96.0091 541.00
96.3134 527.00
96.6176 505.00
96.9219 608.00
97.2261 534.00
97.5304 496.00
97.8347 472.00
98.1389 492.00
98.4432 424.00
98.7474 416.00
99.0517 420.00
99.356 492.00
99.6602 572.00
99.9645 499.00
100.095 458.00