File: data/xrd_creation/results/Na_187.xy
9.903433 2876.00
10.2077 2767.00
10.512 3147.00
10.8162 2697.00
11.1205 2732.00
11.4247 3533.00
11.729 8780.00
12.0333 4197.00
12.3375 2530.00
12.6418 2278.00
12.946 2459.00
13.2503 2271.00
13.5546 2006.00
13.8588 2137.00
14.1631 2263.00
14.4673 1986.00
14.7716 1993.00
15.0759 1872.00
15.3801 1799.00
15.6844 1908.00
15.9886 1954.00
16.2929 2345.00
16.5972 3901.00
16.9014 1743.00
17.2057 1772.00
17.5099 1675.00
17.8142 1933.00
18.1185 2114.00
18.4227 1664.00
18.727 1593.00
19.0312 1577.00
19.3355 1664.00
19.6398 3317.00
19.944 2901.00
20.2483 1582.00
20.5525 1454.00
20.8568 1828.00
21.1611 1518.00
21.4653 1391.00
21.7696 1440.00
22.0738 1510.00
22.3781 1455.00
22.6824 1521.00
22.9866 2726.00
23.2909 2380.00
23.5951 1472.00
23.8994 1796.00
24.2037 2857.00
24.5079 2365.00
24.8122 1680.00
25.1164 1437.00
25.4207 1558.00
25.725 1566.00
26.0292 4851.00
26.3335 2339.00
26.6378 2114.00
26.942 8204.00
27.2463 2250.00
27.5505 4396.00
27.8548 3485.00
28.1591 1439.00
28.4633 1635.00
28.7676 2207.00
29.0718 1380.00
29.3761 1300.00
29.6804 1453.00
29.9846 2292.00
30.2889 2616.00
30.5931 1809.00
30.8974 1394.00
31.2017 3337.00
31.5059 2725.00
31.8102 2090.00
32.1144 1941.00
32.4187 1294.00
32.723 1275.00
33.0272 4414.00
33.3315 1435.00
33.6357 1438.00
33.94 3303.00
34.2443 14749.00
34.5485 3884.00
34.8528 2041.00
35.157 1238.00
35.4613 1302.00
35.7656 1582.00
36.0698 1281.00
36.3741 2073.00
36.6783 1312.00
36.9826 1220.00
37.2869 1297.00
37.5911 1139.00
37.8954 1136.00
38.1996 2221.00
38.5039 1193.00
38.8082 1014.00
39.1124 1201.00
39.4167 1079.00
39.7209 1044.00
40.0252 1011.00
40.3295 1077.00
40.6337 989.00
40.938 1050.00
41.2422 1179.00
41.5465 1823.00
41.8508 1647.00
42.155 1532.00
42.4593 1531.00
42.7635 990.00
43.0678 1037.00
43.3721 1406.00
43.6763 1163.00
43.9806 999.00
44.2849 934.00
44.5891 1078.00
44.8934 1201.00
45.1976 1141.00
45.5019 1107.00
45.8062 1054.00
46.1104 1139.00
46.4147 1276.00
46.7189 1503.00
47.0232 2198.00
47.3275 1397.00
47.6317 1899.00
47.936 1065.00
48.2402 1033.00
48.5445 1169.00
48.8488 1231.00
49.153 1908.00
49.4573 1470.00
49.7615 1754.00
50.0658 1486.00
50.3701 1295.00
50.6743 1705.00
50.9786 1631.00
51.2828 1584.00
51.5871 1243.00
51.8914 2035.00
52.1956 4040.00
52.4999 1287.00
52.8041 1079.00
53.1084 1746.00
53.4127 1254.00
53.7169 1305.00
54.0212 1154.00
54.3254 1025.00
54.6297 1141.00
54.934 1680.00
55.2382 1649.00
55.5425 1250.00
55.8467 1076.00
56.151 1250.00
56.4553 1153.00
56.7595 1254.00
57.0638 1147.00
57.368 1030.00
57.6723 1128.00
57.9766 1406.00
58.2808 1641.00
58.5851 1393.00
58.8893 1169.00
59.1936 1798.00
59.4979 1804.00
59.8021 1181.00
60.1064 1313.00
60.4106 1179.00
60.7149 1331.00
61.0192 1493.00
61.3234 1292.00
61.6277 1221.00
61.932 1335.00
62.2362 1822.00
62.5405 1353.00
62.8447 1133.00
63.149 998.00
63.4533 960.00
63.7575 972.00
64.0618 975.00
64.366 1033.00
64.6703 1069.00
64.9745 1883.00
65.2788 1219.00
65.5831 1075.00
65.8873 1267.00
66.1916 2100.00
66.4959 1508.00
66.8001 1034.00
67.1044 860.00
67.4086 923.00
67.7129 870.00
68.0172 963.00
68.3214 944.00
68.6257 884.00
68.9299 928.00
69.2342 825.00
69.5385 958.00
69.8427 835.00
70.147 747.00
70.4512 742.00
70.7555 814.00
71.0598 788.00
71.364 987.00
71.6683 1300.00
71.9725 1020.00
72.2768 828.00
72.5811 814.00
72.8853 889.00
73.1896 827.00
73.4938 825.00
73.7981 807.00
74.1024 770.00
74.4066 800.00
74.7109 762.00
75.0151 754.00
75.3194 837.00
75.6237 848.00
75.9279 818.00
76.2322 871.00
76.5364 782.00
76.8407 889.00
77.145 889.00
77.4492 843.00
77.7535 747.00
78.0577 726.00
78.362 726.00
78.6663 833.00
78.9705 1367.00
79.2748 1003.00
79.579 881.00
79.8833 929.00
80.1876 916.00
80.4918 745.00
80.7961 777.00
81.1003 766.00
81.4046 952.00
81.7089 896.00
82.0131 879.00
82.3174 837.00
82.6217 803.00
82.9259 785.00
83.2302 796.00
83.5344 739.00
83.8387 878.00
84.143 1007.00
84.4472 892.00
84.7515 890.00
85.0557 885.00
85.36 869.00
85.6643 775.00
85.9685 852.00
86.2728 864.00
86.577 887.00
86.8813 815.00
87.1856 757.00
87.4898 923.00
87.7941 809.00
88.0983 789.00
88.4026 804.00
88.7069 801.00
89.0111 783.00
89.3154 873.00
89.6196 936.00
89.9239 1254.00
90.2282 1147.00
90.5324 940.00
90.8367 869.00
91.1409 1226.00
91.4452 1068.00
91.7495 825.00
92.0537 797.00
92.358 801.00
92.6622 805.00
92.9665 768.00
93.2708 780.00
93.575 875.00
93.8793 806.00
94.1835 714.00
94.4878 719.00
94.7921 780.00
95.0963 741.00
95.4006 761.00
95.7048 796.00
96.0091 846.00
96.3134 946.00
96.6176 810.00
96.9219 766.00
97.2261 796.00
97.5304 823.00
97.8347 801.00
98.1389 775.00
98.4432 723.00
98.7474 732.00
99.0517 804.00
99.356 858.00
99.6602 949.00
99.9645 812.00
100.095 794.00