File: data/xrd_creation/results/Na_190.xy
9.903433 3211.00
10.2077 3210.00
10.512 3281.00
10.8162 3126.00
11.1205 3021.00
11.4247 2924.00
11.729 3458.00
12.0333 2648.00
12.3375 2499.00
12.6418 2567.00
12.946 2383.00
13.2503 2309.00
13.5546 2337.00
13.8588 2293.00
14.1631 2230.00
14.4673 2152.00
14.7716 2139.00
15.0759 2154.00
15.3801 2081.00
15.6844 2080.00
15.9886 2019.00
16.2929 2078.00
16.5972 2393.00
16.9014 1996.00
17.2057 1886.00
17.5099 1989.00
17.8142 1949.00
18.1185 2037.00
18.4227 1900.00
18.727 1806.00
19.0312 1755.00
19.3355 1834.00
19.6398 1899.00
19.944 1807.00
20.2483 1863.00
20.5525 1758.00
20.8568 2641.00
21.1611 2022.00
21.4653 1709.00
21.7696 1716.00
22.0738 1650.00
22.3781 1655.00
22.6824 1601.00
22.9866 1613.00
23.2909 1613.00
23.5951 1606.00
23.8994 1800.00
24.2037 5134.00
24.5079 2343.00
24.8122 1850.00
25.1164 1659.00
25.4207 1597.00
25.725 1606.00
26.0292 1815.00
26.3335 2390.00
26.6378 2475.00
26.942 11307.00
27.2463 2173.00
27.5505 3008.00
27.8548 2258.00
28.1591 1767.00
28.4633 2105.00
28.7676 3007.00
29.0718 1607.00
29.3761 1489.00
29.6804 1399.00
29.9846 1493.00
30.2889 1662.00
30.5931 1546.00
30.8974 1546.00
31.2017 1571.00
31.5059 1684.00
31.8102 2311.00
32.1144 2305.00
32.4187 1526.00
32.723 1390.00
33.0272 1467.00
33.3315 2015.00
33.6357 1637.00
33.94 2448.00
34.2443 10746.00
34.5485 7988.00
34.8528 2409.00
35.157 1497.00
35.4613 1374.00
35.7656 1762.00
36.0698 2001.00
36.3741 1603.00
36.6783 1188.00
36.9826 1172.00
37.2869 1181.00
37.5911 1236.00
37.8954 1330.00
38.1996 2595.00
38.5039 1519.00
38.8082 1177.00
39.1124 1386.00
39.4167 1527.00
39.7209 1114.00
40.0252 1117.00
40.3295 1073.00
40.6337 1195.00
40.938 1134.00
41.2422 1625.00
41.5465 1287.00
41.8508 1244.00
42.155 1087.00
42.4593 1153.00
42.7635 1142.00
43.0678 1215.00
43.3721 1015.00
43.6763 1052.00
43.9806 1153.00
44.2849 1086.00
44.5891 1051.00
44.8934 1093.00
45.1976 1142.00
45.5019 1073.00
45.8062 1076.00
46.1104 1135.00
46.4147 1051.00
46.7189 1031.00
47.0232 1165.00
47.3275 1068.00
47.6317 1118.00
47.936 1143.00
48.2402 1016.00
48.5445 1092.00
48.8488 1248.00
49.153 1728.00
49.4573 2317.00
49.7615 1482.00
50.0658 1274.00
50.3701 1092.00
50.6743 1545.00
50.9786 1281.00
51.2828 1349.00
51.5871 1211.00
51.8914 2102.00
52.1956 4987.00
52.4999 1571.00
52.8041 1104.00
53.1084 1076.00
53.4127 1009.00
53.7169 1069.00
54.0212 1137.00
54.3254 1812.00
54.6297 1410.00
54.934 1555.00
55.2382 1716.00
55.5425 1242.00
55.8467 1153.00
56.151 1301.00
56.4553 1156.00
56.7595 1236.00
57.0638 965.00
57.368 940.00
57.6723 1046.00
57.9766 1246.00
58.2808 1331.00
58.5851 1169.00
58.8893 1119.00
59.1936 927.00
59.4979 896.00
59.8021 980.00
60.1064 956.00
60.4106 1135.00
60.7149 1108.00
61.0192 1116.00
61.3234 2507.00
61.6277 1162.00
61.932 1151.00
62.2362 1863.00
62.5405 1274.00
62.8447 1060.00
63.149 888.00
63.4533 972.00
63.7575 970.00
64.0618 979.00
64.366 941.00
64.6703 931.00
64.9745 1724.00
65.2788 1294.00
65.5831 972.00
65.8873 1044.00
66.1916 1868.00
66.4959 1605.00
66.8001 956.00
67.1044 816.00
67.4086 808.00
67.7129 791.00
68.0172 756.00
68.3214 775.00
68.6257 860.00
68.9299 975.00
69.2342 871.00
69.5385 875.00
69.8427 802.00
70.147 723.00
70.4512 671.00
70.7555 722.00
71.0598 711.00
71.364 851.00
71.6683 1105.00
71.9725 1153.00
72.2768 1063.00
72.5811 846.00
72.8853 816.00
73.1896 699.00
73.4938 784.00
73.7981 647.00
74.1024 697.00
74.4066 689.00
74.7109 723.00
75.0151 695.00
75.3194 671.00
75.6237 725.00
75.9279 781.00
76.2322 772.00
76.5364 696.00
76.8407 677.00
77.145 765.00
77.4492 767.00
77.7535 660.00
78.0577 749.00
78.362 689.00
78.6663 771.00
78.9705 1368.00
79.2748 1080.00
79.579 819.00
79.8833 735.00
80.1876 681.00
80.4918 713.00
80.7961 714.00
81.1003 706.00
81.4046 825.00
81.7089 797.00
82.0131 836.00
82.3174 1033.00
82.6217 780.00
82.9259 648.00
83.2302 681.00
83.5344 769.00
83.8387 959.00
84.143 1063.00
84.4472 874.00
84.7515 761.00
85.0557 735.00
85.36 706.00
85.6643 734.00
85.9685 714.00
86.2728 680.00
86.577 628.00
86.8813 704.00
87.1856 773.00
87.4898 879.00
87.7941 783.00
88.0983 697.00
88.4026 762.00
88.7069 711.00
89.0111 794.00
89.3154 805.00
89.6196 769.00
89.9239 965.00
90.2282 1012.00
90.5324 893.00
90.8367 895.00
91.1409 1190.00
91.4452 956.00
91.7495 760.00
92.0537 765.00
92.358 727.00
92.6622 624.00
92.9665 696.00
93.2708 689.00
93.575 868.00
93.8793 771.00
94.1835 672.00
94.4878 677.00
94.7921 704.00
95.0963 737.00
95.4006 671.00
95.7048 729.00
96.0091 759.00
96.3134 869.00
96.6176 779.00
96.9219 781.00
97.2261 725.00
97.5304 774.00
97.8347 755.00
98.1389 683.00
98.4432 645.00
98.7474 692.00
99.0517 630.00
99.356 677.00
99.6602 690.00
99.9645 697.00
100.095 687.00