File: data/xrd_creation/results/Na_128.xy
9.903433 2573.00
10.2077 2570.00
10.512 2467.00
10.8162 2402.00
11.1205 2388.00
11.4247 2163.00
11.729 2192.00
12.0333 2028.00
12.3375 1954.00
12.6418 1855.00
12.946 1857.00
13.2503 1802.00
13.5546 1769.00
13.8588 1693.00
14.1631 1643.00
14.4673 1700.00
14.7716 1657.00
15.0759 1637.00
15.3801 1597.00
15.6844 1571.00
15.9886 1531.00
16.2929 1505.00
16.5972 1511.00
16.9014 1523.00
17.2057 1443.00
17.5099 1417.00
17.8142 1434.00
18.1185 1367.00
18.4227 1367.00
18.727 1295.00
19.0312 1288.00
19.3355 1394.00
19.6398 1565.00
19.944 1318.00
20.2483 1302.00
20.5525 1233.00
20.8568 1160.00
21.1611 1247.00
21.4653 1344.00
21.7696 1251.00
22.0738 1080.00
22.3781 1196.00
22.6824 1494.00
22.9866 1175.00
23.2909 1136.00
23.5951 1040.00
23.8994 996.00
24.2037 1147.00
24.5079 1159.00
24.8122 940.00
25.1164 1007.00
25.4207 991.00
25.725 932.00
26.0292 902.00
26.3335 1000.00
26.6378 1313.00
26.942 5895.00
27.2463 1425.00
27.5505 1039.00
27.8548 956.00
28.1591 909.00
28.4633 885.00
28.7676 903.00
29.0718 932.00
29.3761 961.00
29.6804 874.00
29.9846 851.00
30.2889 781.00
30.5931 833.00
30.8974 877.00
31.2017 926.00
31.5059 1147.00
31.8102 783.00
32.1144 815.00
32.4187 778.00
32.723 716.00
33.0272 749.00
33.3315 761.00
33.6357 824.00
33.94 1102.00
34.2443 5733.00
34.5485 1193.00
34.8528 768.00
35.157 692.00
35.4613 702.00
35.7656 656.00
36.0698 602.00
36.3741 676.00
36.6783 704.00
36.9826 669.00
37.2869 707.00
37.5911 816.00
37.8954 822.00
38.1996 1249.00
38.5039 1192.00
38.8082 687.00
39.1124 617.00
39.4167 861.00
39.7209 599.00
40.0252 542.00
40.3295 596.00
40.6337 572.00
40.938 513.00
41.2422 508.00
41.5465 537.00
41.8508 496.00
42.155 528.00
42.4593 514.00
42.7635 528.00
43.0678 612.00
43.3721 526.00
43.6763 538.00
43.9806 518.00
44.2849 566.00
44.5891 511.00
44.8934 477.00
45.1976 438.00
45.5019 508.00
45.8062 536.00
46.1104 553.00
46.4147 488.00
46.7189 501.00
47.0232 490.00
47.3275 450.00
47.6317 461.00
47.936 492.00
48.2402 502.00
48.5445 452.00
48.8488 474.00
49.153 485.00
49.4573 597.00
49.7615 531.00
50.0658 444.00
50.3701 524.00
50.6743 498.00
50.9786 550.00
51.2828 675.00
51.5871 649.00
51.8914 1074.00
52.1956 4579.00
52.4999 906.00
52.8041 507.00
53.1084 479.00
53.4127 456.00
53.7169 442.00
54.0212 443.00
54.3254 457.00
54.6297 469.00
54.934 720.00
55.2382 1289.00
55.5425 522.00
55.8467 428.00
56.151 449.00
56.4553 400.00
56.7595 424.00
57.0638 423.00
57.368 431.00
57.6723 449.00
57.9766 604.00
58.2808 839.00
58.5851 554.00
58.8893 480.00
59.1936 498.00
59.4979 453.00
59.8021 423.00
60.1064 443.00
60.4106 554.00
60.7149 618.00
61.0192 491.00
61.3234 425.00
61.6277 442.00
61.932 497.00
62.2362 1193.00
62.5405 731.00
62.8447 484.00
63.149 451.00
63.4533 470.00
63.7575 473.00
64.0618 452.00
64.366 424.00
64.6703 483.00
64.9745 1126.00
65.2788 1000.00
65.5831 493.00
65.8873 480.00
66.1916 1066.00
66.4959 1154.00
66.8001 511.00
67.1044 452.00
67.4086 427.00
67.7129 393.00
68.0172 347.00
68.3214 386.00
68.6257 369.00
68.9299 386.00
69.2342 384.00
69.5385 401.00
69.8427 377.00
70.147 405.00
70.4512 375.00
70.7555 378.00
71.0598 405.00
71.364 470.00
71.6683 818.00
71.9725 491.00
72.2768 442.00
72.5811 355.00
72.8853 397.00
73.1896 362.00
73.4938 361.00
73.7981 322.00
74.1024 352.00
74.4066 347.00
74.7109 356.00
75.0151 377.00
75.3194 333.00
75.6237 317.00
75.9279 309.00
76.2322 351.00
76.5364 319.00
76.8407 381.00
77.145 339.00
77.4492 357.00
77.7535 382.00
78.0577 356.00
78.362 355.00
78.6663 416.00
78.9705 1008.00
79.2748 838.00
79.579 414.00
79.8833 371.00
80.1876 362.00
80.4918 373.00
80.7961 379.00
81.1003 393.00
81.4046 563.00
81.7089 479.00
82.0131 361.00
82.3174 353.00
82.6217 379.00
82.9259 360.00
83.2302 315.00
83.5344 391.00
83.8387 540.00
84.143 831.00
84.4472 473.00
84.7515 346.00
85.0557 345.00
85.36 383.00
85.6643 310.00
85.9685 368.00
86.2728 337.00
86.577 317.00
86.8813 315.00
87.1856 384.00
87.4898 526.00
87.7941 483.00
88.0983 373.00
88.4026 348.00
88.7069 397.00
89.0111 364.00
89.3154 319.00
89.6196 384.00
89.9239 663.00
90.2282 839.00
90.5324 528.00
90.8367 511.00
91.1409 855.00
91.4452 702.00
91.7495 463.00
92.0537 345.00
92.358 375.00
92.6622 391.00
92.9665 355.00
93.2708 392.00
93.575 597.00
93.8793 502.00
94.1835 395.00
94.4878 358.00
94.7921 344.00
95.0963 311.00
95.4006 358.00
95.7048 353.00
96.0091 398.00
96.3134 614.00
96.6176 527.00
96.9219 404.00
97.2261 379.00
97.5304 388.00
97.8347 346.00
98.1389 345.00
98.4432 340.00
98.7474 341.00
99.0517 328.00
99.356 365.00
99.6602 358.00
99.9645 299.00
100.095 322.00