File: data/xrd_creation/results/Na_13.xy
9.903433 2601.00
10.2077 2546.00
10.512 2391.00
10.8162 2284.00
11.1205 2160.00
11.4247 2128.00
11.729 2102.00
12.0333 1940.00
12.3375 1883.00
12.6418 1653.00
12.946 1710.00
13.2503 1679.00
13.5546 1648.00
13.8588 1529.00
14.1631 1505.00
14.4673 1439.00
14.7716 1412.00
15.0759 1375.00
15.3801 1404.00
15.6844 1383.00
15.9886 1249.00
16.2929 1238.00
16.5972 1270.00
16.9014 1162.00
17.2057 1186.00
17.5099 1160.00
17.8142 1063.00
18.1185 1106.00
18.4227 1058.00
18.727 1073.00
19.0312 1076.00
19.3355 1035.00
19.6398 991.00
19.944 987.00
20.2483 977.00
20.5525 900.00
20.8568 874.00
21.1611 902.00
21.4653 843.00
21.7696 894.00
22.0738 857.00
22.3781 827.00
22.6824 811.00
22.9866 775.00
23.2909 760.00
23.5951 805.00
23.8994 752.00
24.2037 745.00
24.5079 758.00
24.8122 757.00
25.1164 732.00
25.4207 689.00
25.725 691.00
26.0292 672.00
26.3335 733.00
26.6378 724.00
26.942 649.00
27.2463 710.00
27.5505 689.00
27.8548 668.00
28.1591 664.00
28.4633 618.00
28.7676 597.00
29.0718 583.00
29.3761 539.00
29.6804 595.00
29.9846 719.00
30.2889 569.00
30.5931 556.00
30.8974 601.00
31.2017 520.00
31.5059 958.00
31.8102 572.00
32.1144 570.00
32.4187 591.00
32.723 465.00
33.0272 479.00
33.3315 497.00
33.6357 449.00
33.94 473.00
34.2443 497.00
34.5485 507.00
34.8528 436.00
35.157 507.00
35.4613 447.00
35.7656 444.00
36.0698 431.00
36.3741 417.00
36.6783 458.00
36.9826 386.00
37.2869 381.00
37.5911 407.00
37.8954 474.00
38.1996 366.00
38.5039 400.00
38.8082 352.00
39.1124 384.00
39.4167 369.00
39.7209 342.00
40.0252 385.00
40.3295 363.00
40.6337 358.00
40.938 341.00
41.2422 337.00
41.5465 348.00
41.8508 295.00
42.155 303.00
42.4593 361.00
42.7635 338.00
43.0678 374.00
43.3721 372.00
43.6763 327.00
43.9806 349.00
44.2849 317.00
44.5891 295.00
44.8934 331.00
45.1976 324.00
45.5019 428.00
45.8062 288.00
46.1104 315.00
46.4147 319.00
46.7189 313.00
47.0232 294.00
47.3275 288.00
47.6317 273.00
47.936 303.00
48.2402 265.00
48.5445 277.00
48.8488 258.00
49.153 291.00
49.4573 224.00
49.7615 297.00
50.0658 270.00
50.3701 263.00
50.6743 285.00
50.9786 265.00
51.2828 249.00
51.5871 283.00
51.8914 269.00
52.1956 264.00
52.4999 283.00
52.8041 266.00
53.1084 289.00
53.4127 236.00
53.7169 237.00
54.0212 256.00
54.3254 243.00
54.6297 219.00
54.934 209.00
55.2382 247.00
55.5425 212.00
55.8467 229.00
56.151 225.00
56.4553 257.00
56.7595 214.00
57.0638 204.00
57.368 197.00
57.6723 213.00
57.9766 209.00
58.2808 211.00
58.5851 211.00
58.8893 188.00
59.1936 240.00
59.4979 190.00
59.8021 225.00
60.1064 223.00
60.4106 209.00
60.7149 178.00
61.0192 182.00
61.3234 219.00
61.6277 191.00
61.932 206.00
62.2362 196.00
62.5405 222.00
62.8447 197.00
63.149 216.00
63.4533 179.00
63.7575 201.00
64.0618 197.00
64.366 169.00
64.6703 222.00
64.9745 206.00
65.2788 171.00
65.5831 192.00
65.8873 194.00
66.1916 183.00
66.4959 193.00
66.8001 207.00
67.1044 193.00
67.4086 196.00
67.7129 178.00
68.0172 165.00
68.3214 213.00
68.6257 183.00
68.9299 196.00
69.2342 191.00
69.5385 217.00
69.8427 193.00
70.147 205.00
70.4512 196.00
70.7555 197.00
71.0598 215.00
71.364 182.00
71.6683 189.00
71.9725 209.00
72.2768 187.00
72.5811 186.00
72.8853 207.00
73.1896 191.00
73.4938 208.00
73.7981 210.00
74.1024 215.00
74.4066 179.00
74.7109 208.00
75.0151 206.00
75.3194 245.00
75.6237 203.00
75.9279 173.00
76.2322 198.00
76.5364 181.00
76.8407 203.00
77.145 226.00
77.4492 197.00
77.7535 195.00
78.0577 200.00
78.362 226.00
78.6663 236.00
78.9705 191.00
79.2748 220.00
79.579 207.00
79.8833 220.00
80.1876 213.00
80.4918 246.00
80.7961 229.00
81.1003 220.00
81.4046 245.00
81.7089 230.00
82.0131 212.00
82.3174 230.00
82.6217 233.00
82.9259 202.00
83.2302 192.00
83.5344 238.00
83.8387 248.00
84.143 228.00
84.4472 220.00
84.7515 209.00
85.0557 218.00
85.36 211.00
85.6643 209.00
85.9685 224.00
86.2728 218.00
86.577 169.00
86.8813 189.00
87.1856 164.00
87.4898 214.00
87.7941 195.00
88.0983 193.00
88.4026 233.00
88.7069 183.00
89.0111 188.00
89.3154 194.00
89.6196 173.00
89.9239 206.00
90.2282 189.00
90.5324 179.00
90.8367 173.00
91.1409 174.00
91.4452 167.00
91.7495 178.00
92.0537 183.00
92.358 184.00
92.6622 148.00
92.9665 198.00
93.2708 184.00
93.575 186.00
93.8793 211.00
94.1835 173.00
94.4878 176.00
94.7921 194.00
95.0963 180.00
95.4006 169.00
95.7048 175.00
96.0091 187.00
96.3134 169.00
96.6176 200.00
96.9219 159.00
97.2261 202.00
97.5304 170.00
97.8347 157.00
98.1389 178.00
98.4432 165.00
98.7474 195.00
99.0517 197.00
99.356 191.00
99.6602 203.00
99.9645 162.00
100.095 184.00