File: data/xrd_creation/results/Na_102.xy
9.903433 2624.00
10.2077 2500.00
10.512 2383.00
10.8162 2384.00
11.1205 2356.00
11.4247 2209.00
11.729 2015.00
12.0333 1950.00
12.3375 1913.00
12.6418 1884.00
12.946 1781.00
13.2503 1693.00
13.5546 1663.00
13.8588 1646.00
14.1631 1628.00
14.4673 1626.00
14.7716 1409.00
15.0759 1526.00
15.3801 1422.00
15.6844 1399.00
15.9886 1329.00
16.2929 1303.00
16.5972 1274.00
16.9014 1318.00
17.2057 1241.00
17.5099 1208.00
17.8142 1198.00
18.1185 1126.00
18.4227 1223.00
18.727 1132.00
19.0312 1162.00
19.3355 1236.00
19.6398 1343.00
19.944 1398.00
20.2483 1147.00
20.5525 1020.00
20.8568 1162.00
21.1611 1730.00
21.4653 1108.00
21.7696 1030.00
22.0738 1011.00
22.3781 1014.00
22.6824 856.00
22.9866 912.00
23.2909 858.00
23.5951 922.00
23.8994 1033.00
24.2037 1255.00
24.5079 980.00
24.8122 871.00
25.1164 975.00
25.4207 866.00
25.725 976.00
26.0292 1058.00
26.3335 1220.00
26.6378 1269.00
26.942 1053.00
27.2463 928.00
27.5505 1014.00
27.8548 985.00
28.1591 831.00
28.4633 827.00
28.7676 940.00
29.0718 1070.00
29.3761 1046.00
29.6804 878.00
29.9846 825.00
30.2889 813.00
30.5931 939.00
30.8974 1163.00
31.2017 847.00
31.5059 1020.00
31.8102 1256.00
32.1144 943.00
32.4187 822.00
32.723 772.00
33.0272 763.00
33.3315 822.00
33.6357 950.00
33.94 1095.00
34.2443 1077.00
34.5485 706.00
34.8528 697.00
35.157 650.00
35.4613 603.00
35.7656 576.00
36.0698 604.00
36.3741 646.00
36.6783 625.00
36.9826 721.00
37.2869 920.00
37.5911 637.00
37.8954 627.00
38.1996 575.00
38.5039 541.00
38.8082 520.00
39.1124 560.00
39.4167 493.00
39.7209 534.00
40.0252 484.00
40.3295 433.00
40.6337 429.00
40.938 436.00
41.2422 480.00
41.5465 458.00
41.8508 444.00
42.155 419.00
42.4593 437.00
42.7635 471.00
43.0678 570.00
43.3721 490.00
43.6763 430.00
43.9806 427.00
44.2849 497.00
44.5891 441.00
44.8934 405.00
45.1976 426.00
45.5019 426.00
45.8062 469.00
46.1104 440.00
46.4147 449.00
46.7189 440.00
47.0232 493.00
47.3275 416.00
47.6317 420.00
47.936 481.00
48.2402 458.00
48.5445 430.00
48.8488 378.00
49.153 373.00
49.4573 450.00
49.7615 518.00
50.0658 433.00
50.3701 417.00
50.6743 446.00
50.9786 459.00
51.2828 504.00
51.5871 690.00
51.8914 710.00
52.1956 642.00
52.4999 545.00
52.8041 510.00
53.1084 458.00
53.4127 390.00
53.7169 458.00
54.0212 437.00
54.3254 441.00
54.6297 430.00
54.934 429.00
55.2382 401.00
55.5425 351.00
55.8467 394.00
56.151 375.00
56.4553 369.00
56.7595 368.00
57.0638 333.00
57.368 403.00
57.6723 445.00
57.9766 464.00
58.2808 439.00
58.5851 346.00
58.8893 353.00
59.1936 341.00
59.4979 377.00
59.8021 299.00
60.1064 319.00
60.4106 320.00
60.7149 329.00
61.0192 331.00
61.3234 366.00
61.6277 418.00
61.932 385.00
62.2362 361.00
62.5405 363.00
62.8447 355.00
63.149 378.00
63.4533 359.00
63.7575 407.00
64.0618 334.00
64.366 359.00
64.6703 398.00
64.9745 334.00
65.2788 352.00
65.5831 383.00
65.8873 384.00
66.1916 376.00
66.4959 406.00
66.8001 342.00
67.1044 352.00
67.4086 282.00
67.7129 298.00
68.0172 260.00
68.3214 247.00
68.6257 235.00
68.9299 220.00
69.2342 232.00
69.5385 257.00
69.8427 276.00
70.147 293.00
70.4512 304.00
70.7555 290.00
71.0598 271.00
71.364 241.00
71.6683 269.00
71.9725 263.00
72.2768 314.00
72.5811 230.00
72.8853 290.00
73.1896 282.00
73.4938 271.00
73.7981 221.00
74.1024 266.00
74.4066 267.00
74.7109 268.00
75.0151 239.00
75.3194 284.00
75.6237 276.00
75.9279 242.00
76.2322 222.00
76.5364 261.00
76.8407 251.00
77.145 277.00
77.4492 270.00
77.7535 263.00
78.0577 265.00
78.362 292.00
78.6663 291.00
78.9705 285.00
79.2748 280.00
79.579 277.00
79.8833 283.00
80.1876 289.00
80.4918 261.00
80.7961 280.00
81.1003 285.00
81.4046 282.00
81.7089 301.00
82.0131 273.00
82.3174 267.00
82.6217 263.00
82.9259 307.00
83.2302 294.00
83.5344 264.00
83.8387 273.00
84.143 318.00
84.4472 297.00
84.7515 222.00
85.0557 260.00
85.36 226.00
85.6643 230.00
85.9685 250.00
86.2728 257.00
86.577 292.00
86.8813 271.00
87.1856 285.00
87.4898 301.00
87.7941 240.00
88.0983 245.00
88.4026 257.00
88.7069 237.00
89.0111 278.00
89.3154 282.00
89.6196 260.00
89.9239 291.00
90.2282 246.00
90.5324 302.00
90.8367 278.00
91.1409 274.00
91.4452 277.00
91.7495 228.00
92.0537 259.00
92.358 208.00
92.6622 245.00
92.9665 245.00
93.2708 258.00
93.575 232.00
93.8793 259.00
94.1835 260.00
94.4878 241.00
94.7921 250.00
95.0963 219.00
95.4006 221.00
95.7048 237.00
96.0091 256.00
96.3134 233.00
96.6176 257.00
96.9219 263.00
97.2261 210.00
97.5304 233.00
97.8347 226.00
98.1389 230.00
98.4432 247.00
98.7474 228.00
99.0517 234.00
99.356 241.00
99.6602 214.00
99.9645 196.00
100.095 228.00