File: data/xrd_creation/results/Na_123.xy
9.903433 2611.00
10.2077 2512.00
10.512 2405.00
10.8162 2412.00
11.1205 2316.00
11.4247 2208.00
11.729 2147.00
12.0333 2099.00
12.3375 1914.00
12.6418 1843.00
12.946 1873.00
13.2503 1696.00
13.5546 1688.00
13.8588 1581.00
14.1631 1690.00
14.4673 1700.00
14.7716 1716.00
15.0759 1561.00
15.3801 1549.00
15.6844 1448.00
15.9886 1517.00
16.2929 1504.00
16.5972 1355.00
16.9014 1440.00
17.2057 1393.00
17.5099 1481.00
17.8142 1458.00
18.1185 1397.00
18.4227 1311.00
18.727 1358.00
19.0312 1286.00
19.3355 1284.00
19.6398 1485.00
19.944 1415.00
20.2483 1260.00
20.5525 1175.00
20.8568 1276.00
21.1611 1225.00
21.4653 1450.00
21.7696 1227.00
22.0738 1175.00
22.3781 1326.00
22.6824 1636.00
22.9866 1198.00
23.2909 1060.00
23.5951 1056.00
23.8994 1029.00
24.2037 1046.00
24.5079 1210.00
24.8122 1034.00
25.1164 1027.00
25.4207 1057.00
25.725 909.00
26.0292 951.00
26.3335 998.00
26.6378 1472.00
26.942 5218.00
27.2463 1097.00
27.5505 907.00
27.8548 928.00
28.1591 904.00
28.4633 761.00
28.7676 791.00
29.0718 821.00
29.3761 948.00
29.6804 788.00
29.9846 772.00
30.2889 789.00
30.5931 741.00
30.8974 780.00
31.2017 774.00
31.5059 815.00
31.8102 1259.00
32.1144 1060.00
32.4187 749.00
32.723 713.00
33.0272 668.00
33.3315 775.00
33.6357 819.00
33.94 1270.00
34.2443 4611.00
34.5485 939.00
34.8528 689.00
35.157 588.00
35.4613 613.00
35.7656 642.00
36.0698 608.00
36.3741 628.00
36.6783 690.00
36.9826 594.00
37.2869 710.00
37.5911 987.00
37.8954 869.00
38.1996 1436.00
38.5039 902.00
38.8082 612.00
39.1124 591.00
39.4167 782.00
39.7209 611.00
40.0252 572.00
40.3295 553.00
40.6337 485.00
40.938 490.00
41.2422 551.00
41.5465 519.00
41.8508 490.00
42.155 499.00
42.4593 479.00
42.7635 455.00
43.0678 539.00
43.3721 490.00
43.6763 547.00
43.9806 530.00
44.2849 498.00
44.5891 596.00
44.8934 522.00
45.1976 499.00
45.5019 506.00
45.8062 505.00
46.1104 586.00
46.4147 499.00
46.7189 506.00
47.0232 510.00
47.3275 450.00
47.6317 466.00
47.936 443.00
48.2402 442.00
48.5445 442.00
48.8488 459.00
49.153 454.00
49.4573 443.00
49.7615 548.00
50.0658 647.00
50.3701 569.00
50.6743 510.00
50.9786 491.00
51.2828 495.00
51.5871 714.00
51.8914 1472.00
52.1956 3470.00
52.4999 768.00
52.8041 533.00
53.1084 470.00
53.4127 451.00
53.7169 399.00
54.0212 462.00
54.3254 453.00
54.6297 458.00
54.934 849.00
55.2382 1008.00
55.5425 518.00
55.8467 450.00
56.151 479.00
56.4553 437.00
56.7595 469.00
57.0638 512.00
57.368 443.00
57.6723 455.00
57.9766 638.00
58.2808 758.00
58.5851 510.00
58.8893 512.00
59.1936 442.00
59.4979 418.00
59.8021 411.00
60.1064 410.00
60.4106 443.00
60.7149 565.00
61.0192 475.00
61.3234 495.00
61.6277 482.00
61.932 681.00
62.2362 1099.00
62.5405 605.00
62.8447 446.00
63.149 412.00
63.4533 404.00
63.7575 469.00
64.0618 481.00
64.366 454.00
64.6703 549.00
64.9745 1206.00
65.2788 751.00
65.5831 485.00
65.8873 568.00
66.1916 1206.00
66.4959 987.00
66.8001 491.00
67.1044 414.00
67.4086 455.00
67.7129 432.00
68.0172 391.00
68.3214 380.00
68.6257 356.00
68.9299 348.00
69.2342 375.00
69.5385 360.00
69.8427 402.00
70.147 357.00
70.4512 390.00
70.7555 363.00
71.0598 449.00
71.364 551.00
71.6683 728.00
71.9725 421.00
72.2768 378.00
72.5811 341.00
72.8853 332.00
73.1896 339.00
73.4938 323.00
73.7981 322.00
74.1024 362.00
74.4066 359.00
74.7109 418.00
75.0151 361.00
75.3194 355.00
75.6237 323.00
75.9279 325.00
76.2322 355.00
76.5364 319.00
76.8407 331.00
77.145 311.00
77.4492 309.00
77.7535 365.00
78.0577 327.00
78.362 386.00
78.6663 441.00
78.9705 936.00
79.2748 693.00
79.579 371.00
79.8833 395.00
80.1876 350.00
80.4918 344.00
80.7961 314.00
81.1003 402.00
81.4046 496.00
81.7089 467.00
82.0131 404.00
82.3174 352.00
82.6217 372.00
82.9259 370.00
83.2302 354.00
83.5344 370.00
83.8387 601.00
84.143 684.00
84.4472 457.00
84.7515 347.00
85.0557 351.00
85.36 320.00
85.6643 313.00
85.9685 343.00
86.2728 330.00
86.577 376.00
86.8813 315.00
87.1856 348.00
87.4898 528.00
87.7941 481.00
88.0983 401.00
88.4026 360.00
88.7069 416.00
89.0111 397.00
89.3154 399.00
89.6196 431.00
89.9239 729.00
90.2282 731.00
90.5324 489.00
90.8367 476.00
91.1409 849.00
91.4452 729.00
91.7495 449.00
92.0537 358.00
92.358 350.00
92.6622 351.00
92.9665 372.00
93.2708 449.00
93.575 605.00
93.8793 494.00
94.1835 385.00
94.4878 375.00
94.7921 372.00
95.0963 356.00
95.4006 353.00
95.7048 351.00
96.0091 468.00
96.3134 603.00
96.6176 512.00
96.9219 387.00
97.2261 377.00
97.5304 339.00
97.8347 318.00
98.1389 334.00
98.4432 385.00
98.7474 339.00
99.0517 333.00
99.356 306.00
99.6602 307.00
99.9645 350.00
100.095 317.00