File: data/xrd_creation/results/Na_106.xy
9.903433 2816.00
10.2077 2644.00
10.512 2641.00
10.8162 2468.00
11.1205 2348.00
11.4247 2352.00
11.729 2290.00
12.0333 2178.00
12.3375 2194.00
12.6418 2069.00
12.946 2104.00
13.2503 2057.00
13.5546 1851.00
13.8588 1928.00
14.1631 1896.00
14.4673 1894.00
14.7716 1897.00
15.0759 2105.00
15.3801 4432.00
15.6844 1980.00
15.9886 1977.00
16.2929 3654.00
16.5972 2673.00
16.9014 1795.00
17.2057 2237.00
17.5099 1717.00
17.8142 1651.00
18.1185 1513.00
18.4227 1523.00
18.727 1565.00
19.0312 2266.00
19.3355 1883.00
19.6398 1500.00
19.944 1386.00
20.2483 1462.00
20.5525 1568.00
20.8568 2489.00
21.1611 1358.00
21.4653 1314.00
21.7696 1912.00
22.0738 1436.00
22.3781 1493.00
22.6824 3698.00
22.9866 2396.00
23.2909 1837.00
23.5951 2620.00
23.8994 2044.00
24.2037 1369.00
24.5079 1381.00
24.8122 1529.00
25.1164 2662.00
25.4207 2036.00
25.725 2122.00
26.0292 1609.00
26.3335 2293.00
26.6378 2935.00
26.942 4254.00
27.2463 2734.00
27.5505 1894.00
27.8548 2179.00
28.1591 2455.00
28.4633 1414.00
28.7676 1198.00
29.0718 1500.00
29.3761 2185.00
29.6804 4431.00
29.9846 1273.00
30.2889 1280.00
30.5931 1009.00
30.8974 1015.00
31.2017 943.00
31.5059 1593.00
31.8102 1505.00
32.1144 1860.00
32.4187 1005.00
32.723 1046.00
33.0272 1104.00
33.3315 1227.00
33.6357 2196.00
33.94 3105.00
34.2443 5660.00
34.5485 3535.00
34.8528 1689.00
35.157 1269.00
35.4613 1166.00
35.7656 2378.00
36.0698 1472.00
36.3741 1109.00
36.6783 1758.00
36.9826 937.00
37.2869 805.00
37.5911 928.00
37.8954 1111.00
38.1996 1413.00
38.5039 1522.00
38.8082 1302.00
39.1124 896.00
39.4167 935.00
39.7209 1118.00
40.0252 2500.00
40.3295 791.00
40.6337 765.00
40.938 818.00
41.2422 811.00
41.5465 724.00
41.8508 695.00
42.155 633.00
42.4593 611.00
42.7635 642.00
43.0678 745.00
43.3721 1187.00
43.6763 782.00
43.9806 736.00
44.2849 1539.00
44.5891 963.00
44.8934 1582.00
45.1976 635.00
45.5019 533.00
45.8062 782.00
46.1104 515.00
46.4147 511.00
46.7189 583.00
47.0232 512.00
47.3275 545.00
47.6317 631.00
47.936 623.00
48.2402 707.00
48.5445 761.00
48.8488 1123.00
49.153 1085.00
49.4573 667.00
49.7615 700.00
50.0658 583.00
50.3701 543.00
50.6743 684.00
50.9786 1061.00
51.2828 1415.00
51.5871 1796.00
51.8914 2296.00
52.1956 2911.00
52.4999 1869.00
52.8041 1115.00
53.1084 747.00
53.4127 670.00
53.7169 754.00
54.0212 885.00
54.3254 808.00
54.6297 767.00
54.934 1257.00
55.2382 946.00
55.5425 1036.00
55.8467 671.00
56.151 880.00
56.4553 617.00
56.7595 608.00
57.0638 1174.00
57.368 834.00
57.6723 902.00
57.9766 853.00
58.2808 1027.00
58.5851 1106.00
58.8893 723.00
59.1936 937.00
59.4979 610.00
59.8021 585.00
60.1064 574.00
60.4106 603.00
60.7149 671.00
61.0192 735.00
61.3234 1203.00
61.6277 907.00
61.932 919.00
62.2362 1014.00
62.5405 964.00
62.8447 896.00
63.149 712.00
63.4533 663.00
63.7575 899.00
64.0618 807.00
64.366 876.00
64.6703 995.00
64.9745 1176.00
65.2788 1347.00
65.5831 1014.00
65.8873 1003.00
66.1916 1304.00
66.4959 980.00
66.8001 852.00
67.1044 651.00
67.4086 565.00
67.7129 648.00
68.0172 499.00
68.3214 457.00
68.6257 500.00
68.9299 518.00
69.2342 517.00
69.5385 535.00
69.8427 504.00
70.147 516.00
70.4512 546.00
70.7555 726.00
71.0598 553.00
71.364 637.00
71.6683 612.00
71.9725 530.00
72.2768 435.00
72.5811 463.00
72.8853 513.00
73.1896 488.00
73.4938 618.00
73.7981 473.00
74.1024 489.00
74.4066 543.00
74.7109 483.00
75.0151 536.00
75.3194 545.00
75.6237 515.00
75.9279 434.00
76.2322 539.00
76.5364 497.00
76.8407 456.00
77.145 451.00
77.4492 451.00
77.7535 439.00
78.0577 436.00
78.362 472.00
78.6663 548.00
78.9705 650.00
79.2748 640.00
79.579 574.00
79.8833 509.00
80.1876 518.00
80.4918 509.00
80.7961 563.00
81.1003 602.00
81.4046 538.00
81.7089 498.00
82.0131 524.00
82.3174 521.00
82.6217 450.00
82.9259 441.00
83.2302 437.00
83.5344 440.00
83.8387 550.00
84.143 675.00
84.4472 504.00
84.7515 430.00
85.0557 436.00
85.36 491.00
85.6643 473.00
85.9685 489.00
86.2728 448.00
86.577 386.00
86.8813 415.00
87.1856 411.00
87.4898 467.00
87.7941 439.00
88.0983 400.00
88.4026 431.00
88.7069 430.00
89.0111 439.00
89.3154 501.00
89.6196 556.00
89.9239 586.00
90.2282 656.00
90.5324 645.00
90.8367 646.00
91.1409 714.00
91.4452 621.00
91.7495 597.00
92.0537 491.00
92.358 535.00
92.6622 586.00
92.9665 581.00
93.2708 550.00
93.575 532.00
93.8793 470.00
94.1835 402.00
94.4878 400.00
94.7921 385.00
95.0963 399.00
95.4006 418.00
95.7048 490.00
96.0091 435.00
96.3134 457.00
96.6176 430.00
96.9219 445.00
97.2261 410.00
97.5304 374.00
97.8347 350.00
98.1389 361.00
98.4432 409.00
98.7474 439.00
99.0517 394.00
99.356 385.00
99.6602 398.00
99.9645 456.00
100.095 516.00