File: data/xrd_creation/results/Na_120.xy
9.903433 2656.00
10.2077 2548.00
10.512 2434.00
10.8162 2515.00
11.1205 2441.00
11.4247 2296.00
11.729 2343.00
12.0333 2201.00
12.3375 2139.00
12.6418 2055.00
12.946 1997.00
13.2503 1937.00
13.5546 1982.00
13.8588 1996.00
14.1631 1832.00
14.4673 1876.00
14.7716 1865.00
15.0759 1871.00
15.3801 1845.00
15.6844 1884.00
15.9886 2168.00
16.2929 5182.00
16.5972 8588.00
16.9014 2175.00
17.2057 1884.00
17.5099 1687.00
17.8142 1762.00
18.1185 1711.00
18.4227 1801.00
18.727 2692.00
19.0312 3000.00
19.3355 2530.00
19.6398 2527.00
19.944 2177.00
20.2483 2094.00
20.5525 2051.00
20.8568 1871.00
21.1611 1738.00
21.4653 1749.00
21.7696 1622.00
22.0738 1683.00
22.3781 1674.00
22.6824 1583.00
22.9866 1573.00
23.2909 1471.00
23.5951 1411.00
23.8994 1468.00
24.2037 1361.00
24.5079 1316.00
24.8122 1403.00
25.1164 1270.00
25.4207 1251.00
25.725 1240.00
26.0292 1238.00
26.3335 1327.00
26.6378 1264.00
26.942 1937.00
27.2463 1228.00
27.5505 1109.00
27.8548 1161.00
28.1591 1144.00
28.4633 1115.00
28.7676 1041.00
29.0718 1017.00
29.3761 1056.00
29.6804 964.00
29.9846 999.00
30.2889 1299.00
30.5931 1154.00
30.8974 916.00
31.2017 919.00
31.5059 931.00
31.8102 918.00
32.1144 947.00
32.4187 1088.00
32.723 1519.00
33.0272 6823.00
33.3315 2889.00
33.6357 1365.00
33.94 1310.00
34.2443 2888.00
34.5485 7460.00
34.8528 1914.00
35.157 1050.00
35.4613 1415.00
35.7656 961.00
36.0698 861.00
36.3741 865.00
36.6783 895.00
36.9826 840.00
37.2869 880.00
37.5911 894.00
37.8954 1122.00
38.1996 1683.00
38.5039 1364.00
38.8082 1225.00
39.1124 1788.00
39.4167 6893.00
39.7209 8350.00
40.0252 1937.00
40.3295 1383.00
40.6337 872.00
40.938 859.00
41.2422 883.00
41.5465 992.00
41.8508 1158.00
42.155 788.00
42.4593 773.00
42.7635 1043.00
43.0678 1990.00
43.3721 993.00
43.6763 743.00
43.9806 662.00
44.2849 705.00
44.5891 648.00
44.8934 758.00
45.1976 601.00
45.5019 615.00
45.8062 605.00
46.1104 613.00
46.4147 609.00
46.7189 824.00
47.0232 638.00
47.3275 642.00
47.6317 594.00
47.936 598.00
48.2402 605.00
48.5445 919.00
48.8488 582.00
49.153 576.00
49.4573 552.00
49.7615 598.00
50.0658 638.00
50.3701 868.00
50.6743 927.00
50.9786 1143.00
51.2828 1935.00
51.5871 1505.00
51.8914 1015.00
52.1956 1179.00
52.4999 823.00
52.8041 717.00
53.1084 676.00
53.4127 657.00
53.7169 723.00
54.0212 754.00
54.3254 658.00
54.6297 690.00
54.934 784.00
55.2382 724.00
55.5425 828.00
55.8467 1716.00
56.151 3259.00
56.4553 1389.00
56.7595 812.00
57.0638 696.00
57.368 844.00
57.6723 1228.00
57.9766 3709.00
58.2808 1537.00
58.5851 740.00
58.8893 683.00
59.1936 672.00
59.4979 586.00
59.8021 568.00
60.1064 647.00
60.4106 1105.00
60.7149 1782.00
61.0192 862.00
61.3234 549.00
61.6277 513.00
61.932 493.00
62.2362 583.00
62.5405 536.00
62.8447 568.00
63.149 492.00
63.4533 405.00
63.7575 443.00
64.0618 501.00
64.366 486.00
64.6703 488.00
64.9745 576.00
65.2788 493.00
65.5831 490.00
65.8873 521.00
66.1916 764.00
66.4959 1215.00
66.8001 815.00
67.1044 577.00
67.4086 567.00
67.7129 690.00
68.0172 1222.00
68.3214 1982.00
68.6257 1133.00
68.9299 1309.00
69.2342 1113.00
69.5385 583.00
69.8427 508.00
70.147 481.00
70.4512 455.00
70.7555 442.00
71.0598 468.00
71.364 638.00
71.6683 707.00
71.9725 1021.00
72.2768 1887.00
72.5811 1204.00
72.8853 626.00
73.1896 493.00
73.4938 495.00
73.7981 480.00
74.1024 417.00
74.4066 500.00
74.7109 667.00
75.0151 510.00
75.3194 453.00
75.6237 411.00
75.9279 377.00
76.2322 400.00
76.5364 400.00
76.8407 405.00
77.145 345.00
77.4492 375.00
77.7535 354.00
78.0577 348.00
78.362 346.00
78.6663 369.00
78.9705 453.00
79.2748 378.00
79.579 470.00
79.8833 534.00
80.1876 635.00
80.4918 639.00
80.7961 640.00
81.1003 601.00
81.4046 438.00
81.7089 404.00
82.0131 401.00
82.3174 378.00
82.6217 338.00
82.9259 393.00
83.2302 339.00
83.5344 399.00
83.8387 396.00
84.143 488.00
84.4472 608.00
84.7515 855.00
85.0557 653.00
85.36 405.00
85.6643 401.00
85.9685 339.00
86.2728 394.00
86.577 338.00
86.8813 313.00
87.1856 372.00
87.4898 347.00
87.7941 343.00
88.0983 318.00
88.4026 304.00
88.7069 354.00
89.0111 336.00
89.3154 383.00
89.6196 427.00
89.9239 464.00
90.2282 455.00
90.5324 407.00
90.8367 398.00
91.1409 510.00
91.4452 589.00
91.7495 564.00
92.0537 406.00
92.358 386.00
92.6622 371.00
92.9665 374.00
93.2708 434.00
93.575 496.00
93.8793 581.00
94.1835 506.00
94.4878 416.00
94.7921 439.00
95.0963 514.00
95.4006 710.00
95.7048 805.00
96.0091 1144.00
96.3134 1122.00
96.6176 792.00
96.9219 555.00
97.2261 446.00
97.5304 408.00
97.8347 407.00
98.1389 454.00
98.4432 418.00
98.7474 521.00
99.0517 851.00
99.356 959.00
99.6602 804.00
99.9645 519.00
100.095 484.00