File: data/xrd_creation/results/Na_101.xy
9.903433 2669.00
10.2077 2610.00
10.512 2489.00
10.8162 2457.00
11.1205 2437.00
11.4247 2189.00
11.729 2230.00
12.0333 2154.00
12.3375 2023.00
12.6418 1946.00
12.946 1948.00
13.2503 1869.00
13.5546 1906.00
13.8588 1913.00
14.1631 1817.00
14.4673 1761.00
14.7716 1742.00
15.0759 1643.00
15.3801 1685.00
15.6844 1680.00
15.9886 1621.00
16.2929 1567.00
16.5972 1642.00
16.9014 1473.00
17.2057 1602.00
17.5099 1513.00
17.8142 1496.00
18.1185 1441.00
18.4227 1515.00
18.727 1429.00
19.0312 1517.00
19.3355 1484.00
19.6398 1503.00
19.944 1370.00
20.2483 1335.00
20.5525 1324.00
20.8568 1232.00
21.1611 1207.00
21.4653 1235.00
21.7696 1256.00
22.0738 1345.00
22.3781 1468.00
22.6824 1553.00
22.9866 1191.00
23.2909 1123.00
23.5951 1067.00
23.8994 1061.00
24.2037 1059.00
24.5079 1069.00
24.8122 1143.00
25.1164 1083.00
25.4207 1168.00
25.725 1073.00
26.0292 1316.00
26.3335 1225.00
26.6378 2400.00
26.942 13321.00
27.2463 2064.00
27.5505 1236.00
27.8548 1439.00
28.1591 1313.00
28.4633 941.00
28.7676 956.00
29.0718 1393.00
29.3761 1380.00
29.6804 1381.00
29.9846 1592.00
30.2889 1190.00
30.5931 1042.00
30.8974 1552.00
31.2017 1391.00
31.5059 919.00
31.8102 948.00
32.1144 1297.00
32.4187 1159.00
32.723 1223.00
33.0272 960.00
33.3315 956.00
33.6357 1239.00
33.94 1973.00
34.2443 9667.00
34.5485 1587.00
34.8528 1003.00
35.157 849.00
35.4613 871.00
35.7656 775.00
36.0698 690.00
36.3741 709.00
36.6783 668.00
36.9826 632.00
37.2869 645.00
37.5911 999.00
37.8954 951.00
38.1996 2663.00
38.5039 1221.00
38.8082 887.00
39.1124 798.00
39.4167 968.00
39.7209 633.00
40.0252 772.00
40.3295 686.00
40.6337 731.00
40.938 719.00
41.2422 657.00
41.5465 570.00
41.8508 583.00
42.155 684.00
42.4593 608.00
42.7635 649.00
43.0678 750.00
43.3721 633.00
43.6763 747.00
43.9806 576.00
44.2849 540.00
44.5891 556.00
44.8934 603.00
45.1976 560.00
45.5019 635.00
45.8062 688.00
46.1104 552.00
46.4147 535.00
46.7189 640.00
47.0232 616.00
47.3275 615.00
47.6317 462.00
47.936 427.00
48.2402 559.00
48.5445 560.00
48.8488 567.00
49.153 563.00
49.4573 627.00
49.7615 569.00
50.0658 650.00
50.3701 555.00
50.6743 629.00
50.9786 556.00
51.2828 651.00
51.5871 907.00
51.8914 2360.00
52.1956 6096.00
52.4999 1004.00
52.8041 640.00
53.1084 688.00
53.4127 548.00
53.7169 522.00
54.0212 513.00
54.3254 484.00
54.6297 609.00
54.934 1132.00
55.2382 1474.00
55.5425 574.00
55.8467 512.00
56.151 444.00
56.4553 480.00
56.7595 548.00
57.0638 606.00
57.368 523.00
57.6723 509.00
57.9766 773.00
58.2808 968.00
58.5851 551.00
58.8893 482.00
59.1936 494.00
59.4979 491.00
59.8021 456.00
60.1064 467.00
60.4106 504.00
60.7149 535.00
61.0192 489.00
61.3234 418.00
61.6277 424.00
61.932 726.00
62.2362 1667.00
62.5405 671.00
62.8447 467.00
63.149 403.00
63.4533 404.00
63.7575 473.00
64.0618 486.00
64.366 472.00
64.6703 526.00
64.9745 1722.00
65.2788 953.00
65.5831 502.00
65.8873 562.00
66.1916 1870.00
66.4959 1233.00
66.8001 544.00
67.1044 406.00
67.4086 400.00
67.7129 430.00
68.0172 314.00
68.3214 331.00
68.6257 352.00
68.9299 379.00
69.2342 360.00
69.5385 372.00
69.8427 351.00
70.147 362.00
70.4512 367.00
70.7555 384.00
71.0598 449.00
71.364 595.00
71.6683 887.00
71.9725 495.00
72.2768 407.00
72.5811 429.00
72.8853 363.00
73.1896 315.00
73.4938 314.00
73.7981 359.00
74.1024 318.00
74.4066 332.00
74.7109 338.00
75.0151 313.00
75.3194 307.00
75.6237 341.00
75.9279 320.00
76.2322 332.00
76.5364 306.00
76.8407 346.00
77.145 291.00
77.4492 296.00
77.7535 318.00
78.0577 356.00
78.362 345.00
78.6663 476.00
78.9705 1348.00
79.2748 866.00
79.579 389.00
79.8833 382.00
80.1876 322.00
80.4918 322.00
80.7961 330.00
81.1003 391.00
81.4046 558.00
81.7089 462.00
82.0131 317.00
82.3174 323.00
82.6217 311.00
82.9259 329.00
83.2302 296.00
83.5344 362.00
83.8387 644.00
84.143 884.00
84.4472 419.00
84.7515 342.00
85.0557 343.00
85.36 334.00
85.6643 308.00
85.9685 325.00
86.2728 312.00
86.577 351.00
86.8813 328.00
87.1856 351.00
87.4898 652.00
87.7941 505.00
88.0983 334.00
88.4026 333.00
88.7069 331.00
89.0111 369.00
89.3154 322.00
89.6196 441.00
89.9239 859.00
90.2282 927.00
90.5324 569.00
90.8367 561.00
91.1409 1137.00
91.4452 811.00
91.7495 430.00
92.0537 368.00
92.358 336.00
92.6622 313.00
92.9665 301.00
93.2708 402.00
93.575 715.00
93.8793 567.00
94.1835 338.00
94.4878 269.00
94.7921 319.00
95.0963 277.00
95.4006 272.00
95.7048 320.00
96.0091 381.00
96.3134 563.00
96.6176 448.00
96.9219 351.00
97.2261 315.00
97.5304 290.00
97.8347 260.00
98.1389 289.00
98.4432 269.00
98.7474 272.00
99.0517 280.00
99.356 287.00
99.6602 273.00
99.9645 271.00
100.095 258.00