File: data/xrd_creation/results/Na_127.xy
9.903433 2652.00
10.2077 2522.00
10.512 2491.00
10.8162 2368.00
11.1205 2254.00
11.4247 2298.00
11.729 2137.00
12.0333 2098.00
12.3375 1975.00
12.6418 1923.00
12.946 1949.00
13.2503 1812.00
13.5546 1720.00
13.8588 1741.00
14.1631 1775.00
14.4673 1748.00
14.7716 1661.00
15.0759 1607.00
15.3801 1598.00
15.6844 1541.00
15.9886 1524.00
16.2929 1515.00
16.5972 1508.00
16.9014 1477.00
17.2057 1467.00
17.5099 1387.00
17.8142 1419.00
18.1185 1392.00
18.4227 1339.00
18.727 1380.00
19.0312 1319.00
19.3355 1397.00
19.6398 1664.00
19.944 1388.00
20.2483 1305.00
20.5525 1214.00
20.8568 1155.00
21.1611 1210.00
21.4653 1376.00
21.7696 1266.00
22.0738 1143.00
22.3781 1235.00
22.6824 1413.00
22.9866 1130.00
23.2909 1072.00
23.5951 1013.00
23.8994 987.00
24.2037 1095.00
24.5079 1166.00
24.8122 994.00
25.1164 933.00
25.4207 1005.00
25.725 1018.00
26.0292 978.00
26.3335 945.00
26.6378 1262.00
26.942 5247.00
27.2463 1227.00
27.5505 981.00
27.8548 915.00
28.1591 842.00
28.4633 853.00
28.7676 834.00
29.0718 917.00
29.3761 978.00
29.6804 763.00
29.9846 764.00
30.2889 770.00
30.5931 732.00
30.8974 794.00
31.2017 880.00
31.5059 1163.00
31.8102 796.00
32.1144 830.00
32.4187 729.00
32.723 694.00
33.0272 649.00
33.3315 781.00
33.6357 766.00
33.94 1055.00
34.2443 4985.00
34.5485 1013.00
34.8528 711.00
35.157 626.00
35.4613 624.00
35.7656 573.00
36.0698 608.00
36.3741 673.00
36.6783 623.00
36.9826 645.00
37.2869 654.00
37.5911 797.00
37.8954 813.00
38.1996 1276.00
38.5039 1082.00
38.8082 573.00
39.1124 572.00
39.4167 770.00
39.7209 608.00
40.0252 548.00
40.3295 542.00
40.6337 535.00
40.938 537.00
41.2422 460.00
41.5465 458.00
41.8508 496.00
42.155 468.00
42.4593 436.00
42.7635 486.00
43.0678 551.00
43.3721 481.00
43.6763 521.00
43.9806 500.00
44.2849 547.00
44.5891 505.00
44.8934 487.00
45.1976 499.00
45.5019 468.00
45.8062 535.00
46.1104 527.00
46.4147 440.00
46.7189 425.00
47.0232 473.00
47.3275 430.00
47.6317 413.00
47.936 492.00
48.2402 516.00
48.5445 460.00
48.8488 460.00
49.153 442.00
49.4573 552.00
49.7615 532.00
50.0658 476.00
50.3701 496.00
50.6743 463.00
50.9786 495.00
51.2828 718.00
51.5871 609.00
51.8914 1141.00
52.1956 3923.00
52.4999 858.00
52.8041 470.00
53.1084 468.00
53.4127 489.00
53.7169 397.00
54.0212 422.00
54.3254 445.00
54.6297 465.00
54.934 674.00
55.2382 1098.00
55.5425 484.00
55.8467 441.00
56.151 425.00
56.4553 406.00
56.7595 445.00
57.0638 433.00
57.368 393.00
57.6723 459.00
57.9766 596.00
58.2808 720.00
58.5851 565.00
58.8893 484.00
59.1936 411.00
59.4979 356.00
59.8021 389.00
60.1064 421.00
60.4106 517.00
60.7149 593.00
61.0192 520.00
61.3234 436.00
61.6277 397.00
61.932 522.00
62.2362 1184.00
62.5405 615.00
62.8447 434.00
63.149 427.00
63.4533 438.00
63.7575 488.00
64.0618 437.00
64.366 422.00
64.6703 509.00
64.9745 1066.00
65.2788 863.00
65.5831 436.00
65.8873 457.00
66.1916 1051.00
66.4959 1026.00
66.8001 462.00
67.1044 418.00
67.4086 420.00
67.7129 364.00
68.0172 377.00
68.3214 392.00
68.6257 365.00
68.9299 355.00
69.2342 392.00
69.5385 352.00
69.8427 376.00
70.147 335.00
70.4512 385.00
70.7555 336.00
71.0598 373.00
71.364 493.00
71.6683 731.00
71.9725 450.00
72.2768 346.00
72.5811 391.00
72.8853 350.00
73.1896 361.00
73.4938 368.00
73.7981 303.00
74.1024 358.00
74.4066 359.00
74.7109 394.00
75.0151 369.00
75.3194 332.00
75.6237 302.00
75.9279 381.00
76.2322 336.00
76.5364 333.00
76.8407 313.00
77.145 284.00
77.4492 321.00
77.7535 296.00
78.0577 300.00
78.362 370.00
78.6663 403.00
78.9705 923.00
79.2748 780.00
79.579 440.00
79.8833 362.00
80.1876 318.00
80.4918 346.00
80.7961 315.00
81.1003 415.00
81.4046 526.00
81.7089 476.00
82.0131 330.00
82.3174 349.00
82.6217 344.00
82.9259 364.00
83.2302 352.00
83.5344 362.00
83.8387 549.00
84.143 688.00
84.4472 418.00
84.7515 313.00
85.0557 348.00
85.36 311.00
85.6643 350.00
85.9685 341.00
86.2728 313.00
86.577 305.00
86.8813 323.00
87.1856 345.00
87.4898 549.00
87.7941 505.00
88.0983 420.00
88.4026 355.00
88.7069 409.00
89.0111 338.00
89.3154 366.00
89.6196 399.00
89.9239 693.00
90.2282 791.00
90.5324 515.00
90.8367 461.00
91.1409 818.00
91.4452 729.00
91.7495 485.00
92.0537 350.00
92.358 349.00
92.6622 349.00
92.9665 384.00
93.2708 386.00
93.575 590.00
93.8793 530.00
94.1835 384.00
94.4878 325.00
94.7921 347.00
95.0963 317.00
95.4006 315.00
95.7048 344.00
96.0091 381.00
96.3134 567.00
96.6176 528.00
96.9219 350.00
97.2261 371.00
97.5304 324.00
97.8347 391.00
98.1389 361.00
98.4432 331.00
98.7474 369.00
99.0517 324.00
99.356 326.00
99.6602 310.00
99.9645 324.00
100.095 368.00