File: data/xrd_creation/results/Na_139.xy
9.903433 2661.00
10.2077 2505.00
10.512 2534.00
10.8162 2447.00
11.1205 2385.00
11.4247 2217.00
11.729 2167.00
12.0333 2123.00
12.3375 1944.00
12.6418 1915.00
12.946 1917.00
13.2503 1876.00
13.5546 1880.00
13.8588 1774.00
14.1631 1784.00
14.4673 1682.00
14.7716 1754.00
15.0759 1659.00
15.3801 1722.00
15.6844 1645.00
15.9886 1527.00
16.2929 1562.00
16.5972 1549.00
16.9014 1597.00
17.2057 1505.00
17.5099 1505.00
17.8142 1537.00
18.1185 1470.00
18.4227 1381.00
18.727 1404.00
19.0312 1449.00
19.3355 1417.00
19.6398 1339.00
19.944 1314.00
20.2483 1269.00
20.5525 1235.00
20.8568 1224.00
21.1611 1212.00
21.4653 1264.00
21.7696 1198.00
22.0738 1253.00
22.3781 1355.00
22.6824 1413.00
22.9866 1322.00
23.2909 1056.00
23.5951 1140.00
23.8994 1133.00
24.2037 1035.00
24.5079 1064.00
24.8122 1060.00
25.1164 1042.00
25.4207 1056.00
25.725 1021.00
26.0292 1138.00
26.3335 1239.00
26.6378 2507.00
26.942 9399.00
27.2463 1474.00
27.5505 1014.00
27.8548 1047.00
28.1591 935.00
28.4633 934.00
28.7676 845.00
29.0718 882.00
29.3761 862.00
29.6804 866.00
29.9846 827.00
30.2889 767.00
30.5931 802.00
30.8974 796.00
31.2017 763.00
31.5059 827.00
31.8102 826.00
32.1144 827.00
32.4187 770.00
32.723 779.00
33.0272 727.00
33.3315 775.00
33.6357 1022.00
33.94 2212.00
34.2443 7629.00
34.5485 1177.00
34.8528 789.00
35.157 705.00
35.4613 713.00
35.7656 667.00
36.0698 617.00
36.3741 645.00
36.6783 660.00
36.9826 739.00
37.2869 704.00
37.5911 757.00
37.8954 896.00
38.1996 3006.00
38.5039 974.00
38.8082 647.00
39.1124 758.00
39.4167 829.00
39.7209 622.00
40.0252 581.00
40.3295 543.00
40.6337 500.00
40.938 547.00
41.2422 566.00
41.5465 550.00
41.8508 510.00
42.155 530.00
42.4593 477.00
42.7635 486.00
43.0678 583.00
43.3721 493.00
43.6763 463.00
43.9806 487.00
44.2849 475.00
44.5891 462.00
44.8934 472.00
45.1976 494.00
45.5019 514.00
45.8062 494.00
46.1104 459.00
46.4147 467.00
46.7189 445.00
47.0232 402.00
47.3275 483.00
47.6317 419.00
47.936 453.00
48.2402 412.00
48.5445 453.00
48.8488 442.00
49.153 442.00
49.4573 472.00
49.7615 498.00
50.0658 478.00
50.3701 512.00
50.6743 499.00
50.9786 523.00
51.2828 570.00
51.5871 801.00
51.8914 2904.00
52.1956 5365.00
52.4999 841.00
52.8041 555.00
53.1084 526.00
53.4127 480.00
53.7169 460.00
54.0212 487.00
54.3254 463.00
54.6297 547.00
54.934 1592.00
55.2382 1202.00
55.5425 478.00
55.8467 437.00
56.151 430.00
56.4553 437.00
56.7595 486.00
57.0638 449.00
57.368 387.00
57.6723 432.00
57.9766 891.00
58.2808 862.00
58.5851 463.00
58.8893 439.00
59.1936 442.00
59.4979 381.00
59.8021 415.00
60.1064 418.00
60.4106 461.00
60.7149 443.00
61.0192 437.00
61.3234 419.00
61.6277 455.00
61.932 697.00
62.2362 1598.00
62.5405 635.00
62.8447 445.00
63.149 399.00
63.4533 399.00
63.7575 416.00
64.0618 412.00
64.366 429.00
64.6703 568.00
64.9745 1955.00
65.2788 815.00
65.5831 477.00
65.8873 648.00
66.1916 2379.00
66.4959 1042.00
66.8001 482.00
67.1044 400.00
67.4086 326.00
67.7129 360.00
68.0172 340.00
68.3214 377.00
68.6257 359.00
68.9299 372.00
69.2342 339.00
69.5385 337.00
69.8427 372.00
70.147 350.00
70.4512 367.00
70.7555 348.00
71.0598 409.00
71.364 643.00
71.6683 900.00
71.9725 431.00
72.2768 347.00
72.5811 350.00
72.8853 341.00
73.1896 356.00
73.4938 333.00
73.7981 340.00
74.1024 299.00
74.4066 339.00
74.7109 349.00
75.0151 316.00
75.3194 316.00
75.6237 336.00
75.9279 314.00
76.2322 320.00
76.5364 281.00
76.8407 334.00
77.145 293.00
77.4492 337.00
77.7535 303.00
78.0577 341.00
78.362 374.00
78.6663 482.00
78.9705 1613.00
79.2748 765.00
79.579 386.00
79.8833 326.00
80.1876 321.00
80.4918 341.00
80.7961 333.00
81.1003 384.00
81.4046 666.00
81.7089 461.00
82.0131 306.00
82.3174 331.00
82.6217 327.00
82.9259 321.00
83.2302 298.00
83.5344 366.00
83.8387 925.00
84.143 915.00
84.4472 395.00
84.7515 338.00
85.0557 307.00
85.36 301.00
85.6643 326.00
85.9685 288.00
86.2728 324.00
86.577 313.00
86.8813 306.00
87.1856 345.00
87.4898 733.00
87.7941 462.00
88.0983 324.00
88.4026 311.00
88.7069 333.00
89.0111 362.00
89.3154 353.00
89.6196 432.00
89.9239 1211.00
90.2282 1041.00
90.5324 526.00
90.8367 554.00
91.1409 1342.00
91.4452 850.00
91.7495 391.00
92.0537 331.00
92.358 316.00
92.6622 342.00
92.9665 365.00
93.2708 427.00
93.575 706.00
93.8793 524.00
94.1835 347.00
94.4878 334.00
94.7921 304.00
95.0963 355.00
95.4006 314.00
95.7048 358.00
96.0091 451.00
96.3134 620.00
96.6176 472.00
96.9219 330.00
97.2261 343.00
97.5304 310.00
97.8347 285.00
98.1389 335.00
98.4432 321.00
98.7474 307.00
99.0517 346.00
99.356 300.00
99.6602 286.00
99.9645 311.00
100.095 289.00