File: data/xrd_creation/results/Na_117.xy
9.903433 2781.00
10.2077 2687.00
10.512 2646.00
10.8162 2616.00
11.1205 2914.00
11.4247 6659.00
11.729 2986.00
12.0333 2261.00
12.3375 2149.00
12.6418 2060.00
12.946 1968.00
13.2503 1886.00
13.5546 1949.00
13.8588 1842.00
14.1631 1854.00
14.4673 1827.00
14.7716 1971.00
15.0759 1731.00
15.3801 1700.00
15.6844 1719.00
15.9886 1953.00
16.2929 4716.00
16.5972 1749.00
16.9014 1672.00
17.2057 1616.00
17.5099 1506.00
17.8142 1813.00
18.1185 1841.00
18.4227 1538.00
18.727 1417.00
19.0312 1324.00
19.3355 1302.00
19.6398 1303.00
19.944 1206.00
20.2483 1317.00
20.5525 1323.00
20.8568 1415.00
21.1611 1228.00
21.4653 1214.00
21.7696 1184.00
22.0738 1111.00
22.3781 1207.00
22.6824 1201.00
22.9866 1205.00
23.2909 1236.00
23.5951 1129.00
23.8994 1124.00
24.2037 1631.00
24.5079 2101.00
24.8122 1257.00
25.1164 1163.00
25.4207 1364.00
25.725 4023.00
26.0292 3995.00
26.3335 1575.00
26.6378 10492.00
26.942 1528.00
27.2463 1301.00
27.5505 2608.00
27.8548 3910.00
28.1591 1279.00
28.4633 1071.00
28.7676 994.00
29.0718 997.00
29.3761 1011.00
29.6804 945.00
29.9846 1988.00
30.2889 1734.00
30.5931 985.00
30.8974 931.00
31.2017 1301.00
31.5059 1191.00
31.8102 1594.00
32.1144 861.00
32.4187 1004.00
32.723 2513.00
33.0272 2273.00
33.3315 1023.00
33.6357 1378.00
33.94 9745.00
34.2443 6345.00
34.5485 2188.00
34.8528 1599.00
35.157 1020.00
35.4613 715.00
35.7656 782.00
36.0698 970.00
36.3741 1022.00
36.6783 1217.00
36.9826 1110.00
37.2869 700.00
37.5911 928.00
37.8954 1432.00
38.1996 1477.00
38.5039 661.00
38.8082 698.00
39.1124 1219.00
39.4167 699.00
39.7209 731.00
40.0252 612.00
40.3295 758.00
40.6337 615.00
40.938 738.00
41.2422 698.00
41.5465 1042.00
41.8508 965.00
42.155 1423.00
42.4593 1050.00
42.7635 757.00
43.0678 636.00
43.3721 1055.00
43.6763 733.00
43.9806 642.00
44.2849 554.00
44.5891 618.00
44.8934 880.00
45.1976 774.00
45.5019 752.00
45.8062 607.00
46.1104 696.00
46.4147 588.00
46.7189 787.00
47.0232 1113.00
47.3275 1954.00
47.6317 721.00
47.936 579.00
48.2402 614.00
48.5445 769.00
48.8488 931.00
49.153 749.00
49.4573 1035.00
49.7615 1179.00
50.0658 1361.00
50.3701 792.00
50.6743 617.00
50.9786 589.00
51.2828 688.00
51.5871 1862.00
51.8914 7707.00
52.1956 961.00
52.4999 529.00
52.8041 640.00
53.1084 925.00
53.4127 757.00
53.7169 695.00
54.0212 640.00
54.3254 705.00
54.6297 907.00
54.934 1508.00
55.2382 938.00
55.5425 888.00
55.8467 603.00
56.151 755.00
56.4553 658.00
56.7595 856.00
57.0638 782.00
57.368 664.00
57.6723 740.00
57.9766 1191.00
58.2808 1411.00
58.5851 922.00
58.8893 949.00
59.1936 1012.00
59.4979 1683.00
59.8021 1031.00
60.1064 1182.00
60.4106 646.00
60.7149 650.00
61.0192 561.00
61.3234 582.00
61.6277 691.00
61.932 1830.00
62.2362 1057.00
62.5405 613.00
62.8447 898.00
63.149 505.00
63.4533 550.00
63.7575 564.00
64.0618 603.00
64.366 683.00
64.6703 967.00
64.9745 1528.00
65.2788 708.00
65.5831 790.00
65.8873 1114.00
66.1916 1549.00
66.4959 599.00
66.8001 566.00
67.1044 501.00
67.4086 487.00
67.7129 477.00
68.0172 544.00
68.3214 493.00
68.6257 619.00
68.9299 533.00
69.2342 505.00
69.5385 446.00
69.8427 421.00
70.147 442.00
70.4512 449.00
70.7555 457.00
71.0598 413.00
71.364 1225.00
71.6683 486.00
71.9725 598.00
72.2768 592.00
72.5811 388.00
72.8853 383.00
73.1896 673.00
73.4938 492.00
73.7981 342.00
74.1024 419.00
74.4066 512.00
74.7109 423.00
75.0151 436.00
75.3194 437.00
75.6237 343.00
75.9279 428.00
76.2322 451.00
76.5364 402.00
76.8407 454.00
77.145 497.00
77.4492 409.00
77.7535 404.00
78.0577 386.00
78.362 437.00
78.6663 940.00
78.9705 1084.00
79.2748 525.00
79.579 401.00
79.8833 402.00
80.1876 433.00
80.4918 416.00
80.7961 477.00
81.1003 562.00
81.4046 644.00
81.7089 432.00
82.0131 407.00
82.3174 380.00
82.6217 431.00
82.9259 410.00
83.2302 454.00
83.5344 520.00
83.8387 1022.00
84.143 546.00
84.4472 414.00
84.7515 510.00
85.0557 491.00
85.36 413.00
85.6643 496.00
85.9685 527.00
86.2728 476.00
86.577 435.00
86.8813 517.00
87.1856 509.00
87.4898 536.00
87.7941 386.00
88.0983 388.00
88.4026 484.00
88.7069 492.00
89.0111 438.00
89.3154 509.00
89.6196 501.00
89.9239 907.00
90.2282 716.00
90.5324 475.00
90.8367 707.00
91.1409 705.00
91.4452 559.00
91.7495 448.00
92.0537 443.00
92.358 442.00
92.6622 461.00
92.9665 425.00
93.2708 589.00
93.575 577.00
93.8793 400.00
94.1835 360.00
94.4878 367.00
94.7921 350.00
95.0963 382.00
95.4006 360.00
95.7048 473.00
96.0091 713.00
96.3134 587.00
96.6176 426.00
96.9219 535.00
97.2261 480.00
97.5304 447.00
97.8347 450.00
98.1389 441.00
98.4432 434.00
98.7474 396.00
99.0517 407.00
99.356 446.00
99.6602 502.00
99.9645 420.00
100.095 426.00