File: data/xrd_creation/results/Na_104.xy
9.903433 3040.00
10.2077 2820.00
10.512 2751.00
10.8162 2706.00
11.1205 2555.00
11.4247 2560.00
11.729 2387.00
12.0333 2442.00
12.3375 2250.00
12.6418 2262.00
12.946 2171.00
13.2503 2140.00
13.5546 2071.00
13.8588 1909.00
14.1631 2010.00
14.4673 1908.00
14.7716 2186.00
15.0759 1975.00
15.3801 1867.00
15.6844 1833.00
15.9886 1880.00
16.2929 1857.00
16.5972 1735.00
16.9014 1666.00
17.2057 1676.00
17.5099 1668.00
17.8142 1595.00
18.1185 1600.00
18.4227 1626.00
18.727 1583.00
19.0312 1567.00
19.3355 1708.00
19.6398 2362.00
19.944 1958.00
20.2483 2006.00
20.5525 2518.00
20.8568 2183.00
21.1611 2505.00
21.4653 2608.00
21.7696 2503.00
22.0738 2108.00
22.3781 1736.00
22.6824 2725.00
22.9866 1555.00
23.2909 2143.00
23.5951 1561.00
23.8994 1483.00
24.2037 1686.00
24.5079 2567.00
24.8122 1892.00
25.1164 1598.00
25.4207 1573.00
25.725 1591.00
26.0292 2281.00
26.3335 2251.00
26.6378 2729.00
26.942 5161.00
27.2463 2433.00
27.5505 2155.00
27.8548 1860.00
28.1591 1588.00
28.4633 1435.00
28.7676 1253.00
29.0718 1277.00
29.3761 1900.00
29.6804 1940.00
29.9846 4421.00
30.2889 2858.00
30.5931 1910.00
30.8974 1442.00
31.2017 1306.00
31.5059 1330.00
31.8102 1827.00
32.1144 1951.00
32.4187 1790.00
32.723 1409.00
33.0272 1249.00
33.3315 1352.00
33.6357 1538.00
33.94 2372.00
34.2443 3957.00
34.5485 2193.00
34.8528 1495.00
35.157 1196.00
35.4613 1151.00
35.7656 1422.00
36.0698 1558.00
36.3741 1449.00
36.6783 1377.00
36.9826 1236.00
37.2869 1354.00
37.5911 1811.00
37.8954 1539.00
38.1996 1812.00
38.5039 1253.00
38.8082 929.00
39.1124 1098.00
39.4167 977.00
39.7209 860.00
40.0252 786.00
40.3295 756.00
40.6337 723.00
40.938 728.00
41.2422 739.00
41.5465 761.00
41.8508 692.00
42.155 710.00
42.4593 785.00
42.7635 1100.00
43.0678 1089.00
43.3721 1171.00
43.6763 841.00
43.9806 947.00
44.2849 845.00
44.5891 1027.00
44.8934 777.00
45.1976 686.00
45.5019 678.00
45.8062 746.00
46.1104 726.00
46.4147 714.00
46.7189 666.00
47.0232 724.00
47.3275 774.00
47.6317 762.00
47.936 773.00
48.2402 738.00
48.5445 669.00
48.8488 735.00
49.153 780.00
49.4573 804.00
49.7615 956.00
50.0658 1131.00
50.3701 920.00
50.6743 751.00
50.9786 755.00
51.2828 953.00
51.5871 1488.00
51.8914 2204.00
52.1956 2877.00
52.4999 1566.00
52.8041 1136.00
53.1084 1009.00
53.4127 985.00
53.7169 933.00
54.0212 872.00
54.3254 922.00
54.6297 979.00
54.934 1006.00
55.2382 923.00
55.5425 727.00
55.8467 631.00
56.151 714.00
56.4553 776.00
56.7595 799.00
57.0638 806.00
57.368 810.00
57.6723 871.00
57.9766 927.00
58.2808 909.00
58.5851 916.00
58.8893 813.00
59.1936 763.00
59.4979 706.00
59.8021 684.00
60.1064 645.00
60.4106 763.00
60.7149 801.00
61.0192 755.00
61.3234 666.00
61.6277 803.00
61.932 914.00
62.2362 1125.00
62.5405 898.00
62.8447 785.00
63.149 795.00
63.4533 802.00
63.7575 911.00
64.0618 980.00
64.366 768.00
64.6703 816.00
64.9745 1234.00
65.2788 833.00
65.5831 785.00
65.8873 856.00
66.1916 1142.00
66.4959 874.00
66.8001 674.00
67.1044 640.00
67.4086 583.00
67.7129 544.00
68.0172 586.00
68.3214 608.00
68.6257 526.00
68.9299 505.00
69.2342 525.00
69.5385 487.00
69.8427 528.00
70.147 610.00
70.4512 599.00
70.7555 547.00
71.0598 596.00
71.364 689.00
71.6683 751.00
71.9725 549.00
72.2768 502.00
72.5811 478.00
72.8853 457.00
73.1896 415.00
73.4938 432.00
73.7981 424.00
74.1024 432.00
74.4066 464.00
74.7109 463.00
75.0151 425.00
75.3194 425.00
75.6237 446.00
75.9279 439.00
76.2322 554.00
76.5364 446.00
76.8407 424.00
77.145 420.00
77.4492 388.00
77.7535 406.00
78.0577 429.00
78.362 517.00
78.6663 546.00
78.9705 825.00
79.2748 669.00
79.579 510.00
79.8833 514.00
80.1876 452.00
80.4918 396.00
80.7961 485.00
81.1003 453.00
81.4046 558.00
81.7089 484.00
82.0131 441.00
82.3174 453.00
82.6217 384.00
82.9259 405.00
83.2302 421.00
83.5344 394.00
83.8387 634.00
84.143 583.00
84.4472 507.00
84.7515 439.00
85.0557 444.00
85.36 408.00
85.6643 372.00
85.9685 440.00
86.2728 428.00
86.577 406.00
86.8813 401.00
87.1856 424.00
87.4898 524.00
87.7941 507.00
88.0983 466.00
88.4026 450.00
88.7069 484.00
89.0111 487.00
89.3154 493.00
89.6196 531.00
89.9239 628.00
90.2282 622.00
90.5324 576.00
90.8367 562.00
91.1409 751.00
91.4452 578.00
91.7495 494.00
92.0537 475.00
92.358 477.00
92.6622 458.00
92.9665 454.00
93.2708 512.00
93.575 520.00
93.8793 472.00
94.1835 433.00
94.4878 430.00
94.7921 444.00
95.0963 437.00
95.4006 457.00
95.7048 439.00
96.0091 460.00
96.3134 522.00
96.6176 438.00
96.9219 419.00
97.2261 368.00
97.5304 367.00
97.8347 321.00
98.1389 341.00
98.4432 393.00
98.7474 332.00
99.0517 425.00
99.356 367.00
99.6602 405.00
99.9645 396.00
100.095 398.00