File: data/xrd_creation/results/Na_189.xy
9.903433 2799.00
10.2077 2697.00
10.512 2637.00
10.8162 2496.00
11.1205 2603.00
11.4247 3889.00
11.729 10476.00
12.0333 2952.00
12.3375 2341.00
12.6418 2283.00
12.946 2093.00
13.2503 2011.00
13.5546 1988.00
13.8588 1929.00
14.1631 1883.00
14.4673 1890.00
14.7716 1999.00
15.0759 1921.00
15.3801 1740.00
15.6844 1854.00
15.9886 1816.00
16.2929 2502.00
16.5972 5948.00
16.9014 1827.00
17.2057 1710.00
17.5099 1762.00
17.8142 1895.00
18.1185 3192.00
18.4227 1735.00
18.727 1529.00
19.0312 1525.00
19.3355 1571.00
19.6398 1972.00
19.944 1687.00
20.2483 1495.00
20.5525 1459.00
20.8568 1699.00
21.1611 1621.00
21.4653 1427.00
21.7696 1382.00
22.0738 1427.00
22.3781 1414.00
22.6824 1419.00
22.9866 1916.00
23.2909 1664.00
23.5951 1567.00
23.8994 1376.00
24.2037 1752.00
24.5079 2673.00
24.8122 1939.00
25.1164 1480.00
25.4207 1494.00
25.725 1552.00
26.0292 5637.00
26.3335 3966.00
26.6378 1748.00
26.942 3230.00
27.2463 1656.00
27.5505 3768.00
27.8548 4544.00
28.1591 1661.00
28.4633 1955.00
28.7676 1836.00
29.0718 1335.00
29.3761 1234.00
29.6804 1291.00
29.9846 2218.00
30.2889 2335.00
30.5931 1431.00
30.8974 1255.00
31.2017 2028.00
31.5059 2494.00
31.8102 2276.00
32.1144 1843.00
32.4187 1237.00
32.723 1310.00
33.0272 3413.00
33.3315 2556.00
33.6357 1374.00
33.94 1904.00
34.2443 8558.00
34.5485 3838.00
34.8528 2963.00
35.157 1311.00
35.4613 1183.00
35.7656 1229.00
36.0698 1159.00
36.3741 1519.00
36.6783 1256.00
36.9826 1296.00
37.2869 1373.00
37.5911 1204.00
37.8954 1153.00
38.1996 1356.00
38.5039 1119.00
38.8082 972.00
39.1124 1287.00
39.4167 1047.00
39.7209 1131.00
40.0252 1062.00
40.3295 1042.00
40.6337 989.00
40.938 1063.00
41.2422 1231.00
41.5465 1333.00
41.8508 1584.00
42.155 1771.00
42.4593 1641.00
42.7635 1426.00
43.0678 990.00
43.3721 1240.00
43.6763 1114.00
43.9806 1139.00
44.2849 917.00
44.5891 995.00
44.8934 1043.00
45.1976 1455.00
45.5019 1028.00
45.8062 947.00
46.1104 1102.00
46.4147 1143.00
46.7189 1313.00
47.0232 1553.00
47.3275 1692.00
47.6317 2100.00
47.936 1579.00
48.2402 1044.00
48.5445 1109.00
48.8488 1100.00
49.153 1414.00
49.4573 1357.00
49.7615 2109.00
50.0658 1806.00
50.3701 1682.00
50.6743 1433.00
50.9786 1418.00
51.2828 1970.00
51.5871 1108.00
51.8914 1299.00
52.1956 1793.00
52.4999 1159.00
52.8041 1119.00
53.1084 1255.00
53.4127 1133.00
53.7169 1040.00
54.0212 1272.00
54.3254 1091.00
54.6297 1037.00
54.934 1121.00
55.2382 1031.00
55.5425 1326.00
55.8467 1211.00
56.151 1230.00
56.4553 1151.00
56.7595 1301.00
57.0638 1316.00
57.368 1254.00
57.6723 1120.00
57.9766 1555.00
58.2808 1658.00
58.5851 1674.00
58.8893 1207.00
59.1936 1284.00
59.4979 1768.00
59.8021 2216.00
60.1064 1541.00
60.4106 1621.00
60.7149 1251.00
61.0192 1110.00
61.3234 1047.00
61.6277 1005.00
61.932 1607.00
62.2362 1410.00
62.5405 1339.00
62.8447 1074.00
63.149 1049.00
63.4533 1023.00
63.7575 922.00
64.0618 1018.00
64.366 1081.00
64.6703 1043.00
64.9745 1118.00
65.2788 978.00
65.5831 900.00
65.8873 1190.00
66.1916 1408.00
66.4959 1149.00
66.8001 1026.00
67.1044 951.00
67.4086 859.00
67.7129 967.00
68.0172 1005.00
68.3214 1005.00
68.6257 914.00
68.9299 877.00
69.2342 963.00
69.5385 873.00
69.8427 804.00
70.147 782.00
70.4512 731.00
70.7555 744.00
71.0598 823.00
71.364 819.00
71.6683 995.00
71.9725 1191.00
72.2768 886.00
72.5811 756.00
72.8853 1004.00
73.1896 964.00
73.4938 869.00
73.7981 794.00
74.1024 807.00
74.4066 810.00
74.7109 847.00
75.0151 810.00
75.3194 797.00
75.6237 872.00
75.9279 869.00
76.2322 866.00
76.5364 879.00
76.8407 818.00
77.145 861.00
77.4492 837.00
77.7535 812.00
78.0577 810.00
78.362 770.00
78.6663 858.00
78.9705 981.00
79.2748 900.00
79.579 954.00
79.8833 872.00
80.1876 910.00
80.4918 856.00
80.7961 843.00
81.1003 803.00
81.4046 873.00
81.7089 931.00
82.0131 842.00
82.3174 783.00
82.6217 803.00
82.9259 803.00
83.2302 794.00
83.5344 764.00
83.8387 809.00
84.143 859.00
84.4472 848.00
84.7515 930.00
85.0557 1017.00
85.36 958.00
85.6643 939.00
85.9685 839.00
86.2728 897.00
86.577 856.00
86.8813 806.00
87.1856 773.00
87.4898 734.00
87.7941 742.00
88.0983 758.00
88.4026 872.00
88.7069 837.00
89.0111 816.00
89.3154 823.00
89.6196 919.00
89.9239 971.00
90.2282 909.00
90.5324 923.00
90.8367 880.00
91.1409 930.00
91.4452 894.00
91.7495 844.00
92.0537 825.00
92.358 801.00
92.6622 831.00
92.9665 787.00
93.2708 756.00
93.575 800.00
93.8793 703.00
94.1835 715.00
94.4878 811.00
94.7921 786.00
95.0963 797.00
95.4006 745.00
95.7048 801.00
96.0091 850.00
96.3134 882.00
96.6176 872.00
96.9219 850.00
97.2261 873.00
97.5304 884.00
97.8347 869.00
98.1389 813.00
98.4432 786.00
98.7474 852.00
99.0517 790.00
99.356 862.00
99.6602 910.00
99.9645 1017.00
100.095 863.00