File: data/xrd_creation/results/Na_114.xy
9.903433 2799.00
10.2077 2594.00
10.512 2620.00
10.8162 2482.00
11.1205 2771.00
11.4247 5329.00
11.729 6145.00
12.0333 2376.00
12.3375 2123.00
12.6418 2088.00
12.946 1917.00
13.2503 1954.00
13.5546 1864.00
13.8588 1917.00
14.1631 1858.00
14.4673 1857.00
14.7716 2067.00
15.0759 1749.00
15.3801 1974.00
15.6844 1678.00
15.9886 1852.00
16.2929 4268.00
16.5972 1796.00
16.9014 1594.00
17.2057 1580.00
17.5099 1551.00
17.8142 1676.00
18.1185 2119.00
18.4227 1585.00
18.727 1384.00
19.0312 1454.00
19.3355 1323.00
19.6398 1321.00
19.944 1378.00
20.2483 1841.00
20.5525 1258.00
20.8568 1657.00
21.1611 1315.00
21.4653 1227.00
21.7696 1269.00
22.0738 1342.00
22.3781 1212.00
22.6824 1173.00
22.9866 1197.00
23.2909 1293.00
23.5951 1123.00
23.8994 1144.00
24.2037 1350.00
24.5079 1731.00
24.8122 1140.00
25.1164 1168.00
25.4207 1350.00
25.725 2431.00
26.0292 6766.00
26.3335 1367.00
26.6378 2553.00
26.942 1907.00
27.2463 1369.00
27.5505 1501.00
27.8548 4997.00
28.1591 2123.00
28.4633 1149.00
28.7676 1012.00
29.0718 956.00
29.3761 922.00
29.6804 1018.00
29.9846 1545.00
30.2889 1791.00
30.5931 954.00
30.8974 887.00
31.2017 1074.00
31.5059 1454.00
31.8102 1945.00
32.1144 1064.00
32.4187 1104.00
32.723 1460.00
33.0272 6494.00
33.3315 1604.00
33.6357 1006.00
33.94 2230.00
34.2443 3704.00
34.5485 3298.00
34.8528 2612.00
35.157 1133.00
35.4613 786.00
35.7656 761.00
36.0698 908.00
36.3741 1119.00
36.6783 1111.00
36.9826 1116.00
37.2869 899.00
37.5911 838.00
37.8954 924.00
38.1996 1262.00
38.5039 756.00
38.8082 797.00
39.1124 973.00
39.4167 719.00
39.7209 718.00
40.0252 590.00
40.3295 702.00
40.6337 747.00
40.938 794.00
41.2422 743.00
41.5465 795.00
41.8508 966.00
42.155 1585.00
42.4593 1420.00
42.7635 713.00
43.0678 663.00
43.3721 936.00
43.6763 904.00
43.9806 703.00
44.2849 632.00
44.5891 650.00
44.8934 797.00
45.1976 922.00
45.5019 843.00
45.8062 628.00
46.1104 728.00
46.4147 617.00
46.7189 802.00
47.0232 1085.00
47.3275 1596.00
47.6317 1543.00
47.936 647.00
48.2402 647.00
48.5445 880.00
48.8488 841.00
49.153 992.00
49.4573 726.00
49.7615 1302.00
50.0658 1272.00
50.3701 1199.00
50.6743 598.00
50.9786 625.00
51.2828 727.00
51.5871 951.00
51.8914 2291.00
52.1956 1232.00
52.4999 668.00
52.8041 555.00
53.1084 1105.00
53.4127 794.00
53.7169 710.00
54.0212 741.00
54.3254 741.00
54.6297 691.00
54.934 1082.00
55.2382 765.00
55.5425 1152.00
55.8467 556.00
56.151 926.00
56.4553 672.00
56.7595 943.00
57.0638 852.00
57.368 817.00
57.6723 698.00
57.9766 870.00
58.2808 1112.00
58.5851 1115.00
58.8893 880.00
59.1936 972.00
59.4979 1842.00
59.8021 1210.00
60.1064 1448.00
60.4106 849.00
60.7149 682.00
61.0192 636.00
61.3234 553.00
61.6277 802.00
61.932 715.00
62.2362 1009.00
62.5405 650.00
62.8447 915.00
63.149 680.00
63.4533 523.00
63.7575 576.00
64.0618 591.00
64.366 659.00
64.6703 650.00
64.9745 955.00
65.2788 679.00
65.5831 779.00
65.8873 928.00
66.1916 1021.00
66.4959 637.00
66.8001 629.00
67.1044 534.00
67.4086 621.00
67.7129 498.00
68.0172 616.00
68.3214 492.00
68.6257 643.00
68.9299 582.00
69.2342 524.00
69.5385 427.00
69.8427 463.00
70.147 469.00
70.4512 469.00
70.7555 503.00
71.0598 485.00
71.364 536.00
71.6683 531.00
71.9725 442.00
72.2768 725.00
72.5811 414.00
72.8853 407.00
73.1896 629.00
73.4938 583.00
73.7981 409.00
74.1024 422.00
74.4066 633.00
74.7109 472.00
75.0151 463.00
75.3194 582.00
75.6237 419.00
75.9279 388.00
76.2322 478.00
76.5364 466.00
76.8407 509.00
77.145 609.00
77.4492 533.00
77.7535 431.00
78.0577 461.00
78.362 408.00
78.6663 562.00
78.9705 749.00
79.2748 642.00
79.579 422.00
79.8833 412.00
80.1876 542.00
80.4918 518.00
80.7961 460.00
81.1003 475.00
81.4046 442.00
81.7089 449.00
82.0131 407.00
82.3174 385.00
82.6217 463.00
82.9259 453.00
83.2302 425.00
83.5344 478.00
83.8387 591.00
84.143 492.00
84.4472 442.00
84.7515 502.00
85.0557 563.00
85.36 446.00
85.6643 424.00
85.9685 537.00
86.2728 464.00
86.577 513.00
86.8813 492.00
87.1856 552.00
87.4898 482.00
87.7941 398.00
88.0983 403.00
88.4026 517.00
88.7069 487.00
89.0111 438.00
89.3154 469.00
89.6196 450.00
89.9239 574.00
90.2282 566.00
90.5324 515.00
90.8367 517.00
91.1409 574.00
91.4452 555.00
91.7495 482.00
92.0537 468.00
92.358 452.00
92.6622 502.00
92.9665 434.00
93.2708 399.00
93.575 484.00
93.8793 392.00
94.1835 439.00
94.4878 387.00
94.7921 405.00
95.0963 398.00
95.4006 437.00
95.7048 502.00
96.0091 469.00
96.3134 510.00
96.6176 459.00
96.9219 524.00
97.2261 548.00
97.5304 476.00
97.8347 455.00
98.1389 439.00
98.4432 406.00
98.7474 415.00
99.0517 456.00
99.356 435.00
99.6602 546.00
99.9645 496.00
100.095 485.00