File: data/xrd_creation/results/Na_122.xy
9.903433 2746.00
10.2077 2562.00
10.512 2560.00
10.8162 2482.00
11.1205 2335.00
11.4247 2294.00
11.729 2252.00
12.0333 2170.00
12.3375 2090.00
12.6418 1955.00
12.946 2034.00
13.2503 1891.00
13.5546 1916.00
13.8588 1833.00
14.1631 1807.00
14.4673 1808.00
14.7716 1770.00
15.0759 1746.00
15.3801 1723.00
15.6844 1620.00
15.9886 1624.00
16.2929 1634.00
16.5972 1593.00
16.9014 1648.00
17.2057 1627.00
17.5099 1472.00
17.8142 1533.00
18.1185 1490.00
18.4227 1507.00
18.727 1492.00
19.0312 1599.00
19.3355 2259.00
19.6398 4865.00
19.944 1754.00
20.2483 1454.00
20.5525 1313.00
20.8568 1282.00
21.1611 1326.00
21.4653 1290.00
21.7696 1403.00
22.0738 1503.00
22.3781 2902.00
22.6824 8698.00
22.9866 1862.00
23.2909 1379.00
23.5951 1208.00
23.8994 1227.00
24.2037 1162.00
24.5079 1145.00
24.8122 1217.00
25.1164 1734.00
25.4207 2349.00
25.725 1138.00
26.0292 1148.00
26.3335 1032.00
26.6378 1140.00
26.942 3705.00
27.2463 1229.00
27.5505 1539.00
27.8548 2118.00
28.1591 1165.00
28.4633 1027.00
28.7676 1040.00
29.0718 906.00
29.3761 896.00
29.6804 958.00
29.9846 930.00
30.2889 854.00
30.5931 793.00
30.8974 895.00
31.2017 820.00
31.5059 997.00
31.8102 1325.00
32.1144 3556.00
32.4187 1246.00
32.723 879.00
33.0272 827.00
33.3315 805.00
33.6357 784.00
33.94 1008.00
34.2443 2815.00
34.5485 951.00
34.8528 795.00
35.157 761.00
35.4613 733.00
35.7656 701.00
36.0698 683.00
36.3741 655.00
36.6783 707.00
36.9826 787.00
37.2869 1000.00
37.5911 2193.00
37.8954 3816.00
38.1996 1402.00
38.5039 864.00
38.8082 731.00
39.1124 775.00
39.4167 1410.00
39.7209 1067.00
40.0252 693.00
40.3295 706.00
40.6337 647.00
40.938 628.00
41.2422 759.00
41.5465 614.00
41.8508 583.00
42.155 560.00
42.4593 558.00
42.7635 636.00
43.0678 615.00
43.3721 602.00
43.6763 688.00
43.9806 661.00
44.2849 584.00
44.5891 515.00
44.8934 521.00
45.1976 576.00
45.5019 552.00
45.8062 774.00
46.1104 699.00
46.4147 553.00
46.7189 557.00
47.0232 548.00
47.3275 632.00
47.6317 603.00
47.936 595.00
48.2402 563.00
48.5445 520.00
48.8488 614.00
49.153 556.00
49.4573 580.00
49.7615 654.00
50.0658 1085.00
50.3701 1501.00
50.6743 771.00
50.9786 628.00
51.2828 866.00
51.5871 2023.00
51.8914 1568.00
52.1956 1934.00
52.4999 625.00
52.8041 615.00
53.1084 593.00
53.4127 526.00
53.7169 533.00
54.0212 559.00
54.3254 581.00
54.6297 604.00
54.934 740.00
55.2382 917.00
55.5425 612.00
55.8467 539.00
56.151 574.00
56.4553 621.00
56.7595 1056.00
57.0638 1446.00
57.368 712.00
57.6723 530.00
57.9766 584.00
58.2808 581.00
58.5851 517.00
58.8893 469.00
59.1936 460.00
59.4979 516.00
59.8021 493.00
60.1064 577.00
60.4106 898.00
60.7149 1837.00
61.0192 1165.00
61.3234 682.00
61.6277 584.00
61.932 616.00
62.2362 863.00
62.5405 560.00
62.8447 511.00
63.149 558.00
63.4533 448.00
63.7575 485.00
64.0618 466.00
64.366 523.00
64.6703 518.00
64.9745 806.00
65.2788 620.00
65.5831 412.00
65.8873 473.00
66.1916 751.00
66.4959 905.00
66.8001 878.00
67.1044 594.00
67.4086 488.00
67.7129 504.00
68.0172 505.00
68.3214 540.00
68.6257 457.00
68.9299 453.00
69.2342 481.00
69.5385 481.00
69.8427 584.00
70.147 811.00
70.4512 767.00
70.7555 564.00
71.0598 569.00
71.364 811.00
71.6683 760.00
71.9725 531.00
72.2768 461.00
72.5811 450.00
72.8853 437.00
73.1896 446.00
73.4938 453.00
73.7981 520.00
74.1024 468.00
74.4066 388.00
74.7109 408.00
75.0151 415.00
75.3194 386.00
75.6237 516.00
75.9279 611.00
76.2322 469.00
76.5364 395.00
76.8407 417.00
77.145 438.00
77.4492 432.00
77.7535 398.00
78.0577 390.00
78.362 380.00
78.6663 421.00
78.9705 780.00
79.2748 735.00
79.579 513.00
79.8833 503.00
80.1876 520.00
80.4918 552.00
80.7961 403.00
81.1003 415.00
81.4046 482.00
81.7089 380.00
82.0131 392.00
82.3174 354.00
82.6217 371.00
82.9259 387.00
83.2302 396.00
83.5344 415.00
83.8387 439.00
84.143 493.00
84.4472 383.00
84.7515 397.00
85.0557 363.00
85.36 341.00
85.6643 413.00
85.9685 377.00
86.2728 401.00
86.577 365.00
86.8813 402.00
87.1856 425.00
87.4898 510.00
87.7941 582.00
88.0983 499.00
88.4026 470.00
88.7069 550.00
89.0111 609.00
89.3154 495.00
89.6196 424.00
89.9239 517.00
90.2282 559.00
90.5324 382.00
90.8367 488.00
91.1409 622.00
91.4452 584.00
91.7495 461.00
92.0537 425.00
92.358 425.00
92.6622 469.00
92.9665 537.00
93.2708 559.00
93.575 570.00
93.8793 503.00
94.1835 406.00
94.4878 406.00
94.7921 417.00
95.0963 387.00
95.4006 402.00
95.7048 408.00
96.0091 527.00
96.3134 684.00
96.6176 639.00
96.9219 529.00
97.2261 431.00
97.5304 449.00
97.8347 409.00
98.1389 400.00
98.4432 392.00
98.7474 398.00
99.0517 389.00
99.356 372.00
99.6602 393.00
99.9645 442.00
100.095 420.00