File: data/xrd_creation/results/Na_108.xy
9.903433 2703.00
10.2077 2550.00
10.512 2434.00
10.8162 2380.00
11.1205 2167.00
11.4247 2167.00
11.729 2125.00
12.0333 1979.00
12.3375 1961.00
12.6418 1881.00
12.946 1729.00
13.2503 1725.00
13.5546 1628.00
13.8588 1643.00
14.1631 1593.00
14.4673 1517.00
14.7716 1520.00
15.0759 1563.00
15.3801 1433.00
15.6844 1768.00
15.9886 1355.00
16.2929 1314.00
16.5972 1301.00
16.9014 1255.00
17.2057 1312.00
17.5099 1222.00
17.8142 1150.00
18.1185 1178.00
18.4227 1087.00
18.727 1152.00
19.0312 1020.00
19.3355 980.00
19.6398 1015.00
19.944 939.00
20.2483 1020.00
20.5525 1026.00
20.8568 1020.00
21.1611 986.00
21.4653 975.00
21.7696 892.00
22.0738 871.00
22.3781 966.00
22.6824 894.00
22.9866 859.00
23.2909 895.00
23.5951 811.00
23.8994 892.00
24.2037 822.00
24.5079 857.00
24.8122 767.00
25.1164 827.00
25.4207 831.00
25.725 891.00
26.0292 783.00
26.3335 919.00
26.6378 832.00
26.942 749.00
27.2463 690.00
27.5505 774.00
27.8548 777.00
28.1591 851.00
28.4633 768.00
28.7676 725.00
29.0718 732.00
29.3761 701.00
29.6804 662.00
29.9846 676.00
30.2889 664.00
30.5931 623.00
30.8974 658.00
31.2017 678.00
31.5059 936.00
31.8102 887.00
32.1144 695.00
32.4187 600.00
32.723 568.00
33.0272 587.00
33.3315 659.00
33.6357 650.00
33.94 566.00
34.2443 574.00
34.5485 519.00
34.8528 625.00
35.157 461.00
35.4613 479.00
35.7656 516.00
36.0698 519.00
36.3741 454.00
36.6783 485.00
36.9826 448.00
37.2869 438.00
37.5911 445.00
37.8954 479.00
38.1996 444.00
38.5039 405.00
38.8082 462.00
39.1124 471.00
39.4167 415.00
39.7209 430.00
40.0252 394.00
40.3295 401.00
40.6337 384.00
40.938 407.00
41.2422 358.00
41.5465 391.00
41.8508 406.00
42.155 372.00
42.4593 403.00
42.7635 362.00
43.0678 386.00
43.3721 345.00
43.6763 332.00
43.9806 364.00
44.2849 413.00
44.5891 380.00
44.8934 346.00
45.1976 288.00
45.5019 368.00
45.8062 326.00
46.1104 332.00
46.4147 334.00
46.7189 303.00
47.0232 340.00
47.3275 331.00
47.6317 301.00
47.936 298.00
48.2402 295.00
48.5445 305.00
48.8488 288.00
49.153 333.00
49.4573 293.00
49.7615 325.00
50.0658 328.00
50.3701 309.00
50.6743 334.00
50.9786 359.00
51.2828 273.00
51.5871 358.00
51.8914 360.00
52.1956 347.00
52.4999 289.00
52.8041 345.00
53.1084 301.00
53.4127 307.00
53.7169 279.00
54.0212 267.00
54.3254 273.00
54.6297 303.00
54.934 289.00
55.2382 309.00
55.5425 300.00
55.8467 264.00
56.151 259.00
56.4553 246.00
56.7595 275.00
57.0638 257.00
57.368 242.00
57.6723 239.00
57.9766 229.00
58.2808 261.00
58.5851 250.00
58.8893 297.00
59.1936 244.00
59.4979 222.00
59.8021 229.00
60.1064 237.00
60.4106 241.00
60.7149 211.00
61.0192 233.00
61.3234 235.00
61.6277 259.00
61.932 247.00
62.2362 237.00
62.5405 237.00
62.8447 214.00
63.149 235.00
63.4533 207.00
63.7575 224.00
64.0618 232.00
64.366 222.00
64.6703 222.00
64.9745 178.00
65.2788 214.00
65.5831 227.00
65.8873 248.00
66.1916 240.00
66.4959 211.00
66.8001 224.00
67.1044 240.00
67.4086 224.00
67.7129 199.00
68.0172 198.00
68.3214 190.00
68.6257 218.00
68.9299 227.00
69.2342 226.00
69.5385 203.00
69.8427 194.00
70.147 209.00
70.4512 188.00
70.7555 190.00
71.0598 203.00
71.364 197.00
71.6683 210.00
71.9725 200.00
72.2768 206.00
72.5811 203.00
72.8853 221.00
73.1896 226.00
73.4938 209.00
73.7981 178.00
74.1024 189.00
74.4066 216.00
74.7109 215.00
75.0151 196.00
75.3194 212.00
75.6237 221.00
75.9279 222.00
76.2322 212.00
76.5364 222.00
76.8407 213.00
77.145 191.00
77.4492 207.00
77.7535 218.00
78.0577 206.00
78.362 222.00
78.6663 244.00
78.9705 242.00
79.2748 215.00
79.579 236.00
79.8833 208.00
80.1876 258.00
80.4918 241.00
80.7961 261.00
81.1003 272.00
81.4046 228.00
81.7089 245.00
82.0131 269.00
82.3174 231.00
82.6217 261.00
82.9259 246.00
83.2302 229.00
83.5344 274.00
83.8387 250.00
84.143 238.00
84.4472 237.00
84.7515 235.00
85.0557 236.00
85.36 242.00
85.6643 227.00
85.9685 264.00
86.2728 212.00
86.577 236.00
86.8813 259.00
87.1856 245.00
87.4898 222.00
87.7941 239.00
88.0983 230.00
88.4026 216.00
88.7069 199.00
89.0111 193.00
89.3154 233.00
89.6196 250.00
89.9239 229.00
90.2282 217.00
90.5324 226.00
90.8367 219.00
91.1409 213.00
91.4452 216.00
91.7495 234.00
92.0537 227.00
92.358 215.00
92.6622 193.00
92.9665 196.00
93.2708 220.00
93.575 200.00
93.8793 185.00
94.1835 186.00
94.4878 199.00
94.7921 176.00
95.0963 223.00
95.4006 225.00
95.7048 211.00
96.0091 216.00
96.3134 204.00
96.6176 196.00
96.9219 194.00
97.2261 209.00
97.5304 213.00
97.8347 188.00
98.1389 194.00
98.4432 183.00
98.7474 198.00
99.0517 195.00
99.356 168.00
99.6602 165.00
99.9645 175.00
100.095 184.00