File: data/xrd_creation/results/Na_17.xy
9.903433 2680.00
10.2077 2520.00
10.512 2534.00
10.8162 2422.00
11.1205 2404.00
11.4247 2261.00
11.729 2429.00
12.0333 3935.00
12.3375 9223.00
12.6418 2163.00
12.946 1882.00
13.2503 1957.00
13.5546 1838.00
13.8588 1728.00
14.1631 1648.00
14.4673 1721.00
14.7716 1660.00
15.0759 1654.00
15.3801 1697.00
15.6844 1599.00
15.9886 1607.00
16.2929 1492.00
16.5972 1537.00
16.9014 1465.00
17.2057 1496.00
17.5099 1524.00
17.8142 1419.00
18.1185 1437.00
18.4227 1338.00
18.727 1329.00
19.0312 1337.00
19.3355 1264.00
19.6398 1346.00
19.944 1267.00
20.2483 1176.00
20.5525 1223.00
20.8568 1206.00
21.1611 1211.00
21.4653 1145.00
21.7696 1176.00
22.0738 1118.00
22.3781 1120.00
22.6824 1176.00
22.9866 1058.00
23.2909 1098.00
23.5951 1197.00
23.8994 1170.00
24.2037 1619.00
24.5079 3063.00
24.8122 1082.00
25.1164 1085.00
25.4207 1163.00
25.725 1341.00
26.0292 9274.00
26.3335 1679.00
26.6378 1099.00
26.942 1039.00
27.2463 1003.00
27.5505 1873.00
27.8548 959.00
28.1591 881.00
28.4633 926.00
28.7676 892.00
29.0718 912.00
29.3761 855.00
29.6804 869.00
29.9846 878.00
30.2889 1083.00
30.5931 907.00
30.8974 975.00
31.2017 945.00
31.5059 1057.00
31.8102 4084.00
32.1144 1864.00
32.4187 1213.00
32.723 9620.00
33.0272 1201.00
33.3315 1360.00
33.6357 10865.00
33.94 1785.00
34.2443 864.00
34.5485 912.00
34.8528 981.00
35.157 990.00
35.4613 903.00
35.7656 722.00
36.0698 768.00
36.3741 768.00
36.6783 1459.00
36.9826 1375.00
37.2869 641.00
37.5911 667.00
37.8954 648.00
38.1996 836.00
38.5039 677.00
38.8082 655.00
39.1124 585.00
39.4167 577.00
39.7209 598.00
40.0252 597.00
40.3295 660.00
40.6337 612.00
40.938 1017.00
41.2422 2793.00
41.5465 690.00
41.8508 703.00
42.155 542.00
42.4593 617.00
42.7635 572.00
43.0678 558.00
43.3721 583.00
43.6763 624.00
43.9806 583.00
44.2849 577.00
44.5891 556.00
44.8934 571.00
45.1976 729.00
45.5019 1511.00
45.8062 3699.00
46.1104 671.00
46.4147 694.00
46.7189 1500.00
47.0232 2188.00
47.3275 642.00
47.6317 518.00
47.936 588.00
48.2402 626.00
48.5445 1554.00
48.8488 606.00
49.153 537.00
49.4573 635.00
49.7615 1506.00
50.0658 2635.00
50.3701 589.00
50.6743 546.00
50.9786 522.00
51.2828 526.00
51.5871 552.00
51.8914 543.00
52.1956 586.00
52.4999 559.00
52.8041 589.00
53.1084 579.00
53.4127 1448.00
53.7169 658.00
54.0212 918.00
54.3254 4165.00
54.6297 795.00
54.934 725.00
55.2382 1990.00
55.5425 2045.00
55.8467 612.00
56.151 558.00
56.4553 666.00
56.7595 1456.00
57.0638 639.00
57.368 559.00
57.6723 526.00
57.9766 531.00
58.2808 566.00
58.5851 964.00
58.8893 3630.00
59.1936 735.00
59.4979 546.00
59.8021 517.00
60.1064 535.00
60.4106 610.00
60.7149 1292.00
61.0192 1166.00
61.3234 501.00
61.6277 449.00
61.932 441.00
62.2362 497.00
62.5405 445.00
62.8447 515.00
63.149 605.00
63.4533 666.00
63.7575 456.00
64.0618 439.00
64.366 444.00
64.6703 419.00
64.9745 420.00
65.2788 412.00
65.5831 397.00
65.8873 463.00
66.1916 498.00
66.4959 719.00
66.8001 419.00
67.1044 438.00
67.4086 456.00
67.7129 450.00
68.0172 704.00
68.3214 1766.00
68.6257 561.00
68.9299 473.00
69.2342 443.00
69.5385 530.00
69.8427 544.00
70.147 441.00
70.4512 590.00
70.7555 537.00
71.0598 427.00
71.364 415.00
71.6683 405.00
71.9725 440.00
72.2768 449.00
72.5811 472.00
72.8853 775.00
73.1896 691.00
73.4938 614.00
73.7981 611.00
74.1024 525.00
74.4066 886.00
74.7109 589.00
75.0151 779.00
75.3194 1765.00
75.6237 1213.00
75.9279 558.00
76.2322 485.00
76.5364 481.00
76.8407 481.00
77.145 472.00
77.4492 544.00
77.7535 1268.00
78.0577 1116.00
78.362 849.00
78.6663 494.00
78.9705 626.00
79.2748 457.00
79.579 460.00
79.8833 560.00
80.1876 652.00
80.4918 447.00
80.7961 453.00
81.1003 452.00
81.4046 392.00
81.7089 467.00
82.0131 559.00
82.3174 577.00
82.6217 656.00
82.9259 634.00
83.2302 445.00
83.5344 505.00
83.8387 519.00
84.143 1515.00
84.4472 808.00
84.7515 420.00
85.0557 405.00
85.36 433.00
85.6643 417.00
85.9685 444.00
86.2728 434.00
86.577 853.00
86.8813 1382.00
87.1856 937.00
87.4898 478.00
87.7941 407.00
88.0983 419.00
88.4026 435.00
88.7069 544.00
89.0111 1241.00
89.3154 857.00
89.6196 454.00
89.9239 449.00
90.2282 428.00
90.5324 455.00
90.8367 403.00
91.1409 432.00
91.4452 410.00
91.7495 413.00
92.0537 437.00
92.358 638.00
92.6622 613.00
92.9665 504.00
93.2708 755.00
93.575 662.00
93.8793 476.00
94.1835 406.00
94.4878 452.00
94.7921 441.00
95.0963 450.00
95.4006 485.00
95.7048 580.00
96.0091 1030.00
96.3134 1230.00
96.6176 770.00
96.9219 453.00
97.2261 437.00
97.5304 385.00
97.8347 678.00
98.1389 618.00
98.4432 489.00
98.7474 950.00
99.0517 646.00
99.356 472.00
99.6602 444.00
99.9645 431.00
100.095 520.00