File: data/xrd_creation/results/Na_105.xy
9.903433 2590.00
10.2077 2479.00
10.512 2346.00
10.8162 2314.00
11.1205 2178.00
11.4247 2103.00
11.729 2006.00
12.0333 1927.00
12.3375 1849.00
12.6418 1791.00
12.946 1661.00
13.2503 1575.00
13.5546 1504.00
13.8588 1599.00
14.1631 1445.00
14.4673 1487.00
14.7716 1415.00
15.0759 1486.00
15.3801 1371.00
15.6844 1284.00
15.9886 1497.00
16.2929 1334.00
16.5972 1182.00
16.9014 1186.00
17.2057 1156.00
17.5099 1137.00
17.8142 1114.00
18.1185 1156.00
18.4227 1113.00
18.727 1153.00
19.0312 1038.00
19.3355 1010.00
19.6398 932.00
19.944 970.00
20.2483 946.00
20.5525 1011.00
20.8568 938.00
21.1611 949.00
21.4653 974.00
21.7696 890.00
22.0738 871.00
22.3781 930.00
22.6824 889.00
22.9866 888.00
23.2909 862.00
23.5951 780.00
23.8994 776.00
24.2037 706.00
24.5079 772.00
24.8122 735.00
25.1164 764.00
25.4207 704.00
25.725 660.00
26.0292 725.00
26.3335 905.00
26.6378 1310.00
26.942 664.00
27.2463 690.00
27.5505 761.00
27.8548 674.00
28.1591 676.00
28.4633 652.00
28.7676 701.00
29.0718 810.00
29.3761 686.00
29.6804 554.00
29.9846 569.00
30.2889 515.00
30.5931 516.00
30.8974 547.00
31.2017 598.00
31.5059 535.00
31.8102 599.00
32.1144 546.00
32.4187 499.00
32.723 462.00
33.0272 496.00
33.3315 521.00
33.6357 760.00
33.94 1070.00
34.2443 537.00
34.5485 480.00
34.8528 471.00
35.157 515.00
35.4613 492.00
35.7656 464.00
36.0698 443.00
36.3741 529.00
36.6783 384.00
36.9826 369.00
37.2869 398.00
37.5911 405.00
37.8954 548.00
38.1996 439.00
38.5039 386.00
38.8082 408.00
39.1124 423.00
39.4167 365.00
39.7209 434.00
40.0252 359.00
40.3295 347.00
40.6337 363.00
40.938 335.00
41.2422 344.00
41.5465 293.00
41.8508 297.00
42.155 329.00
42.4593 272.00
42.7635 356.00
43.0678 377.00
43.3721 335.00
43.6763 375.00
43.9806 374.00
44.2849 353.00
44.5891 334.00
44.8934 316.00
45.1976 303.00
45.5019 320.00
45.8062 284.00
46.1104 288.00
46.4147 265.00
46.7189 288.00
47.0232 284.00
47.3275 305.00
47.6317 273.00
47.936 302.00
48.2402 262.00
48.5445 325.00
48.8488 315.00
49.153 303.00
49.4573 273.00
49.7615 271.00
50.0658 258.00
50.3701 277.00
50.6743 287.00
50.9786 321.00
51.2828 293.00
51.5871 427.00
51.8914 550.00
52.1956 290.00
52.4999 267.00
52.8041 234.00
53.1084 247.00
53.4127 239.00
53.7169 233.00
54.0212 238.00
54.3254 263.00
54.6297 347.00
54.934 335.00
55.2382 287.00
55.5425 258.00
55.8467 257.00
56.151 257.00
56.4553 216.00
56.7595 271.00
57.0638 257.00
57.368 257.00
57.6723 265.00
57.9766 277.00
58.2808 257.00
58.5851 205.00
58.8893 275.00
59.1936 227.00
59.4979 206.00
59.8021 200.00
60.1064 201.00
60.4106 209.00
60.7149 219.00
61.0192 225.00
61.3234 224.00
61.6277 241.00
61.932 282.00
62.2362 226.00
62.5405 201.00
62.8447 202.00
63.149 184.00
63.4533 233.00
63.7575 228.00
64.0618 215.00
64.366 203.00
64.6703 307.00
64.9745 257.00
65.2788 207.00
65.5831 229.00
65.8873 295.00
66.1916 248.00
66.4959 212.00
66.8001 185.00
67.1044 186.00
67.4086 194.00
67.7129 199.00
68.0172 179.00
68.3214 198.00
68.6257 209.00
68.9299 202.00
69.2342 183.00
69.5385 212.00
69.8427 190.00
70.147 207.00
70.4512 178.00
70.7555 222.00
71.0598 185.00
71.364 237.00
71.6683 197.00
71.9725 217.00
72.2768 209.00
72.5811 196.00
72.8853 193.00
73.1896 209.00
73.4938 180.00
73.7981 216.00
74.1024 182.00
74.4066 206.00
74.7109 203.00
75.0151 204.00
75.3194 192.00
75.6237 214.00
75.9279 219.00
76.2322 197.00
76.5364 201.00
76.8407 202.00
77.145 193.00
77.4492 210.00
77.7535 221.00
78.0577 215.00
78.362 221.00
78.6663 274.00
78.9705 278.00
79.2748 262.00
79.579 218.00
79.8833 213.00
80.1876 204.00
80.4918 228.00
80.7961 248.00
81.1003 257.00
81.4046 203.00
81.7089 227.00
82.0131 227.00
82.3174 242.00
82.6217 228.00
82.9259 216.00
83.2302 194.00
83.5344 223.00
83.8387 223.00
84.143 235.00
84.4472 210.00
84.7515 209.00
85.0557 205.00
85.36 201.00
85.6643 231.00
85.9685 214.00
86.2728 196.00
86.577 181.00
86.8813 209.00
87.1856 225.00
87.4898 195.00
87.7941 228.00
88.0983 218.00
88.4026 205.00
88.7069 189.00
89.0111 185.00
89.3154 193.00
89.6196 193.00
89.9239 199.00
90.2282 212.00
90.5324 209.00
90.8367 232.00
91.1409 220.00
91.4452 209.00
91.7495 188.00
92.0537 197.00
92.358 190.00
92.6622 198.00
92.9665 169.00
93.2708 217.00
93.575 200.00
93.8793 170.00
94.1835 196.00
94.4878 182.00
94.7921 189.00
95.0963 201.00
95.4006 188.00
95.7048 214.00
96.0091 192.00
96.3134 195.00
96.6176 176.00
96.9219 192.00
97.2261 165.00
97.5304 177.00
97.8347 224.00
98.1389 205.00
98.4432 199.00
98.7474 187.00
99.0517 189.00
99.356 166.00
99.6602 163.00
99.9645 188.00
100.095 187.00