File: data/xrd_creation/results/Na_115.xy
9.903433 2726.00
10.2077 2522.00
10.512 2550.00
10.8162 2445.00
11.1205 2345.00
11.4247 2650.00
11.729 4818.00
12.0333 2876.00
12.3375 2031.00
12.6418 2084.00
12.946 1984.00
13.2503 1890.00
13.5546 1888.00
13.8588 1806.00
14.1631 1722.00
14.4673 1712.00
14.7716 1792.00
15.0759 1792.00
15.3801 1778.00
15.6844 1756.00
15.9886 1706.00
16.2929 1972.00
16.5972 3291.00
16.9014 1644.00
17.2057 1433.00
17.5099 1528.00
17.8142 1516.00
18.1185 1846.00
18.4227 1601.00
18.727 1452.00
19.0312 1392.00
19.3355 1425.00
19.6398 1289.00
19.944 1358.00
20.2483 1351.00
20.5525 1466.00
20.8568 1340.00
21.1611 1472.00
21.4653 1257.00
21.7696 1210.00
22.0738 1250.00
22.3781 1157.00
22.6824 1232.00
22.9866 1119.00
23.2909 1257.00
23.5951 1197.00
23.8994 1107.00
24.2037 1201.00
24.5079 1525.00
24.8122 1527.00
25.1164 1051.00
25.4207 1235.00
25.725 1272.00
26.0292 3807.00
26.3335 2511.00
26.6378 1263.00
26.942 2170.00
27.2463 1206.00
27.5505 1146.00
27.8548 3113.00
28.1591 2681.00
28.4633 1093.00
28.7676 891.00
29.0718 808.00
29.3761 866.00
29.6804 896.00
29.9846 940.00
30.2889 1671.00
30.5931 1279.00
30.8974 892.00
31.2017 858.00
31.5059 1345.00
31.8102 1173.00
32.1144 1193.00
32.4187 958.00
32.723 990.00
33.0272 3858.00
33.3315 1681.00
33.6357 1012.00
33.94 1144.00
34.2443 2239.00
34.5485 4961.00
34.8528 2030.00
35.157 1142.00
35.4613 773.00
35.7656 753.00
36.0698 741.00
36.3741 987.00
36.6783 920.00
36.9826 991.00
37.2869 1017.00
37.5911 678.00
37.8954 820.00
38.1996 890.00
38.5039 730.00
38.8082 686.00
39.1124 745.00
39.4167 718.00
39.7209 679.00
40.0252 567.00
40.3295 648.00
40.6337 660.00
40.938 641.00
41.2422 672.00
41.5465 687.00
41.8508 1007.00
42.155 1106.00
42.4593 1330.00
42.7635 753.00
43.0678 636.00
43.3721 648.00
43.6763 890.00
43.9806 741.00
44.2849 606.00
44.5891 561.00
44.8934 580.00
45.1976 832.00
45.5019 738.00
45.8062 658.00
46.1104 603.00
46.4147 559.00
46.7189 581.00
47.0232 804.00
47.3275 1120.00
47.6317 1855.00
47.936 669.00
48.2402 581.00
48.5445 664.00
48.8488 696.00
49.153 973.00
49.4573 748.00
49.7615 1314.00
50.0658 1193.00
50.3701 1208.00
50.6743 644.00
50.9786 554.00
51.2828 610.00
51.5871 623.00
51.8914 1491.00
52.1956 1422.00
52.4999 643.00
52.8041 520.00
53.1084 794.00
53.4127 792.00
53.7169 581.00
54.0212 659.00
54.3254 631.00
54.6297 616.00
54.934 750.00
55.2382 663.00
55.5425 902.00
55.8467 637.00
56.151 670.00
56.4553 734.00
56.7595 661.00
57.0638 794.00
57.368 778.00
57.6723 608.00
57.9766 673.00
58.2808 826.00
58.5851 1313.00
58.8893 831.00
59.1936 910.00
59.4979 1405.00
59.8021 1525.00
60.1064 1061.00
60.4106 993.00
60.7149 590.00
61.0192 629.00
61.3234 555.00
61.6277 649.00
61.932 646.00
62.2362 788.00
62.5405 746.00
62.8447 618.00
63.149 788.00
63.4533 495.00
63.7575 558.00
64.0618 602.00
64.366 658.00
64.6703 610.00
64.9745 823.00
65.2788 680.00
65.5831 686.00
65.8873 791.00
66.1916 894.00
66.4959 654.00
66.8001 595.00
67.1044 501.00
67.4086 618.00
67.7129 462.00
68.0172 548.00
68.3214 457.00
68.6257 616.00
68.9299 632.00
69.2342 517.00
69.5385 464.00
69.8427 462.00
70.147 424.00
70.4512 407.00
70.7555 399.00
71.0598 424.00
71.364 427.00
71.6683 489.00
71.9725 450.00
72.2768 656.00
72.5811 476.00
72.8853 363.00
73.1896 460.00
73.4938 627.00
73.7981 427.00
74.1024 363.00
74.4066 516.00
74.7109 501.00
75.0151 407.00
75.3194 537.00
75.6237 410.00
75.9279 379.00
76.2322 489.00
76.5364 459.00
76.8407 489.00
77.145 501.00
77.4492 530.00
77.7535 451.00
78.0577 438.00
78.362 399.00
78.6663 486.00
78.9705 715.00
79.2748 605.00
79.579 440.00
79.8833 385.00
80.1876 497.00
80.4918 494.00
80.7961 438.00
81.1003 450.00
81.4046 463.00
81.7089 470.00
82.0131 415.00
82.3174 375.00
82.6217 499.00
82.9259 453.00
83.2302 394.00
83.5344 420.00
83.8387 491.00
84.143 508.00
84.4472 444.00
84.7515 537.00
85.0557 500.00
85.36 434.00
85.6643 411.00
85.9685 426.00
86.2728 475.00
86.577 508.00
86.8813 484.00
87.1856 489.00
87.4898 455.00
87.7941 418.00
88.0983 397.00
88.4026 493.00
88.7069 530.00
89.0111 413.00
89.3154 451.00
89.6196 494.00
89.9239 448.00
90.2282 472.00
90.5324 553.00
90.8367 477.00
91.1409 510.00
91.4452 520.00
91.7495 531.00
92.0537 475.00
92.358 396.00
92.6622 470.00
92.9665 470.00
93.2708 395.00
93.575 432.00
93.8793 418.00
94.1835 399.00
94.4878 379.00
94.7921 370.00
95.0963 372.00
95.4006 442.00
95.7048 450.00
96.0091 495.00
96.3134 491.00
96.6176 472.00
96.9219 496.00
97.2261 546.00
97.5304 507.00
97.8347 474.00
98.1389 464.00
98.4432 442.00
98.7474 446.00
99.0517 406.00
99.356 471.00
99.6602 485.00
99.9645 484.00
100.095 452.00