File: data/xrd_creation/results/Na_19.xy
9.903433 2744.00
10.2077 2719.00
10.512 2525.00
10.8162 2360.00
11.1205 2312.00
11.4247 2178.00
11.729 2127.00
12.0333 2077.00
12.3375 1941.00
12.6418 1837.00
12.946 1782.00
13.2503 1739.00
13.5546 1648.00
13.8588 1624.00
14.1631 1616.00
14.4673 1580.00
14.7716 1482.00
15.0759 1522.00
15.3801 1392.00
15.6844 1385.00
15.9886 1418.00
16.2929 1351.00
16.5972 1356.00
16.9014 1425.00
17.2057 1326.00
17.5099 1302.00
17.8142 1256.00
18.1185 1155.00
18.4227 1182.00
18.727 1213.00
19.0312 1150.00
19.3355 1160.00
19.6398 1125.00
19.944 1078.00
20.2483 1090.00
20.5525 1083.00
20.8568 1064.00
21.1611 1051.00
21.4653 1031.00
21.7696 1068.00
22.0738 1068.00
22.3781 1091.00
22.6824 1105.00
22.9866 1046.00
23.2909 1039.00
23.5951 1125.00
23.8994 1156.00
24.2037 1167.00
24.5079 1197.00
24.8122 1221.00
25.1164 1444.00
25.4207 1484.00
25.725 1482.00
26.0292 1541.00
26.3335 1286.00
26.6378 1077.00
26.942 1012.00
27.2463 929.00
27.5505 1163.00
27.8548 974.00
28.1591 887.00
28.4633 841.00
28.7676 824.00
29.0718 872.00
29.3761 751.00
29.6804 752.00
29.9846 1954.00
30.2889 1062.00
30.5931 775.00
30.8974 718.00
31.2017 726.00
31.5059 714.00
31.8102 676.00
32.1144 676.00
32.4187 619.00
32.723 612.00
33.0272 837.00
33.3315 658.00
33.6357 628.00
33.94 738.00
34.2443 1045.00
34.5485 973.00
34.8528 642.00
35.157 1506.00
35.4613 575.00
35.7656 594.00
36.0698 562.00
36.3741 509.00
36.6783 558.00
36.9826 533.00
37.2869 573.00
37.5911 621.00
37.8954 1593.00
38.1996 712.00
38.5039 622.00
38.8082 480.00
39.1124 491.00
39.4167 517.00
39.7209 601.00
40.0252 854.00
40.3295 479.00
40.6337 507.00
40.938 627.00
41.2422 721.00
41.5465 787.00
41.8508 553.00
42.155 473.00
42.4593 541.00
42.7635 550.00
43.0678 584.00
43.3721 541.00
43.6763 473.00
43.9806 464.00
44.2849 434.00
44.5891 496.00
44.8934 410.00
45.1976 407.00
45.5019 421.00
45.8062 432.00
46.1104 473.00
46.4147 796.00
46.7189 469.00
47.0232 442.00
47.3275 374.00
47.6317 369.00
47.936 406.00
48.2402 721.00
48.5445 442.00
48.8488 379.00
49.153 471.00
49.4573 404.00
49.7615 341.00
50.0658 364.00
50.3701 322.00
50.6743 403.00
50.9786 404.00
51.2828 401.00
51.5871 406.00
51.8914 373.00
52.1956 375.00
52.4999 402.00
52.8041 362.00
53.1084 378.00
53.4127 492.00
53.7169 419.00
54.0212 363.00
54.3254 350.00
54.6297 440.00
54.934 318.00
55.2382 379.00
55.5425 342.00
55.8467 358.00
56.151 367.00
56.4553 366.00
56.7595 331.00
57.0638 343.00
57.368 313.00
57.6723 295.00
57.9766 295.00
58.2808 340.00
58.5851 350.00
58.8893 397.00
59.1936 324.00
59.4979 282.00
59.8021 318.00
60.1064 296.00
60.4106 342.00
60.7149 313.00
61.0192 273.00
61.3234 281.00
61.6277 288.00
61.932 348.00
62.2362 287.00
62.5405 426.00
62.8447 345.00
63.149 303.00
63.4533 265.00
63.7575 324.00
64.0618 310.00
64.366 271.00
64.6703 280.00
64.9745 240.00
65.2788 244.00
65.5831 278.00
65.8873 273.00
66.1916 239.00
66.4959 229.00
66.8001 240.00
67.1044 269.00
67.4086 314.00
67.7129 248.00
68.0172 296.00
68.3214 242.00
68.6257 264.00
68.9299 256.00
69.2342 264.00
69.5385 210.00
69.8427 231.00
70.147 228.00
70.4512 233.00
70.7555 232.00
71.0598 266.00
71.364 258.00
71.6683 226.00
71.9725 241.00
72.2768 297.00
72.5811 281.00
72.8853 273.00
73.1896 273.00
73.4938 266.00
73.7981 271.00
74.1024 239.00
74.4066 291.00
74.7109 279.00
75.0151 269.00
75.3194 264.00
75.6237 270.00
75.9279 274.00
76.2322 273.00
76.5364 248.00
76.8407 234.00
77.145 269.00
77.4492 245.00
77.7535 290.00
78.0577 278.00
78.362 288.00
78.6663 283.00
78.9705 277.00
79.2748 295.00
79.579 288.00
79.8833 315.00
80.1876 307.00
80.4918 321.00
80.7961 249.00
81.1003 277.00
81.4046 276.00
81.7089 337.00
82.0131 322.00
82.3174 273.00
82.6217 274.00
82.9259 293.00
83.2302 308.00
83.5344 275.00
83.8387 308.00
84.143 257.00
84.4472 288.00
84.7515 274.00
85.0557 270.00
85.36 296.00
85.6643 283.00
85.9685 258.00
86.2728 264.00
86.577 241.00
86.8813 256.00
87.1856 247.00
87.4898 268.00
87.7941 272.00
88.0983 234.00
88.4026 221.00
88.7069 230.00
89.0111 230.00
89.3154 215.00
89.6196 261.00
89.9239 216.00
90.2282 222.00
90.5324 228.00
90.8367 235.00
91.1409 245.00
91.4452 257.00
91.7495 230.00
92.0537 238.00
92.358 260.00
92.6622 239.00
92.9665 258.00
93.2708 283.00
93.575 228.00
93.8793 244.00
94.1835 237.00
94.4878 210.00
94.7921 239.00
95.0963 218.00
95.4006 230.00
95.7048 268.00
96.0091 233.00
96.3134 209.00
96.6176 280.00
96.9219 216.00
97.2261 234.00
97.5304 224.00
97.8347 191.00
98.1389 235.00
98.4432 204.00
98.7474 228.00
99.0517 229.00
99.356 225.00
99.6602 220.00
99.9645 270.00
100.095 207.00