File: data/xrd_creation/results/Na_18.xy
9.903433 3033.00
10.2077 2879.00
10.512 2836.00
10.8162 2703.00
11.1205 2618.00
11.4247 2591.00
11.729 2505.00
12.0333 2347.00
12.3375 2377.00
12.6418 2241.00
12.946 2224.00
13.2503 2077.00
13.5546 2120.00
13.8588 2014.00
14.1631 1996.00
14.4673 2008.00
14.7716 1957.00
15.0759 1938.00
15.3801 1829.00
15.6844 1815.00
15.9886 1756.00
16.2929 1800.00
16.5972 1802.00
16.9014 1727.00
17.2057 1727.00
17.5099 1749.00
17.8142 1614.00
18.1185 1688.00
18.4227 1554.00
18.727 1620.00
19.0312 1595.00
19.3355 1543.00
19.6398 1608.00
19.944 1733.00
20.2483 1502.00
20.5525 1540.00
20.8568 1607.00
21.1611 1530.00
21.4653 1475.00
21.7696 1567.00
22.0738 1518.00
22.3781 1571.00
22.6824 1677.00
22.9866 1919.00
23.2909 1856.00
23.5951 1946.00
23.8994 2332.00
24.2037 2026.00
24.5079 2235.00
24.8122 2485.00
25.1164 2838.00
25.4207 3173.00
25.725 3614.00
26.0292 4250.00
26.3335 4616.00
26.6378 2853.00
26.942 2296.00
27.2463 2038.00
27.5505 2467.00
27.8548 3290.00
28.1591 1499.00
28.4633 1290.00
28.7676 1254.00
29.0718 1244.00
29.3761 1420.00
29.6804 1381.00
29.9846 2921.00
30.2889 8962.00
30.5931 2888.00
30.8974 1559.00
31.2017 1368.00
31.5059 1333.00
31.8102 1892.00
32.1144 1342.00
32.4187 1115.00
32.723 1114.00
33.0272 2374.00
33.3315 3106.00
33.6357 1235.00
33.94 1451.00
34.2443 3669.00
34.5485 6378.00
34.8528 4505.00
35.157 3858.00
35.4613 8513.00
35.7656 1583.00
36.0698 1171.00
36.3741 1085.00
36.6783 1138.00
36.9826 1258.00
37.2869 1211.00
37.5911 1677.00
37.8954 4515.00
38.1996 11101.00
38.5039 2850.00
38.8082 1695.00
39.1124 1146.00
39.4167 1134.00
39.7209 1565.00
40.0252 4523.00
40.3295 3583.00
40.6337 1134.00
40.938 1560.00
41.2422 3928.00
41.5465 5151.00
41.8508 3289.00
42.155 1210.00
42.4593 1506.00
42.7635 1702.00
43.0678 1419.00
43.3721 1291.00
43.6763 1178.00
43.9806 1172.00
44.2849 1221.00
44.5891 1978.00
44.8934 1578.00
45.1976 1101.00
45.5019 1360.00
45.8062 1179.00
46.1104 1037.00
46.4147 2309.00
46.7189 3704.00
47.0232 1501.00
47.3275 1463.00
47.6317 866.00
47.936 1066.00
48.2402 2557.00
48.5445 3510.00
48.8488 1108.00
49.153 902.00
49.4573 1068.00
49.7615 765.00
50.0658 796.00
50.3701 775.00
50.6743 849.00
50.9786 1187.00
51.2828 979.00
51.5871 759.00
51.8914 740.00
52.1956 782.00
52.4999 781.00
52.8041 840.00
53.1084 876.00
53.4127 1461.00
53.7169 2302.00
54.0212 1280.00
54.3254 914.00
54.6297 1741.00
54.934 1662.00
55.2382 894.00
55.5425 1125.00
55.8467 859.00
56.151 961.00
56.4553 1546.00
56.7595 1083.00
57.0638 979.00
57.368 1022.00
57.6723 741.00
57.9766 706.00
58.2808 905.00
58.5851 1439.00
58.8893 1272.00
59.1936 1495.00
59.4979 861.00
59.8021 670.00
60.1064 654.00
60.4106 780.00
60.7149 1206.00
61.0192 941.00
61.3234 613.00
61.6277 601.00
61.932 978.00
62.2362 1100.00
62.5405 1086.00
62.8447 1571.00
63.149 776.00
63.4533 671.00
63.7575 887.00
64.0618 1202.00
64.366 768.00
64.6703 534.00
64.9745 562.00
65.2788 544.00
65.5831 512.00
65.8873 585.00
66.1916 576.00
66.4959 452.00
66.8001 471.00
67.1044 419.00
67.4086 783.00
67.7129 804.00
68.0172 534.00
68.3214 505.00
68.6257 477.00
68.9299 481.00
69.2342 480.00
69.5385 527.00
69.8427 552.00
70.147 611.00
70.4512 519.00
70.7555 483.00
71.0598 437.00
71.364 438.00
71.6683 547.00
71.9725 673.00
72.2768 781.00
72.5811 702.00
72.8853 521.00
73.1896 515.00
73.4938 658.00
73.7981 573.00
74.1024 413.00
74.4066 589.00
74.7109 982.00
75.0151 523.00
75.3194 493.00
75.6237 494.00
75.9279 488.00
76.2322 566.00
76.5364 478.00
76.8407 483.00
77.145 478.00
77.4492 490.00
77.7535 525.00
78.0577 553.00
78.362 534.00
78.6663 512.00
78.9705 561.00
79.2748 644.00
79.579 746.00
79.8833 677.00
80.1876 859.00
80.4918 1063.00
80.7961 703.00
81.1003 471.00
81.4046 514.00
81.7089 496.00
82.0131 504.00
82.3174 521.00
82.6217 511.00
82.9259 530.00
83.2302 543.00
83.5344 603.00
83.8387 507.00
84.143 640.00
84.4472 585.00
84.7515 539.00
85.0557 511.00
85.36 522.00
85.6643 551.00
85.9685 507.00
86.2728 457.00
86.577 452.00
86.8813 426.00
87.1856 435.00
87.4898 475.00
87.7941 508.00
88.0983 492.00
88.4026 461.00
88.7069 442.00
89.0111 404.00
89.3154 533.00
89.6196 530.00
89.9239 550.00
90.2282 569.00
90.5324 491.00
90.8367 450.00
91.1409 468.00
91.4452 478.00
91.7495 463.00
92.0537 453.00
92.358 445.00
92.6622 459.00
92.9665 453.00
93.2708 679.00
93.575 677.00
93.8793 651.00
94.1835 521.00
94.4878 443.00
94.7921 430.00
95.0963 438.00
95.4006 470.00
95.7048 455.00
96.0091 533.00
96.3134 428.00
96.6176 422.00
96.9219 371.00
97.2261 388.00
97.5304 382.00
97.8347 391.00
98.1389 437.00
98.4432 460.00
98.7474 497.00
99.0517 512.00
99.356 619.00
99.6602 494.00
99.9645 413.00
100.095 448.00