File: data/xrd_creation/results/Na_14.xy
9.903433 2762.00
10.2077 2583.00
10.512 2463.00
10.8162 2398.00
11.1205 2254.00
11.4247 2111.00
11.729 2125.00
12.0333 2075.00
12.3375 2001.00
12.6418 1844.00
12.946 1785.00
13.2503 1738.00
13.5546 1629.00
13.8588 1562.00
14.1631 1501.00
14.4673 1571.00
14.7716 1394.00
15.0759 1451.00
15.3801 1405.00
15.6844 1326.00
15.9886 1312.00
16.2929 1284.00
16.5972 1272.00
16.9014 1236.00
17.2057 1205.00
17.5099 1158.00
17.8142 1155.00
18.1185 1178.00
18.4227 1098.00
18.727 1014.00
19.0312 1039.00
19.3355 1060.00
19.6398 931.00
19.944 1002.00
20.2483 993.00
20.5525 922.00
20.8568 954.00
21.1611 896.00
21.4653 885.00
21.7696 879.00
22.0738 843.00
22.3781 841.00
22.6824 813.00
22.9866 865.00
23.2909 798.00
23.5951 756.00
23.8994 807.00
24.2037 790.00
24.5079 911.00
24.8122 739.00
25.1164 708.00
25.4207 729.00
25.725 958.00
26.0292 776.00
26.3335 725.00
26.6378 709.00
26.942 649.00
27.2463 704.00
27.5505 687.00
27.8548 653.00
28.1591 730.00
28.4633 669.00
28.7676 629.00
29.0718 689.00
29.3761 607.00
29.6804 591.00
29.9846 541.00
30.2889 615.00
30.5931 605.00
30.8974 531.00
31.2017 628.00
31.5059 485.00
31.8102 514.00
32.1144 536.00
32.4187 572.00
32.723 594.00
33.0272 512.00
33.3315 505.00
33.6357 508.00
33.94 523.00
34.2443 511.00
34.5485 449.00
34.8528 542.00
35.157 486.00
35.4613 465.00
35.7656 443.00
36.0698 389.00
36.3741 443.00
36.6783 405.00
36.9826 431.00
37.2869 390.00
37.5911 412.00
37.8954 416.00
38.1996 369.00
38.5039 410.00
38.8082 384.00
39.1124 394.00
39.4167 402.00
39.7209 368.00
40.0252 373.00
40.3295 372.00
40.6337 365.00
40.938 380.00
41.2422 354.00
41.5465 372.00
41.8508 356.00
42.155 370.00
42.4593 338.00
42.7635 321.00
43.0678 366.00
43.3721 364.00
43.6763 356.00
43.9806 360.00
44.2849 377.00
44.5891 346.00
44.8934 329.00
45.1976 290.00
45.5019 313.00
45.8062 306.00
46.1104 276.00
46.4147 345.00
46.7189 317.00
47.0232 297.00
47.3275 295.00
47.6317 313.00
47.936 330.00
48.2402 297.00
48.5445 320.00
48.8488 307.00
49.153 328.00
49.4573 262.00
49.7615 295.00
50.0658 300.00
50.3701 319.00
50.6743 286.00
50.9786 250.00
51.2828 269.00
51.5871 296.00
51.8914 296.00
52.1956 263.00
52.4999 276.00
52.8041 248.00
53.1084 257.00
53.4127 233.00
53.7169 250.00
54.0212 276.00
54.3254 248.00
54.6297 248.00
54.934 262.00
55.2382 243.00
55.5425 273.00
55.8467 225.00
56.151 260.00
56.4553 240.00
56.7595 194.00
57.0638 237.00
57.368 237.00
57.6723 219.00
57.9766 249.00
58.2808 236.00
58.5851 257.00
58.8893 226.00
59.1936 222.00
59.4979 196.00
59.8021 226.00
60.1064 218.00
60.4106 196.00
60.7149 214.00
61.0192 202.00
61.3234 208.00
61.6277 218.00
61.932 221.00
62.2362 211.00
62.5405 229.00
62.8447 232.00
63.149 216.00
63.4533 213.00
63.7575 207.00
64.0618 238.00
64.366 189.00
64.6703 198.00
64.9745 200.00
65.2788 222.00
65.5831 210.00
65.8873 197.00
66.1916 201.00
66.4959 230.00
66.8001 183.00
67.1044 207.00
67.4086 197.00
67.7129 217.00
68.0172 208.00
68.3214 205.00
68.6257 170.00
68.9299 182.00
69.2342 240.00
69.5385 212.00
69.8427 214.00
70.147 192.00
70.4512 209.00
70.7555 230.00
71.0598 197.00
71.364 209.00
71.6683 179.00
71.9725 183.00
72.2768 212.00
72.5811 207.00
72.8853 211.00
73.1896 218.00
73.4938 219.00
73.7981 214.00
74.1024 166.00
74.4066 198.00
74.7109 203.00
75.0151 209.00
75.3194 200.00
75.6237 212.00
75.9279 214.00
76.2322 241.00
76.5364 217.00
76.8407 219.00
77.145 195.00
77.4492 218.00
77.7535 204.00
78.0577 206.00
78.362 212.00
78.6663 233.00
78.9705 191.00
79.2748 202.00
79.579 189.00
79.8833 218.00
80.1876 213.00
80.4918 212.00
80.7961 233.00
81.1003 216.00
81.4046 206.00
81.7089 220.00
82.0131 214.00
82.3174 211.00
82.6217 218.00
82.9259 226.00
83.2302 229.00
83.5344 211.00
83.8387 198.00
84.143 209.00
84.4472 218.00
84.7515 235.00
85.0557 192.00
85.36 247.00
85.6643 216.00
85.9685 192.00
86.2728 197.00
86.577 204.00
86.8813 212.00
87.1856 226.00
87.4898 202.00
87.7941 196.00
88.0983 220.00
88.4026 195.00
88.7069 182.00
89.0111 194.00
89.3154 214.00
89.6196 231.00
89.9239 175.00
90.2282 194.00
90.5324 206.00
90.8367 184.00
91.1409 184.00
91.4452 205.00
91.7495 188.00
92.0537 169.00
92.358 206.00
92.6622 187.00
92.9665 150.00
93.2708 184.00
93.575 201.00
93.8793 176.00
94.1835 173.00
94.4878 161.00
94.7921 193.00
95.0963 162.00
95.4006 181.00
95.7048 185.00
96.0091 163.00
96.3134 193.00
96.6176 191.00
96.9219 170.00
97.2261 175.00
97.5304 182.00
97.8347 197.00
98.1389 196.00
98.4432 169.00
98.7474 191.00
99.0517 177.00
99.356 186.00
99.6602 201.00
99.9645 185.00
100.095 164.00