File: data/xrd_creation/results/Na_186.xy
9.903433 2799.00
10.2077 2778.00
10.512 2805.00
10.8162 2524.00
11.1205 2682.00
11.4247 3546.00
11.729 8632.00
12.0333 3004.00
12.3375 2440.00
12.6418 2310.00
12.946 2242.00
13.2503 2198.00
13.5546 2083.00
13.8588 2157.00
14.1631 2241.00
14.4673 2025.00
14.7716 2073.00
15.0759 1950.00
15.3801 1932.00
15.6844 1897.00
15.9886 1984.00
16.2929 2625.00
16.5972 3601.00
16.9014 1871.00
17.2057 1868.00
17.5099 1866.00
17.8142 2040.00
18.1185 2545.00
18.4227 1846.00
18.727 1688.00
19.0312 1719.00
19.3355 1592.00
19.6398 1937.00
19.944 2259.00
20.2483 1664.00
20.5525 1626.00
20.8568 2150.00
21.1611 1702.00
21.4653 1537.00
21.7696 1518.00
22.0738 1531.00
22.3781 1555.00
22.6824 1535.00
22.9866 1770.00
23.2909 2622.00
23.5951 1988.00
23.8994 1692.00
24.2037 2347.00
24.5079 2406.00
24.8122 1840.00
25.1164 1520.00
25.4207 1698.00
25.725 1825.00
26.0292 5210.00
26.3335 2006.00
26.6378 2254.00
26.942 7394.00
27.2463 2331.00
27.5505 5280.00
27.8548 2657.00
28.1591 1686.00
28.4633 1891.00
28.7676 1445.00
29.0718 1375.00
29.3761 1329.00
29.6804 1509.00
29.9846 2074.00
30.2889 1955.00
30.5931 1560.00
30.8974 1426.00
31.2017 2132.00
31.5059 2614.00
31.8102 3314.00
32.1144 1485.00
32.4187 1340.00
32.723 1476.00
33.0272 6442.00
33.3315 1486.00
33.6357 1573.00
33.94 3401.00
34.2443 13417.00
34.5485 3657.00
34.8528 1860.00
35.157 1357.00
35.4613 1223.00
35.7656 1259.00
36.0698 1330.00
36.3741 1332.00
36.6783 1297.00
36.9826 1338.00
37.2869 1416.00
37.5911 1295.00
37.8954 1248.00
38.1996 2238.00
38.5039 1280.00
38.8082 1148.00
39.1124 1236.00
39.4167 1265.00
39.7209 1110.00
40.0252 1169.00
40.3295 1103.00
40.6337 1104.00
40.938 1226.00
41.2422 1144.00
41.5465 1677.00
41.8508 1660.00
42.155 1500.00
42.4593 1637.00
42.7635 1093.00
43.0678 1095.00
43.3721 1411.00
43.6763 1194.00
43.9806 1076.00
44.2849 1028.00
44.5891 1096.00
44.8934 1422.00
45.1976 1197.00
45.5019 1078.00
45.8062 1182.00
46.1104 1122.00
46.4147 1231.00
46.7189 1213.00
47.0232 1897.00
47.3275 1924.00
47.6317 2280.00
47.936 1114.00
48.2402 1084.00
48.5445 1173.00
48.8488 1210.00
49.153 1729.00
49.4573 1658.00
49.7615 1629.00
50.0658 1489.00
50.3701 1560.00
50.6743 1389.00
50.9786 1716.00
51.2828 1448.00
51.5871 1180.00
51.8914 2025.00
52.1956 3794.00
52.4999 1340.00
52.8041 1144.00
53.1084 1281.00
53.4127 1272.00
53.7169 1260.00
54.0212 1132.00
54.3254 1134.00
54.6297 1068.00
54.934 1408.00
55.2382 1652.00
55.5425 1297.00
55.8467 1253.00
56.151 1223.00
56.4553 1173.00
56.7595 1390.00
57.0638 1231.00
57.368 1170.00
57.6723 1295.00
57.9766 1597.00
58.2808 1692.00
58.5851 1171.00
58.8893 1122.00
59.1936 1593.00
59.4979 2256.00
59.8021 1439.00
60.1064 1461.00
60.4106 1207.00
60.7149 1204.00
61.0192 1220.00
61.3234 1046.00
61.6277 1350.00
61.932 1417.00
62.2362 1838.00
62.5405 1227.00
62.8447 1080.00
63.149 1058.00
63.4533 935.00
63.7575 1041.00
64.0618 1123.00
64.366 1084.00
64.6703 1083.00
64.9745 1686.00
65.2788 1188.00
65.5831 1149.00
65.8873 1232.00
66.1916 1819.00
66.4959 1329.00
66.8001 1074.00
67.1044 984.00
67.4086 971.00
67.7129 1009.00
68.0172 979.00
68.3214 971.00
68.6257 955.00
68.9299 933.00
69.2342 859.00
69.5385 836.00
69.8427 862.00
70.147 810.00
70.4512 839.00
70.7555 854.00
71.0598 827.00
71.364 1055.00
71.6683 1346.00
71.9725 965.00
72.2768 826.00
72.5811 937.00
72.8853 881.00
73.1896 842.00
73.4938 744.00
73.7981 793.00
74.1024 823.00
74.4066 770.00
74.7109 806.00
75.0151 780.00
75.3194 854.00
75.6237 847.00
75.9279 776.00
76.2322 851.00
76.5364 803.00
76.8407 864.00
77.145 843.00
77.4492 788.00
77.7535 771.00
78.0577 737.00
78.362 767.00
78.6663 921.00
78.9705 1404.00
79.2748 1053.00
79.579 837.00
79.8833 847.00
80.1876 898.00
80.4918 860.00
80.7961 873.00
81.1003 962.00
81.4046 975.00
81.7089 881.00
82.0131 805.00
82.3174 799.00
82.6217 764.00
82.9259 767.00
83.2302 761.00
83.5344 765.00
83.8387 1061.00
84.143 1048.00
84.4472 1003.00
84.7515 927.00
85.0557 906.00
85.36 859.00
85.6643 802.00
85.9685 756.00
86.2728 811.00
86.577 788.00
86.8813 787.00
87.1856 835.00
87.4898 908.00
87.7941 839.00
88.0983 839.00
88.4026 862.00
88.7069 800.00
89.0111 837.00
89.3154 831.00
89.6196 861.00
89.9239 1128.00
90.2282 1106.00
90.5324 909.00
90.8367 911.00
91.1409 1171.00
91.4452 1020.00
91.7495 820.00
92.0537 812.00
92.358 799.00
92.6622 812.00
92.9665 768.00
93.2708 759.00
93.575 862.00
93.8793 785.00
94.1835 787.00
94.4878 726.00
94.7921 691.00
95.0963 781.00
95.4006 808.00
95.7048 786.00
96.0091 799.00
96.3134 880.00
96.6176 857.00
96.9219 818.00
97.2261 884.00
97.5304 821.00
97.8347 746.00
98.1389 732.00
98.4432 754.00
98.7474 744.00
99.0517 787.00
99.356 784.00
99.6602 877.00
99.9645 751.00
100.095 788.00