File: data/xrd_creation/results/Na_140.xy
9.903433 2694.00
10.2077 2563.00
10.512 2506.00
10.8162 2305.00
11.1205 2201.00
11.4247 2211.00
11.729 2145.00
12.0333 2029.00
12.3375 2025.00
12.6418 1892.00
12.946 1905.00
13.2503 1759.00
13.5546 1753.00
13.8588 1795.00
14.1631 1698.00
14.4673 1754.00
14.7716 1670.00
15.0759 1617.00
15.3801 1614.00
15.6844 1648.00
15.9886 1598.00
16.2929 1617.00
16.5972 1510.00
16.9014 1460.00
17.2057 1448.00
17.5099 1434.00
17.8142 1460.00
18.1185 1350.00
18.4227 1334.00
18.727 1438.00
19.0312 1412.00
19.3355 1338.00
19.6398 1370.00
19.944 1309.00
20.2483 1263.00
20.5525 1236.00
20.8568 1191.00
21.1611 1169.00
21.4653 1168.00
21.7696 1232.00
22.0738 1216.00
22.3781 1400.00
22.6824 1369.00
22.9866 1201.00
23.2909 1121.00
23.5951 1107.00
23.8994 1050.00
24.2037 1106.00
24.5079 1100.00
24.8122 1047.00
25.1164 986.00
25.4207 1029.00
25.725 1035.00
26.0292 1062.00
26.3335 1160.00
26.6378 2285.00
26.942 9223.00
27.2463 1416.00
27.5505 1018.00
27.8548 1005.00
28.1591 951.00
28.4633 916.00
28.7676 827.00
29.0718 849.00
29.3761 890.00
29.6804 834.00
29.9846 780.00
30.2889 814.00
30.5931 801.00
30.8974 771.00
31.2017 743.00
31.5059 803.00
31.8102 812.00
32.1144 810.00
32.4187 776.00
32.723 710.00
33.0272 811.00
33.3315 814.00
33.6357 895.00
33.94 1967.00
34.2443 7571.00
34.5485 1131.00
34.8528 796.00
35.157 698.00
35.4613 666.00
35.7656 681.00
36.0698 663.00
36.3741 628.00
36.6783 615.00
36.9826 646.00
37.2869 694.00
37.5911 750.00
37.8954 802.00
38.1996 2430.00
38.5039 950.00
38.8082 577.00
39.1124 676.00
39.4167 880.00
39.7209 595.00
40.0252 570.00
40.3295 557.00
40.6337 533.00
40.938 517.00
41.2422 525.00
41.5465 513.00
41.8508 502.00
42.155 494.00
42.4593 525.00
42.7635 536.00
43.0678 536.00
43.3721 477.00
43.6763 434.00
43.9806 465.00
44.2849 507.00
44.5891 472.00
44.8934 456.00
45.1976 448.00
45.5019 458.00
45.8062 448.00
46.1104 449.00
46.4147 470.00
46.7189 501.00
47.0232 448.00
47.3275 467.00
47.6317 396.00
47.936 457.00
48.2402 481.00
48.5445 443.00
48.8488 419.00
49.153 410.00
49.4573 472.00
49.7615 439.00
50.0658 459.00
50.3701 497.00
50.6743 522.00
50.9786 511.00
51.2828 535.00
51.5871 772.00
51.8914 2328.00
52.1956 5358.00
52.4999 854.00
52.8041 548.00
53.1084 553.00
53.4127 461.00
53.7169 421.00
54.0212 386.00
54.3254 452.00
54.6297 484.00
54.934 1260.00
55.2382 1197.00
55.5425 484.00
55.8467 405.00
56.151 428.00
56.4553 431.00
56.7595 460.00
57.0638 402.00
57.368 432.00
57.6723 452.00
57.9766 756.00
58.2808 863.00
58.5851 456.00
58.8893 430.00
59.1936 431.00
59.4979 403.00
59.8021 409.00
60.1064 388.00
60.4106 455.00
60.7149 462.00
61.0192 456.00
61.3234 430.00
61.6277 435.00
61.932 661.00
62.2362 1680.00
62.5405 586.00
62.8447 449.00
63.149 379.00
63.4533 397.00
63.7575 345.00
64.0618 379.00
64.366 414.00
64.6703 547.00
64.9745 1860.00
65.2788 890.00
65.5831 504.00
65.8873 537.00
66.1916 2109.00
66.4959 1073.00
66.8001 466.00
67.1044 369.00
67.4086 373.00
67.7129 337.00
68.0172 347.00
68.3214 338.00
68.6257 350.00
68.9299 384.00
69.2342 366.00
69.5385 379.00
69.8427 374.00
70.147 337.00
70.4512 345.00
70.7555 328.00
71.0598 412.00
71.364 610.00
71.6683 886.00
71.9725 432.00
72.2768 337.00
72.5811 357.00
72.8853 284.00
73.1896 337.00
73.4938 332.00
73.7981 308.00
74.1024 330.00
74.4066 326.00
74.7109 322.00
75.0151 340.00
75.3194 321.00
75.6237 287.00
75.9279 333.00
76.2322 305.00
76.5364 322.00
76.8407 327.00
77.145 286.00
77.4492 311.00
77.7535 304.00
78.0577 311.00
78.362 334.00
78.6663 483.00
78.9705 1495.00
79.2748 796.00
79.579 405.00
79.8833 321.00
80.1876 307.00
80.4918 334.00
80.7961 315.00
81.1003 363.00
81.4046 617.00
81.7089 416.00
82.0131 347.00
82.3174 328.00
82.6217 294.00
82.9259 323.00
83.2302 337.00
83.5344 361.00
83.8387 761.00
84.143 862.00
84.4472 436.00
84.7515 332.00
85.0557 314.00
85.36 285.00
85.6643 286.00
85.9685 317.00
86.2728 271.00
86.577 313.00
86.8813 305.00
87.1856 386.00
87.4898 705.00
87.7941 529.00
88.0983 387.00
88.4026 315.00
88.7069 327.00
89.0111 314.00
89.3154 366.00
89.6196 409.00
89.9239 1070.00
90.2282 946.00
90.5324 492.00
90.8367 570.00
91.1409 1299.00
91.4452 915.00
91.7495 368.00
92.0537 341.00
92.358 346.00
92.6622 350.00
92.9665 349.00
93.2708 473.00
93.575 722.00
93.8793 538.00
94.1835 378.00
94.4878 316.00
94.7921 303.00
95.0963 265.00
95.4006 338.00
95.7048 340.00
96.0091 454.00
96.3134 639.00
96.6176 482.00
96.9219 309.00
97.2261 317.00
97.5304 288.00
97.8347 334.00
98.1389 304.00
98.4432 291.00
98.7474 282.00
99.0517 304.00
99.356 304.00
99.6602 299.00
99.9645 293.00
100.095 299.00