File: data/xrd_creation/results/Na_124.xy
9.903433 2697.00
10.2077 2643.00
10.512 2539.00
10.8162 2287.00
11.1205 2284.00
11.4247 2270.00
11.729 2063.00
12.0333 2048.00
12.3375 2035.00
12.6418 1863.00
12.946 1921.00
13.2503 1871.00
13.5546 1809.00
13.8588 1798.00
14.1631 1766.00
14.4673 1814.00
14.7716 1717.00
15.0759 1640.00
15.3801 1708.00
15.6844 1523.00
15.9886 1607.00
16.2929 1599.00
16.5972 1443.00
16.9014 1438.00
17.2057 1481.00
17.5099 1476.00
17.8142 1424.00
18.1185 1419.00
18.4227 1405.00
18.727 1449.00
19.0312 1372.00
19.3355 1471.00
19.6398 1608.00
19.944 1679.00
20.2483 1348.00
20.5525 1239.00
20.8568 1248.00
21.1611 1248.00
21.4653 1805.00
21.7696 1361.00
22.0738 1250.00
22.3781 1505.00
22.6824 1828.00
22.9866 1232.00
23.2909 1168.00
23.5951 1086.00
23.8994 1109.00
24.2037 1062.00
24.5079 1537.00
24.8122 1082.00
25.1164 1119.00
25.4207 1100.00
25.725 977.00
26.0292 1010.00
26.3335 1004.00
26.6378 1582.00
26.942 6525.00
27.2463 1259.00
27.5505 999.00
27.8548 993.00
28.1591 934.00
28.4633 865.00
28.7676 886.00
29.0718 838.00
29.3761 1250.00
29.6804 917.00
29.9846 823.00
30.2889 841.00
30.5931 805.00
30.8974 776.00
31.2017 796.00
31.5059 858.00
31.8102 1635.00
32.1144 1165.00
32.4187 815.00
32.723 793.00
33.0272 764.00
33.3315 839.00
33.6357 861.00
33.94 1423.00
34.2443 5128.00
34.5485 954.00
34.8528 714.00
35.157 651.00
35.4613 702.00
35.7656 646.00
36.0698 616.00
36.3741 697.00
36.6783 815.00
36.9826 689.00
37.2869 787.00
37.5911 1116.00
37.8954 1059.00
38.1996 1727.00
38.5039 870.00
38.8082 688.00
39.1124 685.00
39.4167 809.00
39.7209 589.00
40.0252 559.00
40.3295 572.00
40.6337 550.00
40.938 556.00
41.2422 552.00
41.5465 574.00
41.8508 509.00
42.155 501.00
42.4593 512.00
42.7635 527.00
43.0678 593.00
43.3721 522.00
43.6763 665.00
43.9806 498.00
44.2849 549.00
44.5891 619.00
44.8934 505.00
45.1976 478.00
45.5019 506.00
45.8062 562.00
46.1104 564.00
46.4147 498.00
46.7189 539.00
47.0232 524.00
47.3275 515.00
47.6317 484.00
47.936 467.00
48.2402 557.00
48.5445 497.00
48.8488 459.00
49.153 450.00
49.4573 481.00
49.7615 665.00
50.0658 752.00
50.3701 566.00
50.6743 536.00
50.9786 516.00
51.2828 545.00
51.5871 786.00
51.8914 1911.00
52.1956 3774.00
52.4999 771.00
52.8041 539.00
53.1084 459.00
53.4127 476.00
53.7169 480.00
54.0212 435.00
54.3254 448.00
54.6297 485.00
54.934 1011.00
55.2382 990.00
55.5425 473.00
55.8467 521.00
56.151 510.00
56.4553 465.00
56.7595 505.00
57.0638 570.00
57.368 486.00
57.6723 512.00
57.9766 742.00
58.2808 762.00
58.5851 540.00
58.8893 524.00
59.1936 424.00
59.4979 402.00
59.8021 442.00
60.1064 475.00
60.4106 583.00
60.7149 574.00
61.0192 490.00
61.3234 517.00
61.6277 524.00
61.932 696.00
62.2362 1178.00
62.5405 553.00
62.8447 432.00
63.149 414.00
63.4533 483.00
63.7575 511.00
64.0618 553.00
64.366 426.00
64.6703 536.00
64.9745 1330.00
65.2788 711.00
65.5831 482.00
65.8873 573.00
66.1916 1455.00
66.4959 986.00
66.8001 516.00
67.1044 447.00
67.4086 436.00
67.7129 422.00
68.0172 400.00
68.3214 393.00
68.6257 378.00
68.9299 361.00
69.2342 372.00
69.5385 449.00
69.8427 402.00
70.147 435.00
70.4512 388.00
70.7555 418.00
71.0598 418.00
71.364 590.00
71.6683 745.00
71.9725 406.00
72.2768 362.00
72.5811 353.00
72.8853 388.00
73.1896 382.00
73.4938 378.00
73.7981 360.00
74.1024 375.00
74.4066 411.00
74.7109 394.00
75.0151 401.00
75.3194 342.00
75.6237 355.00
75.9279 382.00
76.2322 366.00
76.5364 338.00
76.8407 374.00
77.145 305.00
77.4492 326.00
77.7535 349.00
78.0577 373.00
78.362 412.00
78.6663 490.00
78.9705 1081.00
79.2748 725.00
79.579 475.00
79.8833 388.00
80.1876 352.00
80.4918 348.00
80.7961 332.00
81.1003 393.00
81.4046 540.00
81.7089 439.00
82.0131 407.00
82.3174 355.00
82.6217 370.00
82.9259 362.00
83.2302 389.00
83.5344 404.00
83.8387 680.00
84.143 733.00
84.4472 485.00
84.7515 373.00
85.0557 412.00
85.36 395.00
85.6643 348.00
85.9685 348.00
86.2728 352.00
86.577 324.00
86.8813 381.00
87.1856 351.00
87.4898 565.00
87.7941 503.00
88.0983 398.00
88.4026 410.00
88.7069 420.00
89.0111 424.00
89.3154 405.00
89.6196 435.00
89.9239 781.00
90.2282 763.00
90.5324 496.00
90.8367 531.00
91.1409 854.00
91.4452 710.00
91.7495 426.00
92.0537 380.00
92.358 392.00
92.6622 374.00
92.9665 404.00
93.2708 416.00
93.575 586.00
93.8793 555.00
94.1835 428.00
94.4878 370.00
94.7921 364.00
95.0963 351.00
95.4006 331.00
95.7048 356.00
96.0091 492.00
96.3134 574.00
96.6176 482.00
96.9219 382.00
97.2261 351.00
97.5304 379.00
97.8347 352.00
98.1389 372.00
98.4432 373.00
98.7474 341.00
99.0517 332.00
99.356 364.00
99.6602 389.00
99.9645 348.00
100.095 367.00