File: data/xrd_creation/results/Na_142.xy
9.903433 2762.00
10.2077 2622.00
10.512 2572.00
10.8162 2553.00
11.1205 2279.00
11.4247 2183.00
11.729 2205.00
12.0333 2081.00
12.3375 2007.00
12.6418 2046.00
12.946 1847.00
13.2503 1818.00
13.5546 1853.00
13.8588 1785.00
14.1631 1767.00
14.4673 1770.00
14.7716 1690.00
15.0759 1676.00
15.3801 1630.00
15.6844 1596.00
15.9886 1561.00
16.2929 1521.00
16.5972 1612.00
16.9014 1518.00
17.2057 1537.00
17.5099 1519.00
17.8142 1494.00
18.1185 1386.00
18.4227 1445.00
18.727 1472.00
19.0312 1579.00
19.3355 2057.00
19.6398 4971.00
19.944 1693.00
20.2483 1388.00
20.5525 1362.00
20.8568 1288.00
21.1611 1241.00
21.4653 1167.00
21.7696 1301.00
22.0738 1424.00
22.3781 2534.00
22.6824 9599.00
22.9866 1777.00
23.2909 1338.00
23.5951 1210.00
23.8994 1184.00
24.2037 1152.00
24.5079 1124.00
24.8122 1141.00
25.1164 1619.00
25.4207 2639.00
25.725 1132.00
26.0292 999.00
26.3335 951.00
26.6378 1040.00
26.942 2817.00
27.2463 1142.00
27.5505 1443.00
27.8548 2445.00
28.1591 1097.00
28.4633 985.00
28.7676 1013.00
29.0718 978.00
29.3761 896.00
29.6804 834.00
29.9846 898.00
30.2889 819.00
30.5931 835.00
30.8974 783.00
31.2017 820.00
31.5059 934.00
31.8102 1223.00
32.1144 3832.00
32.4187 1208.00
32.723 898.00
33.0272 762.00
33.3315 777.00
33.6357 792.00
33.94 993.00
34.2443 2414.00
34.5485 894.00
34.8528 756.00
35.157 730.00
35.4613 717.00
35.7656 694.00
36.0698 697.00
36.3741 653.00
36.6783 713.00
36.9826 753.00
37.2869 864.00
37.5911 1972.00
37.8954 4561.00
38.1996 1324.00
38.5039 771.00
38.8082 703.00
39.1124 722.00
39.4167 1303.00
39.7209 1199.00
40.0252 715.00
40.3295 625.00
40.6337 576.00
40.938 684.00
41.2422 808.00
41.5465 587.00
41.8508 595.00
42.155 533.00
42.4593 561.00
42.7635 615.00
43.0678 636.00
43.3721 592.00
43.6763 753.00
43.9806 620.00
44.2849 579.00
44.5891 586.00
44.8934 517.00
45.1976 582.00
45.5019 570.00
45.8062 691.00
46.1104 705.00
46.4147 554.00
46.7189 526.00
47.0232 528.00
47.3275 645.00
47.6317 625.00
47.936 565.00
48.2402 510.00
48.5445 501.00
48.8488 670.00
49.153 521.00
49.4573 597.00
49.7615 643.00
50.0658 1018.00
50.3701 1696.00
50.6743 793.00
50.9786 650.00
51.2828 831.00
51.5871 2007.00
51.8914 1549.00
52.1956 1592.00
52.4999 606.00
52.8041 572.00
53.1084 589.00
53.4127 526.00
53.7169 510.00
54.0212 554.00
54.3254 613.00
54.6297 636.00
54.934 734.00
55.2382 823.00
55.5425 582.00
55.8467 521.00
56.151 557.00
56.4553 619.00
56.7595 1009.00
57.0638 1648.00
57.368 681.00
57.6723 573.00
57.9766 545.00
58.2808 598.00
58.5851 482.00
58.8893 495.00
59.1936 450.00
59.4979 485.00
59.8021 479.00
60.1064 568.00
60.4106 815.00
60.7149 2004.00
61.0192 1405.00
61.3234 675.00
61.6277 623.00
61.932 573.00
62.2362 749.00
62.5405 537.00
62.8447 506.00
63.149 531.00
63.4533 505.00
63.7575 488.00
64.0618 473.00
64.366 486.00
64.6703 471.00
64.9745 671.00
65.2788 576.00
65.5831 407.00
65.8873 434.00
66.1916 741.00
66.4959 752.00
66.8001 892.00
67.1044 612.00
67.4086 505.00
67.7129 536.00
68.0172 565.00
68.3214 516.00
68.6257 453.00
68.9299 456.00
69.2342 460.00
69.5385 506.00
69.8427 489.00
70.147 863.00
70.4512 793.00
70.7555 523.00
71.0598 593.00
71.364 890.00
71.6683 727.00
71.9725 488.00
72.2768 431.00
72.5811 448.00
72.8853 454.00
73.1896 450.00
73.4938 504.00
73.7981 481.00
74.1024 422.00
74.4066 470.00
74.7109 441.00
75.0151 434.00
75.3194 419.00
75.6237 484.00
75.9279 562.00
76.2322 462.00
76.5364 421.00
76.8407 395.00
77.145 433.00
77.4492 419.00
77.7535 401.00
78.0577 405.00
78.362 401.00
78.6663 442.00
78.9705 751.00
79.2748 651.00
79.579 474.00
79.8833 499.00
80.1876 584.00
80.4918 559.00
80.7961 465.00
81.1003 389.00
81.4046 472.00
81.7089 430.00
82.0131 344.00
82.3174 363.00
82.6217 367.00
82.9259 380.00
83.2302 400.00
83.5344 382.00
83.8387 457.00
84.143 452.00
84.4472 377.00
84.7515 366.00
85.0557 391.00
85.36 409.00
85.6643 415.00
85.9685 414.00
86.2728 391.00
86.577 410.00
86.8813 429.00
87.1856 415.00
87.4898 531.00
87.7941 588.00
88.0983 527.00
88.4026 482.00
88.7069 581.00
89.0111 606.00
89.3154 510.00
89.6196 419.00
89.9239 479.00
90.2282 461.00
90.5324 419.00
90.8367 455.00
91.1409 583.00
91.4452 579.00
91.7495 476.00
92.0537 386.00
92.358 403.00
92.6622 404.00
92.9665 542.00
93.2708 658.00
93.575 560.00
93.8793 459.00
94.1835 388.00
94.4878 373.00
94.7921 367.00
95.0963 410.00
95.4006 397.00
95.7048 438.00
96.0091 470.00
96.3134 693.00
96.6176 735.00
96.9219 571.00
97.2261 459.00
97.5304 444.00
97.8347 446.00
98.1389 438.00
98.4432 434.00
98.7474 402.00
99.0517 402.00
99.356 348.00
99.6602 400.00
99.9645 362.00
100.095 401.00