File: data/xrd_creation/results/Na_125.xy
9.903433 2825.00
10.2077 2614.00
10.512 2637.00
10.8162 2513.00
11.1205 2515.00
11.4247 2413.00
11.729 2226.00
12.0333 2152.00
12.3375 2139.00
12.6418 2069.00
12.946 2024.00
13.2503 1963.00
13.5546 1839.00
13.8588 1821.00
14.1631 1858.00
14.4673 1837.00
14.7716 1746.00
15.0759 1695.00
15.3801 1757.00
15.6844 1736.00
15.9886 1674.00
16.2929 1670.00
16.5972 1669.00
16.9014 1671.00
17.2057 1564.00
17.5099 1560.00
17.8142 1666.00
18.1185 1568.00
18.4227 1530.00
18.727 1534.00
19.0312 1538.00
19.3355 2075.00
19.6398 4332.00
19.944 1850.00
20.2483 1461.00
20.5525 1461.00
20.8568 1389.00
21.1611 1298.00
21.4653 1319.00
21.7696 1425.00
22.0738 1566.00
22.3781 2583.00
22.6824 7879.00
22.9866 2062.00
23.2909 1424.00
23.5951 1313.00
23.8994 1272.00
24.2037 1230.00
24.5079 1182.00
24.8122 1249.00
25.1164 1655.00
25.4207 2327.00
25.725 1264.00
26.0292 1078.00
26.3335 1090.00
26.6378 1191.00
26.942 3588.00
27.2463 1232.00
27.5505 1596.00
27.8548 1957.00
28.1591 1171.00
28.4633 1020.00
28.7676 1035.00
29.0718 912.00
29.3761 921.00
29.6804 936.00
29.9846 986.00
30.2889 929.00
30.5931 866.00
30.8974 818.00
31.2017 863.00
31.5059 966.00
31.8102 1249.00
32.1144 2941.00
32.4187 1275.00
32.723 900.00
33.0272 841.00
33.3315 821.00
33.6357 855.00
33.94 1078.00
34.2443 2750.00
34.5485 888.00
34.8528 829.00
35.157 745.00
35.4613 735.00
35.7656 694.00
36.0698 768.00
36.3741 688.00
36.6783 768.00
36.9826 783.00
37.2869 953.00
37.5911 1898.00
37.8954 3316.00
38.1996 1546.00
38.5039 895.00
38.8082 734.00
39.1124 731.00
39.4167 1289.00
39.7209 1035.00
40.0252 737.00
40.3295 650.00
40.6337 641.00
40.938 624.00
41.2422 719.00
41.5465 642.00
41.8508 654.00
42.155 619.00
42.4593 576.00
42.7635 658.00
43.0678 601.00
43.3721 601.00
43.6763 700.00
43.9806 601.00
44.2849 527.00
44.5891 505.00
44.8934 540.00
45.1976 548.00
45.5019 613.00
45.8062 741.00
46.1104 673.00
46.4147 568.00
46.7189 546.00
47.0232 547.00
47.3275 620.00
47.6317 595.00
47.936 535.00
48.2402 551.00
48.5445 514.00
48.8488 613.00
49.153 583.00
49.4573 620.00
49.7615 573.00
50.0658 941.00
50.3701 1387.00
50.6743 745.00
50.9786 692.00
51.2828 820.00
51.5871 1694.00
51.8914 1522.00
52.1956 1794.00
52.4999 639.00
52.8041 537.00
53.1084 658.00
53.4127 512.00
53.7169 550.00
54.0212 561.00
54.3254 569.00
54.6297 614.00
54.934 770.00
55.2382 789.00
55.5425 570.00
55.8467 590.00
56.151 538.00
56.4553 626.00
56.7595 919.00
57.0638 1249.00
57.368 647.00
57.6723 511.00
57.9766 543.00
58.2808 602.00
58.5851 496.00
58.8893 470.00
59.1936 429.00
59.4979 515.00
59.8021 509.00
60.1064 620.00
60.4106 788.00
60.7149 1650.00
61.0192 1190.00
61.3234 621.00
61.6277 593.00
61.932 619.00
62.2362 802.00
62.5405 502.00
62.8447 529.00
63.149 537.00
63.4533 471.00
63.7575 475.00
64.0618 495.00
64.366 457.00
64.6703 457.00
64.9745 844.00
65.2788 519.00
65.5831 472.00
65.8873 470.00
66.1916 881.00
66.4959 728.00
66.8001 786.00
67.1044 563.00
67.4086 517.00
67.7129 508.00
68.0172 510.00
68.3214 503.00
68.6257 485.00
68.9299 465.00
69.2342 449.00
69.5385 484.00
69.8427 550.00
70.147 687.00
70.4512 683.00
70.7555 527.00
71.0598 595.00
71.364 786.00
71.6683 725.00
71.9725 481.00
72.2768 442.00
72.5811 436.00
72.8853 403.00
73.1896 398.00
73.4938 452.00
73.7981 464.00
74.1024 426.00
74.4066 416.00
74.7109 412.00
75.0151 407.00
75.3194 424.00
75.6237 446.00
75.9279 518.00
76.2322 471.00
76.5364 374.00
76.8407 432.00
77.145 443.00
77.4492 427.00
77.7535 430.00
78.0577 374.00
78.362 385.00
78.6663 434.00
78.9705 839.00
79.2748 609.00
79.579 483.00
79.8833 435.00
80.1876 483.00
80.4918 504.00
80.7961 440.00
81.1003 416.00
81.4046 470.00
81.7089 396.00
82.0131 358.00
82.3174 364.00
82.6217 377.00
82.9259 377.00
83.2302 377.00
83.5344 398.00
83.8387 470.00
84.143 442.00
84.4472 388.00
84.7515 381.00
85.0557 350.00
85.36 350.00
85.6643 397.00
85.9685 375.00
86.2728 389.00
86.577 387.00
86.8813 344.00
87.1856 390.00
87.4898 546.00
87.7941 505.00
88.0983 498.00
88.4026 513.00
88.7069 493.00
89.0111 556.00
89.3154 504.00
89.6196 382.00
89.9239 555.00
90.2282 514.00
90.5324 395.00
90.8367 440.00
91.1409 720.00
91.4452 521.00
91.7495 423.00
92.0537 396.00
92.358 387.00
92.6622 431.00
92.9665 474.00
93.2708 495.00
93.575 579.00
93.8793 454.00
94.1835 374.00
94.4878 377.00
94.7921 420.00
95.0963 377.00
95.4006 386.00
95.7048 438.00
96.0091 469.00
96.3134 639.00
96.6176 630.00
96.9219 532.00
97.2261 431.00
97.5304 434.00
97.8347 401.00
98.1389 372.00
98.4432 371.00
98.7474 386.00
99.0517 345.00
99.356 356.00
99.6602 345.00
99.9645 389.00
100.095 392.00