File: data/xrd_creation/results/Na_141.xy
9.903433 2710.00
10.2077 2650.00
10.512 2520.00
10.8162 2432.00
11.1205 2332.00
11.4247 2224.00
11.729 2151.00
12.0333 2083.00
12.3375 2031.00
12.6418 2017.00
12.946 1898.00
13.2503 1885.00
13.5546 1804.00
13.8588 1750.00
14.1631 1724.00
14.4673 1750.00
14.7716 1647.00
15.0759 1636.00
15.3801 1685.00
15.6844 1644.00
15.9886 1613.00
16.2929 1588.00
16.5972 1551.00
16.9014 1602.00
17.2057 1574.00
17.5099 1469.00
17.8142 1512.00
18.1185 1506.00
18.4227 1482.00
18.727 1571.00
19.0312 1539.00
19.3355 1802.00
19.6398 2987.00
19.944 1523.00
20.2483 1476.00
20.5525 1509.00
20.8568 1493.00
21.1611 1560.00
21.4653 1453.00
21.7696 1448.00
22.0738 1602.00
22.3781 2113.00
22.6824 5142.00
22.9866 1628.00
23.2909 1474.00
23.5951 1406.00
23.8994 1440.00
24.2037 1566.00
24.5079 1508.00
24.8122 1410.00
25.1164 1664.00
25.4207 2143.00
25.725 1374.00
26.0292 1363.00
26.3335 1352.00
26.6378 1313.00
26.942 1318.00
27.2463 1387.00
27.5505 1481.00
27.8548 2021.00
28.1591 1232.00
28.4633 1228.00
28.7676 1247.00
29.0718 1124.00
29.3761 1186.00
29.6804 1112.00
29.9846 1163.00
30.2889 1152.00
30.5931 1078.00
30.8974 1083.00
31.2017 1069.00
31.5059 1034.00
31.8102 1132.00
32.1144 2307.00
32.4187 1095.00
32.723 993.00
33.0272 978.00
33.3315 969.00
33.6357 901.00
33.94 920.00
34.2443 1040.00
34.5485 971.00
34.8528 894.00
35.157 931.00
35.4613 851.00
35.7656 810.00
36.0698 811.00
36.3741 863.00
36.6783 879.00
36.9826 889.00
37.2869 899.00
37.5911 1153.00
37.8954 2616.00
38.1996 880.00
38.5039 817.00
38.8082 811.00
39.1124 782.00
39.4167 1047.00
39.7209 958.00
40.0252 789.00
40.3295 766.00
40.6337 722.00
40.938 759.00
41.2422 862.00
41.5465 717.00
41.8508 787.00
42.155 778.00
42.4593 690.00
42.7635 727.00
43.0678 739.00
43.3721 787.00
43.6763 813.00
43.9806 763.00
44.2849 714.00
44.5891 721.00
44.8934 729.00
45.1976 728.00
45.5019 659.00
45.8062 781.00
46.1104 778.00
46.4147 722.00
46.7189 711.00
47.0232 680.00
47.3275 752.00
47.6317 737.00
47.936 658.00
48.2402 680.00
48.5445 673.00
48.8488 728.00
49.153 708.00
49.4573 697.00
49.7615 647.00
50.0658 785.00
50.3701 1210.00
50.6743 773.00
50.9786 647.00
51.2828 746.00
51.5871 1178.00
51.8914 1132.00
52.1956 650.00
52.4999 619.00
52.8041 651.00
53.1084 712.00
53.4127 592.00
53.7169 641.00
54.0212 633.00
54.3254 640.00
54.6297 640.00
54.934 737.00
55.2382 713.00
55.5425 611.00
55.8467 614.00
56.151 595.00
56.4553 623.00
56.7595 721.00
57.0638 1135.00
57.368 731.00
57.6723 571.00
57.9766 590.00
58.2808 621.00
58.5851 517.00
58.8893 579.00
59.1936 522.00
59.4979 588.00
59.8021 600.00
60.1064 579.00
60.4106 686.00
60.7149 1220.00
61.0192 1025.00
61.3234 679.00
61.6277 562.00
61.932 653.00
62.2362 641.00
62.5405 582.00
62.8447 528.00
63.149 619.00
63.4533 620.00
63.7575 514.00
64.0618 479.00
64.366 551.00
64.6703 537.00
64.9745 559.00
65.2788 567.00
65.5831 533.00
65.8873 483.00
66.1916 529.00
66.4959 556.00
66.8001 735.00
67.1044 646.00
67.4086 532.00
67.7129 489.00
68.0172 509.00
68.3214 541.00
68.6257 507.00
68.9299 584.00
69.2342 507.00
69.5385 516.00
69.8427 492.00
70.147 632.00
70.4512 681.00
70.7555 547.00
71.0598 512.00
71.364 650.00
71.6683 594.00
71.9725 504.00
72.2768 473.00
72.5811 489.00
72.8853 481.00
73.1896 454.00
73.4938 497.00
73.7981 567.00
74.1024 473.00
74.4066 490.00
74.7109 512.00
75.0151 439.00
75.3194 455.00
75.6237 470.00
75.9279 510.00
76.2322 460.00
76.5364 448.00
76.8407 467.00
77.145 470.00
77.4492 472.00
77.7535 481.00
78.0577 413.00
78.362 401.00
78.6663 428.00
78.9705 501.00
79.2748 524.00
79.579 486.00
79.8833 455.00
80.1876 524.00
80.4918 471.00
80.7961 466.00
81.1003 427.00
81.4046 430.00
81.7089 402.00
82.0131 439.00
82.3174 413.00
82.6217 442.00
82.9259 440.00
83.2302 397.00
83.5344 447.00
83.8387 387.00
84.143 385.00
84.4472 422.00
84.7515 382.00
85.0557 392.00
85.36 413.00
85.6643 450.00
85.9685 444.00
86.2728 406.00
86.577 445.00
86.8813 442.00
87.1856 442.00
87.4898 451.00
87.7941 478.00
88.0983 467.00
88.4026 466.00
88.7069 521.00
89.0111 524.00
89.3154 477.00
89.6196 450.00
89.9239 418.00
90.2282 443.00
90.5324 411.00
90.8367 417.00
91.1409 423.00
91.4452 426.00
91.7495 444.00
92.0537 431.00
92.358 436.00
92.6622 424.00
92.9665 462.00
93.2708 506.00
93.575 526.00
93.8793 471.00
94.1835 425.00
94.4878 382.00
94.7921 415.00
95.0963 405.00
95.4006 433.00
95.7048 443.00
96.0091 429.00
96.3134 505.00
96.6176 515.00
96.9219 529.00
97.2261 457.00
97.5304 406.00
97.8347 416.00
98.1389 430.00
98.4432 435.00
98.7474 437.00
99.0517 407.00
99.356 420.00
99.6602 384.00
99.9645 410.00
100.095 405.00