File: data/xrd_creation/results/Na_185.xy
9.903433 2730.00
10.2077 2697.00
10.512 2644.00
10.8162 2533.00
11.1205 2525.00
11.4247 3421.00
11.729 9713.00
12.0333 2682.00
12.3375 2138.00
12.6418 2235.00
12.946 2159.00
13.2503 2038.00
13.5546 1969.00
13.8588 2031.00
14.1631 1833.00
14.4673 1886.00
14.7716 1914.00
15.0759 2414.00
15.3801 1777.00
15.6844 1731.00
15.9886 1871.00
16.2929 2110.00
16.5972 5376.00
16.9014 1733.00
17.2057 1763.00
17.5099 1714.00
17.8142 1705.00
18.1185 2671.00
18.4227 2227.00
18.727 1586.00
19.0312 1490.00
19.3355 1421.00
19.6398 1513.00
19.944 1429.00
20.2483 1404.00
20.5525 1392.00
20.8568 1393.00
21.1611 1552.00
21.4653 1324.00
21.7696 1300.00
22.0738 1223.00
22.3781 1206.00
22.6824 1182.00
22.9866 1257.00
23.2909 1224.00
23.5951 1355.00
23.8994 1168.00
24.2037 1268.00
24.5079 1961.00
24.8122 2635.00
25.1164 1307.00
25.4207 1298.00
25.725 1419.00
26.0292 2970.00
26.3335 6587.00
26.6378 1530.00
26.942 3439.00
27.2463 1323.00
27.5505 1433.00
27.8548 2278.00
28.1591 4497.00
28.4633 1441.00
28.7676 1177.00
29.0718 1157.00
29.3761 1011.00
29.6804 962.00
29.9846 1037.00
30.2889 1790.00
30.5931 1635.00
30.8974 970.00
31.2017 967.00
31.5059 1240.00
31.8102 1562.00
32.1144 2363.00
32.4187 964.00
32.723 1099.00
33.0272 1558.00
33.3315 7140.00
33.6357 1075.00
33.94 1267.00
34.2443 3063.00
34.5485 5404.00
34.8528 3137.00
35.157 3196.00
35.4613 982.00
35.7656 823.00
36.0698 776.00
36.3741 926.00
36.6783 848.00
36.9826 849.00
37.2869 873.00
37.5911 763.00
37.8954 969.00
38.1996 1303.00
38.5039 892.00
38.8082 758.00
39.1124 723.00
39.4167 1031.00
39.7209 770.00
40.0252 764.00
40.3295 689.00
40.6337 744.00
40.938 706.00
41.2422 798.00
41.5465 766.00
41.8508 818.00
42.155 984.00
42.4593 1486.00
42.7635 1413.00
43.0678 751.00
43.3721 676.00
43.6763 752.00
43.9806 936.00
44.2849 679.00
44.5891 728.00
44.8934 619.00
45.1976 644.00
45.5019 721.00
45.8062 972.00
46.1104 601.00
46.4147 690.00
46.7189 689.00
47.0232 814.00
47.3275 1278.00
47.6317 1505.00
47.936 2310.00
48.2402 784.00
48.5445 680.00
48.8488 875.00
49.153 738.00
49.4573 1096.00
49.7615 846.00
50.0658 1357.00
50.3701 1373.00
50.6743 1459.00
50.9786 764.00
51.2828 639.00
51.5871 814.00
51.8914 1462.00
52.1956 2174.00
52.4999 794.00
52.8041 572.00
53.1084 551.00
53.4127 987.00
53.7169 707.00
54.0212 647.00
54.3254 665.00
54.6297 756.00
54.934 773.00
55.2382 850.00
55.5425 605.00
55.8467 1001.00
56.151 622.00
56.4553 649.00
56.7595 802.00
57.0638 736.00
57.368 929.00
57.6723 886.00
57.9766 724.00
58.2808 801.00
58.5851 825.00
58.8893 1447.00
59.1936 995.00
59.4979 953.00
59.8021 1719.00
60.1064 1900.00
60.4106 1117.00
60.7149 1238.00
61.0192 666.00
61.3234 655.00
61.6277 591.00
61.932 648.00
62.2362 853.00
62.5405 820.00
62.8447 872.00
63.149 692.00
63.4533 956.00
63.7575 494.00
64.0618 601.00
64.366 594.00
64.6703 657.00
64.9745 850.00
65.2788 788.00
65.5831 592.00
65.8873 665.00
66.1916 912.00
66.4959 832.00
66.8001 565.00
67.1044 573.00
67.4086 599.00
67.7129 551.00
68.0172 526.00
68.3214 592.00
68.6257 509.00
68.9299 613.00
69.2342 628.00
69.5385 608.00
69.8427 471.00
70.147 473.00
70.4512 434.00
70.7555 489.00
71.0598 430.00
71.364 506.00
71.6683 465.00
71.9725 428.00
72.2768 458.00
72.5811 736.00
72.8853 631.00
73.1896 448.00
73.4938 401.00
73.7981 665.00
74.1024 507.00
74.4066 424.00
74.7109 444.00
75.0151 483.00
75.3194 405.00
75.6237 426.00
75.9279 502.00
76.2322 451.00
76.5364 492.00
76.8407 464.00
77.145 474.00
77.4492 457.00
77.7535 516.00
78.0577 529.00
78.362 440.00
78.6663 456.00
78.9705 566.00
79.2748 650.00
79.579 651.00
79.8833 551.00
80.1876 459.00
80.4918 412.00
80.7961 527.00
81.1003 528.00
81.4046 491.00
81.7089 478.00
82.0131 464.00
82.3174 480.00
82.6217 437.00
82.9259 401.00
83.2302 408.00
83.5344 370.00
83.8387 478.00
84.143 497.00
84.4472 418.00
84.7515 359.00
85.0557 430.00
85.36 460.00
85.6643 479.00
85.9685 441.00
86.2728 530.00
86.577 616.00
86.8813 492.00
87.1856 462.00
87.4898 537.00
87.7941 521.00
88.0983 379.00
88.4026 373.00
88.7069 431.00
89.0111 434.00
89.3154 462.00
89.6196 470.00
89.9239 538.00
90.2282 550.00
90.5324 468.00
90.8367 526.00
91.1409 568.00
91.4452 512.00
91.7495 451.00
92.0537 438.00
92.358 515.00
92.6622 413.00
92.9665 413.00
93.2708 451.00
93.575 422.00
93.8793 403.00
94.1835 400.00
94.4878 363.00
94.7921 374.00
95.0963 388.00
95.4006 394.00
95.7048 352.00
96.0091 396.00
96.3134 483.00
96.6176 473.00
96.9219 465.00
97.2261 400.00
97.5304 485.00
97.8347 551.00
98.1389 571.00
98.4432 452.00
98.7474 499.00
99.0517 466.00
99.356 432.00
99.6602 404.00
99.9645 403.00
100.095 432.00