File: data/xrd_creation/results/Na_137.xy
9.903433 2663.00
10.2077 2700.00
10.512 2481.00
10.8162 2363.00
11.1205 2243.00
11.4247 2156.00
11.729 2131.00
12.0333 2025.00
12.3375 1973.00
12.6418 1929.00
12.946 1810.00
13.2503 1755.00
13.5546 1786.00
13.8588 1803.00
14.1631 1820.00
14.4673 1705.00
14.7716 1582.00
15.0759 1521.00
15.3801 1671.00
15.6844 1533.00
15.9886 1553.00
16.2929 1520.00
16.5972 1530.00
16.9014 1374.00
17.2057 1358.00
17.5099 1425.00
17.8142 1407.00
18.1185 1314.00
18.4227 1312.00
18.727 1315.00
19.0312 1393.00
19.3355 1371.00
19.6398 1292.00
19.944 1359.00
20.2483 1531.00
20.5525 1380.00
20.8568 1485.00
21.1611 1372.00
21.4653 1731.00
21.7696 1586.00
22.0738 1598.00
22.3781 1239.00
22.6824 1682.00
22.9866 1279.00
23.2909 1243.00
23.5951 1416.00
23.8994 1681.00
24.2037 1569.00
24.5079 1601.00
24.8122 1141.00
25.1164 1167.00
25.4207 1098.00
25.725 1182.00
26.0292 1565.00
26.3335 3497.00
26.6378 2271.00
26.942 2081.00
27.2463 2027.00
27.5505 3720.00
27.8548 1916.00
28.1591 1179.00
28.4633 1122.00
28.7676 1092.00
29.0718 1494.00
29.3761 1047.00
29.6804 1135.00
29.9846 1050.00
30.2889 1090.00
30.5931 1376.00
30.8974 1996.00
31.2017 1096.00
31.5059 1183.00
31.8102 958.00
32.1144 1066.00
32.4187 1326.00
32.723 982.00
33.0272 903.00
33.3315 1007.00
33.6357 1267.00
33.94 1283.00
34.2443 1554.00
34.5485 1060.00
34.8528 1034.00
35.157 917.00
35.4613 977.00
35.7656 817.00
36.0698 824.00
36.3741 1029.00
36.6783 883.00
36.9826 978.00
37.2869 933.00
37.5911 1039.00
37.8954 1019.00
38.1996 1392.00
38.5039 1152.00
38.8082 924.00
39.1124 841.00
39.4167 868.00
39.7209 1053.00
40.0252 827.00
40.3295 812.00
40.6337 756.00
40.938 952.00
41.2422 792.00
41.5465 831.00
41.8508 662.00
42.155 708.00
42.4593 732.00
42.7635 740.00
43.0678 718.00
43.3721 886.00
43.6763 784.00
43.9806 852.00
44.2849 1048.00
44.5891 881.00
44.8934 843.00
45.1976 1646.00
45.5019 696.00
45.8062 799.00
46.1104 863.00
46.4147 738.00
46.7189 718.00
47.0232 952.00
47.3275 786.00
47.6317 687.00
47.936 648.00
48.2402 710.00
48.5445 706.00
48.8488 899.00
49.153 883.00
49.4573 781.00
49.7615 783.00
50.0658 656.00
50.3701 641.00
50.6743 620.00
50.9786 704.00
51.2828 778.00
51.5871 896.00
51.8914 1182.00
52.1956 1220.00
52.4999 955.00
52.8041 783.00
53.1084 747.00
53.4127 776.00
53.7169 715.00
54.0212 779.00
54.3254 678.00
54.6297 680.00
54.934 762.00
55.2382 751.00
55.5425 734.00
55.8467 627.00
56.151 687.00
56.4553 679.00
56.7595 646.00
57.0638 673.00
57.368 754.00
57.6723 742.00
57.9766 768.00
58.2808 780.00
58.5851 802.00
58.8893 708.00
59.1936 628.00
59.4979 665.00
59.8021 692.00
60.1064 683.00
60.4106 593.00
60.7149 566.00
61.0192 694.00
61.3234 715.00
61.6277 622.00
61.932 701.00
62.2362 712.00
62.5405 755.00
62.8447 749.00
63.149 662.00
63.4533 654.00
63.7575 648.00
64.0618 681.00
64.366 641.00
64.6703 662.00
64.9745 831.00
65.2788 709.00
65.5831 647.00
65.8873 676.00
66.1916 702.00
66.4959 589.00
66.8001 622.00
67.1044 558.00
67.4086 546.00
67.7129 609.00
68.0172 546.00
68.3214 554.00
68.6257 513.00
68.9299 500.00
69.2342 506.00
69.5385 508.00
69.8427 483.00
70.147 469.00
70.4512 489.00
70.7555 525.00
71.0598 539.00
71.364 586.00
71.6683 603.00
71.9725 514.00
72.2768 489.00
72.5811 555.00
72.8853 589.00
73.1896 500.00
73.4938 520.00
73.7981 419.00
74.1024 420.00
74.4066 420.00
74.7109 425.00
75.0151 476.00
75.3194 434.00
75.6237 469.00
75.9279 513.00
76.2322 474.00
76.5364 485.00
76.8407 438.00
77.145 422.00
77.4492 460.00
77.7535 483.00
78.0577 458.00
78.362 488.00
78.6663 566.00
78.9705 631.00
79.2748 531.00
79.579 469.00
79.8833 526.00
80.1876 466.00
80.4918 484.00
80.7961 494.00
81.1003 496.00
81.4046 492.00
81.7089 522.00
82.0131 431.00
82.3174 517.00
82.6217 463.00
82.9259 443.00
83.2302 468.00
83.5344 470.00
83.8387 518.00
84.143 527.00
84.4472 476.00
84.7515 430.00
85.0557 462.00
85.36 471.00
85.6643 463.00
85.9685 481.00
86.2728 472.00
86.577 429.00
86.8813 496.00
87.1856 407.00
87.4898 478.00
87.7941 511.00
88.0983 473.00
88.4026 497.00
88.7069 424.00
89.0111 447.00
89.3154 525.00
89.6196 578.00
89.9239 567.00
90.2282 544.00
90.5324 518.00
90.8367 512.00
91.1409 545.00
91.4452 490.00
91.7495 465.00
92.0537 422.00
92.358 443.00
92.6622 415.00
92.9665 425.00
93.2708 479.00
93.575 468.00
93.8793 402.00
94.1835 443.00
94.4878 426.00
94.7921 449.00
95.0963 446.00
95.4006 473.00
95.7048 540.00
96.0091 466.00
96.3134 485.00
96.6176 487.00
96.9219 468.00
97.2261 449.00
97.5304 470.00
97.8347 392.00
98.1389 395.00
98.4432 451.00
98.7474 425.00
99.0517 398.00
99.356 402.00
99.6602 391.00
99.9645 419.00
100.095 384.00