File: data/xrd_creation/results/Na_118.xy
9.903433 2851.00
10.2077 2753.00
10.512 2650.00
10.8162 2672.00
11.1205 2990.00
11.4247 6785.00
11.729 5150.00
12.0333 2346.00
12.3375 2285.00
12.6418 2133.00
12.946 2087.00
13.2503 2074.00
13.5546 1987.00
13.8588 1944.00
14.1631 1920.00
14.4673 1840.00
14.7716 2170.00
15.0759 1803.00
15.3801 1728.00
15.6844 1848.00
15.9886 2118.00
16.2929 5419.00
16.5972 2161.00
16.9014 1769.00
17.2057 1729.00
17.5099 1676.00
17.8142 1904.00
18.1185 2109.00
18.4227 1590.00
18.727 1485.00
19.0312 1439.00
19.3355 1473.00
19.6398 1367.00
19.944 1406.00
20.2483 1366.00
20.5525 1338.00
20.8568 1541.00
21.1611 1367.00
21.4653 1290.00
21.7696 1245.00
22.0738 1203.00
22.3781 1196.00
22.6824 1157.00
22.9866 1275.00
23.2909 1257.00
23.5951 1174.00
23.8994 1245.00
24.2037 1563.00
24.5079 2144.00
24.8122 1256.00
25.1164 1213.00
25.4207 1433.00
25.725 3666.00
26.0292 4908.00
26.3335 1582.00
26.6378 9088.00
26.942 2219.00
27.2463 1411.00
27.5505 2181.00
27.8548 4739.00
28.1591 1498.00
28.4633 1010.00
28.7676 1005.00
29.0718 973.00
29.3761 967.00
29.6804 993.00
29.9846 1915.00
30.2889 1834.00
30.5931 951.00
30.8974 876.00
31.2017 1217.00
31.5059 1349.00
31.8102 1607.00
32.1144 988.00
32.4187 1028.00
32.723 2023.00
33.0272 3176.00
33.3315 1013.00
33.6357 1262.00
33.94 8995.00
34.2443 5943.00
34.5485 2654.00
34.8528 1969.00
35.157 1066.00
35.4613 749.00
35.7656 768.00
36.0698 916.00
36.3741 1138.00
36.6783 1260.00
36.9826 1201.00
37.2869 828.00
37.5911 850.00
37.8954 1166.00
38.1996 1660.00
38.5039 669.00
38.8082 683.00
39.1124 1166.00
39.4167 688.00
39.7209 688.00
40.0252 617.00
40.3295 677.00
40.6337 653.00
40.938 771.00
41.2422 714.00
41.5465 1011.00
41.8508 962.00
42.155 1482.00
42.4593 1110.00
42.7635 759.00
43.0678 636.00
43.3721 1040.00
43.6763 815.00
43.9806 683.00
44.2849 575.00
44.5891 581.00
44.8934 880.00
45.1976 826.00
45.5019 755.00
45.8062 634.00
46.1104 707.00
46.4147 591.00
46.7189 777.00
47.0232 1062.00
47.3275 2072.00
47.6317 884.00
47.936 586.00
48.2402 609.00
48.5445 842.00
48.8488 926.00
49.153 832.00
49.4573 952.00
49.7615 1206.00
50.0658 1315.00
50.3701 836.00
50.6743 613.00
50.9786 598.00
51.2828 701.00
51.5871 1740.00
51.8914 6162.00
52.1956 1125.00
52.4999 586.00
52.8041 603.00
53.1084 938.00
53.4127 747.00
53.7169 736.00
54.0212 663.00
54.3254 671.00
54.6297 820.00
54.934 1641.00
55.2382 874.00
55.5425 887.00
55.8467 562.00
56.151 727.00
56.4553 616.00
56.7595 852.00
57.0638 865.00
57.368 760.00
57.6723 704.00
57.9766 1089.00
58.2808 1346.00
58.5851 905.00
58.8893 982.00
59.1936 1031.00
59.4979 1742.00
59.8021 1128.00
60.1064 1181.00
60.4106 611.00
60.7149 560.00
61.0192 539.00
61.3234 559.00
61.6277 747.00
61.932 1804.00
62.2362 1172.00
62.5405 600.00
62.8447 925.00
63.149 571.00
63.4533 558.00
63.7575 547.00
64.0618 634.00
64.366 664.00
64.6703 916.00
64.9745 1604.00
65.2788 740.00
65.5831 747.00
65.8873 1020.00
66.1916 1621.00
66.4959 570.00
66.8001 566.00
67.1044 508.00
67.4086 543.00
67.7129 526.00
68.0172 594.00
68.3214 497.00
68.6257 601.00
68.9299 567.00
69.2342 491.00
69.5385 438.00
69.8427 436.00
70.147 425.00
70.4512 391.00
70.7555 462.00
71.0598 444.00
71.364 1080.00
71.6683 582.00
71.9725 559.00
72.2768 615.00
72.5811 357.00
72.8853 389.00
73.1896 611.00
73.4938 517.00
73.7981 378.00
74.1024 455.00
74.4066 525.00
74.7109 430.00
75.0151 422.00
75.3194 480.00
75.6237 370.00
75.9279 417.00
76.2322 468.00
76.5364 392.00
76.8407 486.00
77.145 516.00
77.4492 430.00
77.7535 412.00
78.0577 374.00
78.362 413.00
78.6663 940.00
78.9705 1156.00
79.2748 529.00
79.579 403.00
79.8833 428.00
80.1876 467.00
80.4918 447.00
80.7961 433.00
81.1003 545.00
81.4046 599.00
81.7089 426.00
82.0131 400.00
82.3174 386.00
82.6217 480.00
82.9259 403.00
83.2302 421.00
83.5344 512.00
83.8387 945.00
84.143 537.00
84.4472 443.00
84.7515 462.00
85.0557 483.00
85.36 425.00
85.6643 472.00
85.9685 542.00
86.2728 491.00
86.577 411.00
86.8813 464.00
87.1856 558.00
87.4898 527.00
87.7941 371.00
88.0983 382.00
88.4026 465.00
88.7069 437.00
89.0111 462.00
89.3154 461.00
89.6196 512.00
89.9239 875.00
90.2282 682.00
90.5324 472.00
90.8367 679.00
91.1409 688.00
91.4452 538.00
91.7495 490.00
92.0537 461.00
92.358 407.00
92.6622 465.00
92.9665 401.00
93.2708 606.00
93.575 518.00
93.8793 392.00
94.1835 383.00
94.4878 361.00
94.7921 368.00
95.0963 371.00
95.4006 429.00
95.7048 446.00
96.0091 668.00
96.3134 521.00
96.6176 414.00
96.9219 523.00
97.2261 505.00
97.5304 449.00
97.8347 414.00
98.1389 419.00
98.4432 394.00
98.7474 389.00
99.0517 406.00
99.356 471.00
99.6602 528.00
99.9645 461.00
100.095 419.00