File: data/xrd_creation/results/Na_126.xy
9.903433 2660.00
10.2077 2654.00
10.512 2519.00
10.8162 2459.00
11.1205 2424.00
11.4247 2228.00
11.729 2254.00
12.0333 2129.00
12.3375 1974.00
12.6418 1975.00
12.946 2050.00
13.2503 1864.00
13.5546 1893.00
13.8588 1715.00
14.1631 1785.00
14.4673 1783.00
14.7716 1727.00
15.0759 1644.00
15.3801 1696.00
15.6844 1605.00
15.9886 1635.00
16.2929 1587.00
16.5972 1701.00
16.9014 1651.00
17.2057 1524.00
17.5099 1550.00
17.8142 1533.00
18.1185 1487.00
18.4227 1498.00
18.727 1447.00
19.0312 1550.00
19.3355 2303.00
19.6398 4591.00
19.944 1760.00
20.2483 1475.00
20.5525 1372.00
20.8568 1377.00
21.1611 1324.00
21.4653 1349.00
21.7696 1306.00
22.0738 1584.00
22.3781 2974.00
22.6824 8480.00
22.9866 1968.00
23.2909 1402.00
23.5951 1261.00
23.8994 1247.00
24.2037 1212.00
24.5079 1161.00
24.8122 1199.00
25.1164 1782.00
25.4207 2356.00
25.725 1184.00
26.0292 1069.00
26.3335 1065.00
26.6378 1320.00
26.942 3078.00
27.2463 1173.00
27.5505 1616.00
27.8548 2027.00
28.1591 1194.00
28.4633 1039.00
28.7676 1080.00
29.0718 945.00
29.3761 943.00
29.6804 898.00
29.9846 951.00
30.2889 865.00
30.5931 881.00
30.8974 875.00
31.2017 920.00
31.5059 1011.00
31.8102 1270.00
32.1144 3536.00
32.4187 1315.00
32.723 894.00
33.0272 840.00
33.3315 793.00
33.6357 829.00
33.94 1061.00
34.2443 2514.00
34.5485 940.00
34.8528 779.00
35.157 773.00
35.4613 724.00
35.7656 795.00
36.0698 744.00
36.3741 665.00
36.6783 710.00
36.9826 783.00
37.2869 990.00
37.5911 2135.00
37.8954 3492.00
38.1996 1581.00
38.5039 844.00
38.8082 771.00
39.1124 814.00
39.4167 1332.00
39.7209 1159.00
40.0252 739.00
40.3295 617.00
40.6337 659.00
40.938 711.00
41.2422 778.00
41.5465 620.00
41.8508 578.00
42.155 642.00
42.4593 581.00
42.7635 582.00
43.0678 595.00
43.3721 635.00
43.6763 707.00
43.9806 653.00
44.2849 591.00
44.5891 532.00
44.8934 564.00
45.1976 568.00
45.5019 597.00
45.8062 758.00
46.1104 725.00
46.4147 558.00
46.7189 547.00
47.0232 613.00
47.3275 702.00
47.6317 599.00
47.936 571.00
48.2402 531.00
48.5445 556.00
48.8488 601.00
49.153 591.00
49.4573 545.00
49.7615 610.00
50.0658 1081.00
50.3701 1448.00
50.6743 720.00
50.9786 673.00
51.2828 880.00
51.5871 1837.00
51.8914 1492.00
52.1956 1715.00
52.4999 609.00
52.8041 569.00
53.1084 609.00
53.4127 559.00
53.7169 514.00
54.0212 539.00
54.3254 550.00
54.6297 614.00
54.934 754.00
55.2382 821.00
55.5425 595.00
55.8467 519.00
56.151 521.00
56.4553 679.00
56.7595 954.00
57.0638 1362.00
57.368 713.00
57.6723 571.00
57.9766 577.00
58.2808 559.00
58.5851 500.00
58.8893 523.00
59.1936 488.00
59.4979 436.00
59.8021 493.00
60.1064 633.00
60.4106 839.00
60.7149 1786.00
61.0192 1198.00
61.3234 682.00
61.6277 585.00
61.932 600.00
62.2362 744.00
62.5405 560.00
62.8447 493.00
63.149 533.00
63.4533 459.00
63.7575 468.00
64.0618 487.00
64.366 486.00
64.6703 479.00
64.9745 870.00
65.2788 515.00
65.5831 470.00
65.8873 468.00
66.1916 874.00
66.4959 717.00
66.8001 886.00
67.1044 614.00
67.4086 492.00
67.7129 536.00
68.0172 501.00
68.3214 494.00
68.6257 469.00
68.9299 502.00
69.2342 498.00
69.5385 561.00
69.8427 595.00
70.147 834.00
70.4512 740.00
70.7555 516.00
71.0598 578.00
71.364 795.00
71.6683 737.00
71.9725 490.00
72.2768 435.00
72.5811 435.00
72.8853 415.00
73.1896 448.00
73.4938 479.00
73.7981 467.00
74.1024 469.00
74.4066 441.00
74.7109 422.00
75.0151 391.00
75.3194 418.00
75.6237 494.00
75.9279 534.00
76.2322 440.00
76.5364 379.00
76.8407 435.00
77.145 431.00
77.4492 458.00
77.7535 415.00
78.0577 415.00
78.362 363.00
78.6663 468.00
78.9705 797.00
79.2748 605.00
79.579 466.00
79.8833 455.00
80.1876 509.00
80.4918 453.00
80.7961 436.00
81.1003 427.00
81.4046 494.00
81.7089 399.00
82.0131 363.00
82.3174 368.00
82.6217 334.00
82.9259 364.00
83.2302 375.00
83.5344 359.00
83.8387 413.00
84.143 443.00
84.4472 360.00
84.7515 353.00
85.0557 364.00
85.36 401.00
85.6643 372.00
85.9685 407.00
86.2728 356.00
86.577 379.00
86.8813 345.00
87.1856 392.00
87.4898 511.00
87.7941 539.00
88.0983 463.00
88.4026 495.00
88.7069 539.00
89.0111 602.00
89.3154 483.00
89.6196 447.00
89.9239 539.00
90.2282 510.00
90.5324 389.00
90.8367 392.00
91.1409 623.00
91.4452 559.00
91.7495 456.00
92.0537 375.00
92.358 422.00
92.6622 416.00
92.9665 511.00
93.2708 574.00
93.575 553.00
93.8793 422.00
94.1835 399.00
94.4878 361.00
94.7921 375.00
95.0963 374.00
95.4006 376.00
95.7048 403.00
96.0091 524.00
96.3134 610.00
96.6176 635.00
96.9219 464.00
97.2261 438.00
97.5304 429.00
97.8347 431.00
98.1389 370.00
98.4432 366.00
98.7474 409.00
99.0517 355.00
99.356 368.00
99.6602 360.00
99.9645 386.00
100.095 377.00