File: data/xrd_creation/results/Na_103.xy
9.903433 2838.00
10.2077 2632.00
10.512 2559.00
10.8162 2495.00
11.1205 2429.00
11.4247 2377.00
11.729 2225.00
12.0333 2185.00
12.3375 2223.00
12.6418 1997.00
12.946 1848.00
13.2503 1963.00
13.5546 1931.00
13.8588 1828.00
14.1631 1802.00
14.4673 1809.00
14.7716 1752.00
15.0759 1609.00
15.3801 1728.00
15.6844 1659.00
15.9886 1589.00
16.2929 1660.00
16.5972 1598.00
16.9014 1510.00
17.2057 1533.00
17.5099 1550.00
17.8142 1584.00
18.1185 1548.00
18.4227 1401.00
18.727 1406.00
19.0312 1514.00
19.3355 1501.00
19.6398 1553.00
19.944 1331.00
20.2483 1382.00
20.5525 1391.00
20.8568 1324.00
21.1611 1271.00
21.4653 1446.00
21.7696 1817.00
22.0738 1342.00
22.3781 1391.00
22.6824 1514.00
22.9866 1236.00
23.2909 1226.00
23.5951 1209.00
23.8994 1211.00
24.2037 1143.00
24.5079 1085.00
24.8122 1099.00
25.1164 1162.00
25.4207 1123.00
25.725 1250.00
26.0292 1305.00
26.3335 1516.00
26.6378 4119.00
26.942 15909.00
27.2463 1887.00
27.5505 1284.00
27.8548 1224.00
28.1591 1125.00
28.4633 1207.00
28.7676 1004.00
29.0718 1042.00
29.3761 1144.00
29.6804 1729.00
29.9846 5546.00
30.2889 2295.00
30.5931 1956.00
30.8974 1259.00
31.2017 1023.00
31.5059 975.00
31.8102 1004.00
32.1144 1013.00
32.4187 785.00
32.723 853.00
33.0272 880.00
33.3315 974.00
33.6357 1207.00
33.94 3651.00
34.2443 11869.00
34.5485 1588.00
34.8528 957.00
35.157 835.00
35.4613 883.00
35.7656 1074.00
36.0698 926.00
36.3741 714.00
36.6783 680.00
36.9826 752.00
37.2869 781.00
37.5911 1087.00
37.8954 1108.00
38.1996 4310.00
38.5039 1167.00
38.8082 750.00
39.1124 868.00
39.4167 1033.00
39.7209 678.00
40.0252 602.00
40.3295 653.00
40.6337 586.00
40.938 588.00
41.2422 546.00
41.5465 574.00
41.8508 556.00
42.155 616.00
42.4593 595.00
42.7635 616.00
43.0678 760.00
43.3721 1005.00
43.6763 658.00
43.9806 737.00
44.2849 678.00
44.5891 625.00
44.8934 595.00
45.1976 600.00
45.5019 557.00
45.8062 539.00
46.1104 532.00
46.4147 499.00
46.7189 487.00
47.0232 439.00
47.3275 477.00
47.6317 452.00
47.936 452.00
48.2402 445.00
48.5445 472.00
48.8488 662.00
49.153 592.00
49.4573 752.00
49.7615 600.00
50.0658 618.00
50.3701 531.00
50.6743 555.00
50.9786 547.00
51.2828 652.00
51.5871 1009.00
51.8914 4069.00
52.1956 7733.00
52.4999 1081.00
52.8041 609.00
53.1084 554.00
53.4127 513.00
53.7169 522.00
54.0212 666.00
54.3254 738.00
54.6297 754.00
54.934 2032.00
55.2382 1558.00
55.5425 569.00
55.8467 496.00
56.151 480.00
56.4553 499.00
56.7595 588.00
57.0638 651.00
57.368 611.00
57.6723 687.00
57.9766 1179.00
58.2808 1213.00
58.5851 742.00
58.8893 819.00
59.1936 538.00
59.4979 431.00
59.8021 459.00
60.1064 447.00
60.4106 489.00
60.7149 513.00
61.0192 478.00
61.3234 438.00
61.6277 510.00
61.932 978.00
62.2362 2142.00
62.5405 670.00
62.8447 530.00
63.149 544.00
63.4533 576.00
63.7575 562.00
64.0618 513.00
64.366 528.00
64.6703 679.00
64.9745 2747.00
65.2788 1056.00
65.5831 557.00
65.8873 707.00
66.1916 3034.00
66.4959 1340.00
66.8001 483.00
67.1044 467.00
67.4086 444.00
67.7129 472.00
68.0172 515.00
68.3214 463.00
68.6257 384.00
68.9299 387.00
69.2342 409.00
69.5385 407.00
69.8427 369.00
70.147 407.00
70.4512 421.00
70.7555 447.00
71.0598 550.00
71.364 959.00
71.6683 1253.00
71.9725 515.00
72.2768 400.00
72.5811 372.00
72.8853 364.00
73.1896 325.00
73.4938 346.00
73.7981 310.00
74.1024 320.00
74.4066 314.00
74.7109 342.00
75.0151 310.00
75.3194 296.00
75.6237 318.00
75.9279 415.00
76.2322 414.00
76.5364 396.00
76.8407 346.00
77.145 344.00
77.4492 341.00
77.7535 360.00
78.0577 340.00
78.362 390.00
78.6663 596.00
78.9705 1998.00
79.2748 926.00
79.579 442.00
79.8833 346.00
80.1876 349.00
80.4918 312.00
80.7961 350.00
81.1003 432.00
81.4046 828.00
81.7089 466.00
82.0131 334.00
82.3174 298.00
82.6217 307.00
82.9259 341.00
83.2302 403.00
83.5344 362.00
83.8387 1054.00
84.143 1039.00
84.4472 438.00
84.7515 299.00
85.0557 316.00
85.36 295.00
85.6643 312.00
85.9685 321.00
86.2728 313.00
86.577 314.00
86.8813 346.00
87.1856 373.00
87.4898 808.00
87.7941 542.00
88.0983 373.00
88.4026 355.00
88.7069 301.00
89.0111 326.00
89.3154 358.00
89.6196 438.00
89.9239 1312.00
90.2282 1123.00
90.5324 565.00
90.8367 651.00
91.1409 1527.00
91.4452 1000.00
91.7495 410.00
92.0537 356.00
92.358 329.00
92.6622 343.00
92.9665 341.00
93.2708 442.00
93.575 772.00
93.8793 557.00
94.1835 341.00
94.4878 325.00
94.7921 362.00
95.0963 393.00
95.4006 363.00
95.7048 375.00
96.0091 493.00
96.3134 687.00
96.6176 507.00
96.9219 298.00
97.2261 285.00
97.5304 288.00
97.8347 307.00
98.1389 296.00
98.4432 268.00
98.7474 286.00
99.0517 320.00
99.356 332.00
99.6602 310.00
99.9645 328.00
100.095 297.00