File: data/xrd_creation/results/Na_116.xy
9.903433 2773.00
10.2077 2692.00
10.512 2601.00
10.8162 2476.00
11.1205 2499.00
11.4247 3961.00
11.729 7395.00
12.0333 2412.00
12.3375 2191.00
12.6418 2086.00
12.946 2081.00
13.2503 1981.00
13.5546 1922.00
13.8588 1843.00
14.1631 1867.00
14.4673 1860.00
14.7716 1863.00
15.0759 1783.00
15.3801 1738.00
15.6844 1785.00
15.9886 1825.00
16.2929 2857.00
16.5972 3204.00
16.9014 1738.00
17.2057 1658.00
17.5099 1575.00
17.8142 1688.00
18.1185 2245.00
18.4227 1629.00
18.727 1414.00
19.0312 1457.00
19.3355 1409.00
19.6398 1388.00
19.944 1325.00
20.2483 1354.00
20.5525 1359.00
20.8568 1457.00
21.1611 1554.00
21.4653 1289.00
21.7696 1254.00
22.0738 1259.00
22.3781 1219.00
22.6824 1111.00
22.9866 1189.00
23.2909 1249.00
23.5951 1191.00
23.8994 1182.00
24.2037 1264.00
24.5079 1849.00
24.8122 1480.00
25.1164 1154.00
25.4207 1276.00
25.725 1672.00
26.0292 5348.00
26.3335 1914.00
26.6378 2449.00
26.942 6726.00
27.2463 1435.00
27.5505 1374.00
27.8548 4919.00
28.1591 2594.00
28.4633 1161.00
28.7676 988.00
29.0718 974.00
29.3761 890.00
29.6804 942.00
29.9846 1134.00
30.2889 1682.00
30.5931 1186.00
30.8974 925.00
31.2017 966.00
31.5059 1655.00
31.8102 1314.00
32.1144 1029.00
32.4187 847.00
32.723 1129.00
33.0272 5275.00
33.3315 1150.00
33.6357 979.00
33.94 1997.00
34.2443 6230.00
34.5485 6280.00
34.8528 2440.00
35.157 1115.00
35.4613 810.00
35.7656 775.00
36.0698 792.00
36.3741 1050.00
36.6783 1012.00
36.9826 1071.00
37.2869 988.00
37.5911 727.00
37.8954 928.00
38.1996 2441.00
38.5039 732.00
38.8082 667.00
39.1124 896.00
39.4167 794.00
39.7209 665.00
40.0252 635.00
40.3295 650.00
40.6337 677.00
40.938 656.00
41.2422 652.00
41.5465 702.00
41.8508 1079.00
42.155 1325.00
42.4593 1368.00
42.7635 728.00
43.0678 622.00
43.3721 657.00
43.6763 929.00
43.9806 641.00
44.2849 626.00
44.5891 628.00
44.8934 596.00
45.1976 916.00
45.5019 751.00
45.8062 683.00
46.1104 613.00
46.4147 616.00
46.7189 692.00
47.0232 975.00
47.3275 1160.00
47.6317 1720.00
47.936 670.00
48.2402 580.00
48.5445 771.00
48.8488 649.00
49.153 944.00
49.4573 745.00
49.7615 1434.00
50.0658 1275.00
50.3701 1299.00
50.6743 640.00
50.9786 557.00
51.2828 702.00
51.5871 785.00
51.8914 2586.00
52.1956 3452.00
52.4999 673.00
52.8041 541.00
53.1084 932.00
53.4127 841.00
53.7169 664.00
54.0212 647.00
54.3254 627.00
54.6297 597.00
54.934 1400.00
55.2382 996.00
55.5425 955.00
55.8467 593.00
56.151 653.00
56.4553 727.00
56.7595 694.00
57.0638 770.00
57.368 872.00
57.6723 654.00
57.9766 903.00
58.2808 1025.00
58.5851 1242.00
58.8893 907.00
59.1936 846.00
59.4979 1338.00
59.8021 1341.00
60.1064 1062.00
60.4106 874.00
60.7149 601.00
61.0192 611.00
61.3234 530.00
61.6277 725.00
61.932 762.00
62.2362 1375.00
62.5405 782.00
62.8447 709.00
63.149 740.00
63.4533 496.00
63.7575 563.00
64.0618 606.00
64.366 590.00
64.6703 653.00
64.9745 1991.00
65.2788 773.00
65.5831 667.00
65.8873 830.00
66.1916 2065.00
66.4959 852.00
66.8001 616.00
67.1044 579.00
67.4086 580.00
67.7129 516.00
68.0172 641.00
68.3214 480.00
68.6257 571.00
68.9299 669.00
69.2342 556.00
69.5385 499.00
69.8427 425.00
70.147 441.00
70.4512 449.00
70.7555 446.00
71.0598 416.00
71.364 558.00
71.6683 741.00
71.9725 467.00
72.2768 680.00
72.5811 500.00
72.8853 371.00
73.1896 462.00
73.4938 593.00
73.7981 405.00
74.1024 392.00
74.4066 539.00
74.7109 517.00
75.0151 405.00
75.3194 497.00
75.6237 421.00
75.9279 439.00
76.2322 457.00
76.5364 398.00
76.8407 480.00
77.145 504.00
77.4492 574.00
77.7535 404.00
78.0577 516.00
78.362 453.00
78.6663 535.00
78.9705 1341.00
79.2748 676.00
79.579 469.00
79.8833 371.00
80.1876 516.00
80.4918 461.00
80.7961 456.00
81.1003 481.00
81.4046 586.00
81.7089 519.00
82.0131 426.00
82.3174 391.00
82.6217 423.00
82.9259 468.00
83.2302 390.00
83.5344 494.00
83.8387 775.00
84.143 812.00
84.4472 457.00
84.7515 439.00
85.0557 460.00
85.36 466.00
85.6643 405.00
85.9685 437.00
86.2728 441.00
86.577 459.00
86.8813 460.00
87.1856 533.00
87.4898 644.00
87.7941 469.00
88.0983 405.00
88.4026 501.00
88.7069 511.00
89.0111 473.00
89.3154 449.00
89.6196 560.00
89.9239 969.00
90.2282 837.00
90.5324 567.00
90.8367 525.00
91.1409 1027.00
91.4452 757.00
91.7495 549.00
92.0537 519.00
92.358 435.00
92.6622 479.00
92.9665 443.00
93.2708 436.00
93.575 571.00
93.8793 486.00
94.1835 384.00
94.4878 377.00
94.7921 373.00
95.0963 382.00
95.4006 444.00
95.7048 447.00
96.0091 502.00
96.3134 632.00
96.6176 492.00
96.9219 463.00
97.2261 509.00
97.5304 544.00
97.8347 479.00
98.1389 428.00
98.4432 386.00
98.7474 422.00
99.0517 362.00
99.356 407.00
99.6602 497.00
99.9645 466.00
100.095 516.00