File: data/xrd_creation/results/Na_294.xy
9.903433 2762.00
10.2077 2644.00
10.512 2554.00
10.8162 2530.00
11.1205 3073.00
11.4247 2502.00
11.729 3505.00
12.0333 8439.00
12.3375 2863.00
12.6418 2509.00
12.946 2205.00
13.2503 2333.00
13.5546 2404.00
13.8588 2128.00
14.1631 2008.00
14.4673 1959.00
14.7716 1971.00
15.0759 1915.00
15.3801 1864.00
15.6844 1795.00
15.9886 1775.00
16.2929 1790.00
16.5972 1869.00
16.9014 1869.00
17.2057 1931.00
17.5099 2052.00
17.8142 2204.00
18.1185 2121.00
18.4227 1787.00
18.727 2897.00
19.0312 1852.00
19.3355 1737.00
19.6398 1744.00
19.944 1898.00
20.2483 3612.00
20.5525 2505.00
20.8568 5126.00
21.1611 2007.00
21.4653 3163.00
21.7696 4054.00
22.0738 3209.00
22.3781 1699.00
22.6824 1701.00
22.9866 1869.00
23.2909 2550.00
23.5951 2538.00
23.8994 2745.00
24.2037 3051.00
24.5079 2736.00
24.8122 3523.00
25.1164 6758.00
25.4207 1696.00
25.725 1591.00
26.0292 1506.00
26.3335 1861.00
26.6378 1748.00
26.942 4080.00
27.2463 1998.00
27.5505 3275.00
27.8548 2913.00
28.1591 2626.00
28.4633 2239.00
28.7676 1925.00
29.0718 1581.00
29.3761 1612.00
29.6804 1793.00
29.9846 2476.00
30.2889 2901.00
30.5931 2276.00
30.8974 3212.00
31.2017 3094.00
31.5059 3887.00
31.8102 3311.00
32.1144 3641.00
32.4187 5945.00
32.723 3915.00
33.0272 3574.00
33.3315 3107.00
33.6357 2775.00
33.94 2380.00
34.2443 1823.00
34.5485 1804.00
34.8528 1585.00
35.157 2047.00
35.4613 1480.00
35.7656 1379.00
36.0698 1979.00
36.3741 2246.00
36.6783 3048.00
36.9826 2519.00
37.2869 2044.00
37.5911 2375.00
37.8954 2247.00
38.1996 1625.00
38.5039 1393.00
38.8082 1480.00
39.1124 1244.00
39.4167 2228.00
39.7209 1451.00
40.0252 1337.00
40.3295 1806.00
40.6337 1583.00
40.938 1740.00
41.2422 1312.00
41.5465 1371.00
41.8508 1635.00
42.155 1381.00
42.4593 1536.00
42.7635 1413.00
43.0678 1295.00
43.3721 1441.00
43.6763 1520.00
43.9806 1637.00
44.2849 1693.00
44.5891 1644.00
44.8934 1594.00
45.1976 1394.00
45.5019 2154.00
45.8062 1817.00
46.1104 1566.00
46.4147 1379.00
46.7189 1288.00
47.0232 1255.00
47.3275 1385.00
47.6317 1738.00
47.936 1289.00
48.2402 1221.00
48.5445 1582.00
48.8488 2428.00
49.153 2061.00
49.4573 2205.00
49.7615 1514.00
50.0658 2097.00
50.3701 1754.00
50.6743 1850.00
50.9786 1523.00
51.2828 1580.00
51.5871 1332.00
51.8914 1372.00
52.1956 1917.00
52.4999 1613.00
52.8041 1455.00
53.1084 1616.00
53.4127 1828.00
53.7169 1861.00
54.0212 1758.00
54.3254 1969.00
54.6297 1972.00
54.934 2656.00
55.2382 2124.00
55.5425 1791.00
55.8467 1851.00
56.151 2242.00
56.4553 2688.00
56.7595 2430.00
57.0638 1953.00
57.368 1517.00
57.6723 1628.00
57.9766 2002.00
58.2808 1584.00
58.5851 1779.00
58.8893 1610.00
59.1936 1772.00
59.4979 1814.00
59.8021 1672.00
60.1064 1575.00
60.4106 1604.00
60.7149 1547.00
61.0192 1503.00
61.3234 1525.00
61.6277 1738.00
61.932 1729.00
62.2362 1755.00
62.5405 1757.00
62.8447 1470.00
63.149 1296.00
63.4533 1261.00
63.7575 1328.00
64.0618 1177.00
64.366 1278.00
64.6703 1209.00
64.9745 1356.00
65.2788 1270.00
65.5831 1296.00
65.8873 1358.00
66.1916 1348.00
66.4959 1266.00
66.8001 1260.00
67.1044 1300.00
67.4086 1425.00
67.7129 1412.00
68.0172 1266.00
68.3214 1286.00
68.6257 1256.00
68.9299 1505.00
69.2342 1458.00
69.5385 1361.00
69.8427 1293.00
70.147 1509.00
70.4512 1384.00
70.7555 1284.00
71.0598 1146.00
71.364 1176.00
71.6683 1187.00
71.9725 1210.00
72.2768 1188.00
72.5811 1252.00
72.8853 1326.00
73.1896 1365.00
73.4938 1264.00
73.7981 1299.00
74.1024 1179.00
74.4066 1080.00
74.7109 1117.00
75.0151 1129.00
75.3194 1095.00
75.6237 1086.00
75.9279 1062.00
76.2322 1178.00
76.5364 1119.00
76.8407 1055.00
77.145 1146.00
77.4492 1258.00
77.7535 1118.00
78.0577 1079.00
78.362 1092.00
78.6663 1025.00
78.9705 1042.00
79.2748 1085.00
79.579 1224.00
79.8833 1184.00
80.1876 1228.00
80.4918 1211.00
80.7961 1282.00
81.1003 1175.00
81.4046 1102.00
81.7089 1108.00
82.0131 1073.00
82.3174 1111.00
82.6217 1180.00
82.9259 1152.00
83.2302 1188.00
83.5344 1181.00
83.8387 1182.00
84.143 1241.00
84.4472 1289.00
84.7515 1203.00
85.0557 1357.00
85.36 1373.00
85.6643 1198.00
85.9685 1170.00
86.2728 1244.00
86.577 1105.00
86.8813 1149.00
87.1856 1152.00
87.4898 1268.00
87.7941 1380.00
88.0983 1366.00
88.4026 1253.00
88.7069 1199.00
89.0111 1182.00
89.3154 1200.00
89.6196 1153.00
89.9239 1206.00
90.2282 1193.00
90.5324 1213.00
90.8367 1177.00
91.1409 1185.00
91.4452 1153.00
91.7495 1075.00
92.0537 1149.00
92.358 1091.00
92.6622 1143.00
92.9665 1071.00
93.2708 1107.00
93.575 1070.00
93.8793 1124.00
94.1835 1135.00
94.4878 1233.00
94.7921 1165.00
95.0963 1110.00
95.4006 1069.00
95.7048 1132.00
96.0091 1140.00
96.3134 1015.00
96.6176 1026.00
96.9219 1190.00
97.2261 1169.00
97.5304 1107.00
97.8347 1082.00
98.1389 1152.00
98.4432 1167.00
98.7474 1065.00
99.0517 1021.00
99.356 1102.00
99.6602 1073.00
99.9645 1084.00
100.095 1083.00