File: data/xrd_creation/results/Na_206.xy
9.903433 2907.00
10.2077 2834.00
10.512 2996.00
10.8162 2646.00
11.1205 2583.00
11.4247 2554.00
11.729 2592.00
12.0333 3785.00
12.3375 2468.00
12.6418 2264.00
12.946 2167.00
13.2503 2129.00
13.5546 2110.00
13.8588 2169.00
14.1631 2291.00
14.4673 1967.00
14.7716 2027.00
15.0759 1915.00
15.3801 1947.00
15.6844 1938.00
15.9886 1894.00
16.2929 1943.00
16.5972 1867.00
16.9014 1922.00
17.2057 1814.00
17.5099 1856.00
17.8142 1919.00
18.1185 1741.00
18.4227 1752.00
18.727 1757.00
19.0312 1687.00
19.3355 1800.00
19.6398 2325.00
19.944 2783.00
20.2483 1755.00
20.5525 1863.00
20.8568 2669.00
21.1611 1731.00
21.4653 1584.00
21.7696 1534.00
22.0738 1563.00
22.3781 1575.00
22.6824 1807.00
22.9866 2867.00
23.2909 3570.00
23.5951 2288.00
23.8994 2145.00
24.2037 3327.00
24.5079 2115.00
24.8122 2271.00
25.1164 1600.00
25.4207 1619.00
25.725 1557.00
26.0292 1598.00
26.3335 1648.00
26.6378 1570.00
26.942 1481.00
27.2463 1522.00
27.5505 1484.00
27.8548 1715.00
28.1591 2866.00
28.4633 6620.00
28.7676 1708.00
29.0718 1514.00
29.3761 1448.00
29.6804 1518.00
29.9846 1698.00
30.2889 2320.00
30.5931 2001.00
30.8974 1695.00
31.2017 2224.00
31.5059 5909.00
31.8102 6374.00
32.1144 1738.00
32.4187 1414.00
32.723 1402.00
33.0272 1439.00
33.3315 1475.00
33.6357 1624.00
33.94 3961.00
34.2443 7992.00
34.5485 3168.00
34.8528 1599.00
35.157 1401.00
35.4613 1837.00
35.7656 1618.00
36.0698 1401.00
36.3741 1494.00
36.6783 1385.00
36.9826 1265.00
37.2869 1297.00
37.5911 1270.00
37.8954 1179.00
38.1996 1244.00
38.5039 1262.00
38.8082 1556.00
39.1124 1219.00
39.4167 1250.00
39.7209 1341.00
40.0252 1240.00
40.3295 1304.00
40.6337 1350.00
40.938 1829.00
41.2422 1617.00
41.5465 1959.00
41.8508 1419.00
42.155 1640.00
42.4593 1380.00
42.7635 1234.00
43.0678 1255.00
43.3721 1388.00
43.6763 1227.00
43.9806 1176.00
44.2849 1167.00
44.5891 1266.00
44.8934 1456.00
45.1976 1524.00
45.5019 1262.00
45.8062 1587.00
46.1104 1362.00
46.4147 1616.00
46.7189 1464.00
47.0232 2931.00
47.3275 2093.00
47.6317 1359.00
47.936 1239.00
48.2402 1180.00
48.5445 1167.00
48.8488 1414.00
49.153 2340.00
49.4573 2119.00
49.7615 1400.00
50.0658 1387.00
50.3701 2938.00
50.6743 1983.00
50.9786 1780.00
51.2828 1430.00
51.5871 1489.00
51.8914 1409.00
52.1956 1269.00
52.4999 1164.00
52.8041 1126.00
53.1084 1561.00
53.4127 1359.00
53.7169 1279.00
54.0212 1221.00
54.3254 1886.00
54.6297 1431.00
54.934 1276.00
55.2382 1286.00
55.5425 1778.00
55.8467 1839.00
56.151 1629.00
56.4553 1219.00
56.7595 1109.00
57.0638 1163.00
57.368 1494.00
57.6723 1261.00
57.9766 1225.00
58.2808 1324.00
58.5851 1350.00
58.8893 1269.00
59.1936 1731.00
59.4979 1585.00
59.8021 1289.00
60.1064 1716.00
60.4106 1454.00
60.7149 1510.00
61.0192 1784.00
61.3234 1376.00
61.6277 1423.00
61.932 1391.00
62.2362 1884.00
62.5405 1225.00
62.8447 1215.00
63.149 1527.00
63.4533 1170.00
63.7575 989.00
64.0618 1046.00
64.366 1110.00
64.6703 1157.00
64.9745 1093.00
65.2788 1112.00
65.5831 1176.00
65.8873 1396.00
66.1916 1253.00
66.4959 1102.00
66.8001 1059.00
67.1044 938.00
67.4086 1010.00
67.7129 1011.00
68.0172 1022.00
68.3214 923.00
68.6257 898.00
68.9299 954.00
69.2342 985.00
69.5385 1032.00
69.8427 949.00
70.147 989.00
70.4512 999.00
70.7555 892.00
71.0598 972.00
71.364 1377.00
71.6683 1171.00
71.9725 1099.00
72.2768 1017.00
72.5811 988.00
72.8853 1010.00
73.1896 911.00
73.4938 879.00
73.7981 857.00
74.1024 824.00
74.4066 917.00
74.7109 844.00
75.0151 1031.00
75.3194 1117.00
75.6237 1004.00
75.9279 896.00
76.2322 885.00
76.5364 1006.00
76.8407 966.00
77.145 956.00
77.4492 960.00
77.7535 952.00
78.0577 824.00
78.362 875.00
78.6663 796.00
78.9705 969.00
79.2748 971.00
79.579 844.00
79.8833 952.00
80.1876 1025.00
80.4918 890.00
80.7961 841.00
81.1003 850.00
81.4046 841.00
81.7089 1056.00
82.0131 975.00
82.3174 932.00
82.6217 1019.00
82.9259 978.00
83.2302 949.00
83.5344 998.00
83.8387 890.00
84.143 997.00
84.4472 929.00
84.7515 849.00
85.0557 882.00
85.36 880.00
85.6643 921.00
85.9685 877.00
86.2728 950.00
86.577 933.00
86.8813 887.00
87.1856 852.00
87.4898 929.00
87.7941 900.00
88.0983 901.00
88.4026 975.00
88.7069 980.00
89.0111 892.00
89.3154 839.00
89.6196 917.00
89.9239 1033.00
90.2282 1004.00
90.5324 896.00
90.8367 824.00
91.1409 861.00
91.4452 870.00
91.7495 917.00
92.0537 893.00
92.358 800.00
92.6622 880.00
92.9665 880.00
93.2708 764.00
93.575 798.00
93.8793 828.00
94.1835 896.00
94.4878 832.00
94.7921 808.00
95.0963 813.00
95.4006 826.00
95.7048 825.00
96.0091 818.00
96.3134 870.00
96.6176 995.00
96.9219 931.00
97.2261 969.00
97.5304 868.00
97.8347 801.00
98.1389 889.00
98.4432 801.00
98.7474 812.00
99.0517 898.00
99.356 893.00
99.6602 1025.00
99.9645 881.00
100.095 901.00