File: data/xrd_creation/results/Na_275.xy
9.903433 2701.00
10.2077 2400.00
10.512 2464.00
10.8162 2288.00
11.1205 2121.00
11.4247 1920.00
11.729 1989.00
12.0333 1968.00
12.3375 1826.00
12.6418 1741.00
12.946 1674.00
13.2503 1610.00
13.5546 1571.00
13.8588 1596.00
14.1631 1470.00
14.4673 1463.00
14.7716 1378.00
15.0759 1352.00
15.3801 1305.00
15.6844 1309.00
15.9886 1373.00
16.2929 1245.00
16.5972 1240.00
16.9014 1169.00
17.2057 1246.00
17.5099 1197.00
17.8142 1177.00
18.1185 1116.00
18.4227 1099.00
18.727 1072.00
19.0312 1075.00
19.3355 1001.00
19.6398 987.00
19.944 990.00
20.2483 968.00
20.5525 1258.00
20.8568 1151.00
21.1611 879.00
21.4653 924.00
21.7696 909.00
22.0738 892.00
22.3781 821.00
22.6824 888.00
22.9866 820.00
23.2909 779.00
23.5951 781.00
23.8994 754.00
24.2037 741.00
24.5079 744.00
24.8122 749.00
25.1164 743.00
25.4207 745.00
25.725 676.00
26.0292 668.00
26.3335 697.00
26.6378 669.00
26.942 638.00
27.2463 665.00
27.5505 644.00
27.8548 592.00
28.1591 621.00
28.4633 645.00
28.7676 576.00
29.0718 598.00
29.3761 595.00
29.6804 621.00
29.9846 572.00
30.2889 599.00
30.5931 494.00
30.8974 562.00
31.2017 509.00
31.5059 534.00
31.8102 486.00
32.1144 499.00
32.4187 516.00
32.723 531.00
33.0272 514.00
33.3315 494.00
33.6357 500.00
33.94 534.00
34.2443 1041.00
34.5485 508.00
34.8528 420.00
35.157 456.00
35.4613 468.00
35.7656 457.00
36.0698 432.00
36.3741 427.00
36.6783 452.00
36.9826 414.00
37.2869 404.00
37.5911 417.00
37.8954 412.00
38.1996 392.00
38.5039 393.00
38.8082 392.00
39.1124 394.00
39.4167 363.00
39.7209 365.00
40.0252 370.00
40.3295 381.00
40.6337 333.00
40.938 309.00
41.2422 353.00
41.5465 355.00
41.8508 322.00
42.155 361.00
42.4593 320.00
42.7635 350.00
43.0678 315.00
43.3721 309.00
43.6763 330.00
43.9806 287.00
44.2849 332.00
44.5891 306.00
44.8934 302.00
45.1976 312.00
45.5019 311.00
45.8062 296.00
46.1104 288.00
46.4147 269.00
46.7189 275.00
47.0232 312.00
47.3275 289.00
47.6317 312.00
47.936 308.00
48.2402 298.00
48.5445 321.00
48.8488 283.00
49.153 394.00
49.4573 280.00
49.7615 289.00
50.0658 267.00
50.3701 283.00
50.6743 274.00
50.9786 250.00
51.2828 250.00
51.5871 266.00
51.8914 290.00
52.1956 273.00
52.4999 246.00
52.8041 277.00
53.1084 231.00
53.4127 239.00
53.7169 251.00
54.0212 260.00
54.3254 225.00
54.6297 244.00
54.934 278.00
55.2382 243.00
55.5425 257.00
55.8467 238.00
56.151 216.00
56.4553 200.00
56.7595 231.00
57.0638 227.00
57.368 204.00
57.6723 217.00
57.9766 202.00
58.2808 235.00
58.5851 198.00
58.8893 249.00
59.1936 206.00
59.4979 221.00
59.8021 196.00
60.1064 208.00
60.4106 221.00
60.7149 224.00
61.0192 186.00
61.3234 294.00
61.6277 227.00
61.932 182.00
62.2362 233.00
62.5405 204.00
62.8447 199.00
63.149 179.00
63.4533 221.00
63.7575 211.00
64.0618 221.00
64.366 199.00
64.6703 219.00
64.9745 198.00
65.2788 195.00
65.5831 224.00
65.8873 193.00
66.1916 175.00
66.4959 203.00
66.8001 197.00
67.1044 207.00
67.4086 193.00
67.7129 187.00
68.0172 166.00
68.3214 184.00
68.6257 196.00
68.9299 198.00
69.2342 219.00
69.5385 199.00
69.8427 176.00
70.147 200.00
70.4512 198.00
70.7555 191.00
71.0598 190.00
71.364 207.00
71.6683 189.00
71.9725 185.00
72.2768 186.00
72.5811 189.00
72.8853 194.00
73.1896 207.00
73.4938 206.00
73.7981 202.00
74.1024 189.00
74.4066 188.00
74.7109 226.00
75.0151 183.00
75.3194 182.00
75.6237 201.00
75.9279 222.00
76.2322 199.00
76.5364 204.00
76.8407 198.00
77.145 239.00
77.4492 214.00
77.7535 230.00
78.0577 214.00
78.362 191.00
78.6663 214.00
78.9705 185.00
79.2748 210.00
79.579 242.00
79.8833 230.00
80.1876 217.00
80.4918 256.00
80.7961 224.00
81.1003 224.00
81.4046 226.00
81.7089 225.00
82.0131 210.00
82.3174 225.00
82.6217 223.00
82.9259 235.00
83.2302 229.00
83.5344 209.00
83.8387 214.00
84.143 209.00
84.4472 210.00
84.7515 237.00
85.0557 226.00
85.36 223.00
85.6643 193.00
85.9685 216.00
86.2728 215.00
86.577 163.00
86.8813 205.00
87.1856 198.00
87.4898 198.00
87.7941 191.00
88.0983 185.00
88.4026 187.00
88.7069 204.00
89.0111 209.00
89.3154 190.00
89.6196 182.00
89.9239 194.00
90.2282 188.00
90.5324 171.00
90.8367 195.00
91.1409 227.00
91.4452 176.00
91.7495 186.00
92.0537 201.00
92.358 159.00
92.6622 188.00
92.9665 205.00
93.2708 214.00
93.575 182.00
93.8793 197.00
94.1835 175.00
94.4878 157.00
94.7921 199.00
95.0963 171.00
95.4006 194.00
95.7048 190.00
96.0091 184.00
96.3134 160.00
96.6176 182.00
96.9219 192.00
97.2261 163.00
97.5304 197.00
97.8347 181.00
98.1389 211.00
98.4432 154.00
98.7474 187.00
99.0517 169.00
99.356 204.00
99.6602 178.00
99.9645 196.00
100.095 189.00