File: data/xrd_creation/results/Na_21.xy
9.903433 2615.00
10.2077 2379.00
10.512 2410.00
10.8162 2294.00
11.1205 2191.00
11.4247 2059.00
11.729 2008.00
12.0333 1854.00
12.3375 1823.00
12.6418 1740.00
12.946 1662.00
13.2503 1673.00
13.5546 1561.00
13.8588 1543.00
14.1631 1491.00
14.4673 1507.00
14.7716 1419.00
15.0759 1375.00
15.3801 1396.00
15.6844 1373.00
15.9886 1364.00
16.2929 1291.00
16.5972 1415.00
16.9014 1590.00
17.2057 1393.00
17.5099 1243.00
17.8142 1283.00
18.1185 1249.00
18.4227 1178.00
18.727 1121.00
19.0312 1168.00
19.3355 1028.00
19.6398 1075.00
19.944 1028.00
20.2483 1006.00
20.5525 1024.00
20.8568 944.00
21.1611 1001.00
21.4653 952.00
21.7696 970.00
22.0738 1217.00
22.3781 1123.00
22.6824 976.00
22.9866 859.00
23.2909 1169.00
23.5951 942.00
23.8994 817.00
24.2037 840.00
24.5079 810.00
24.8122 823.00
25.1164 822.00
25.4207 886.00
25.725 1238.00
26.0292 984.00
26.3335 790.00
26.6378 831.00
26.942 757.00
27.2463 739.00
27.5505 701.00
27.8548 780.00
28.1591 702.00
28.4633 961.00
28.7676 1222.00
29.0718 795.00
29.3761 914.00
29.6804 1151.00
29.9846 818.00
30.2889 910.00
30.5931 710.00
30.8974 757.00
31.2017 648.00
31.5059 621.00
31.8102 623.00
32.1144 930.00
32.4187 714.00
32.723 609.00
33.0272 668.00
33.3315 929.00
33.6357 695.00
33.94 709.00
34.2443 836.00
34.5485 691.00
34.8528 594.00
35.157 1234.00
35.4613 1189.00
35.7656 831.00
36.0698 561.00
36.3741 549.00
36.6783 518.00
36.9826 550.00
37.2869 657.00
37.5911 604.00
37.8954 621.00
38.1996 514.00
38.5039 576.00
38.8082 544.00
39.1124 536.00
39.4167 517.00
39.7209 489.00
40.0252 471.00
40.3295 498.00
40.6337 443.00
40.938 503.00
41.2422 486.00
41.5465 624.00
41.8508 654.00
42.155 530.00
42.4593 484.00
42.7635 540.00
43.0678 543.00
43.3721 747.00
43.6763 718.00
43.9806 677.00
44.2849 492.00
44.5891 442.00
44.8934 856.00
45.1976 604.00
45.5019 479.00
45.8062 620.00
46.1104 543.00
46.4147 582.00
46.7189 462.00
47.0232 452.00
47.3275 465.00
47.6317 484.00
47.936 418.00
48.2402 500.00
48.5445 442.00
48.8488 436.00
49.153 505.00
49.4573 425.00
49.7615 565.00
50.0658 487.00
50.3701 458.00
50.6743 432.00
50.9786 413.00
51.2828 446.00
51.5871 419.00
51.8914 435.00
52.1956 547.00
52.4999 620.00
52.8041 442.00
53.1084 386.00
53.4127 423.00
53.7169 419.00
54.0212 415.00
54.3254 377.00
54.6297 431.00
54.934 572.00
55.2382 431.00
55.5425 405.00
55.8467 456.00
56.151 449.00
56.4553 385.00
56.7595 397.00
57.0638 426.00
57.368 797.00
57.6723 983.00
57.9766 452.00
58.2808 389.00
58.5851 389.00
58.8893 415.00
59.1936 386.00
59.4979 432.00
59.8021 406.00
60.1064 402.00
60.4106 513.00
60.7149 377.00
61.0192 390.00
61.3234 789.00
61.6277 491.00
61.932 480.00
62.2362 384.00
62.5405 430.00
62.8447 386.00
63.149 385.00
63.4533 335.00
63.7575 354.00
64.0618 346.00
64.366 370.00
64.6703 365.00
64.9745 339.00
65.2788 347.00
65.5831 323.00
65.8873 349.00
66.1916 368.00
66.4959 531.00
66.8001 441.00
67.1044 366.00
67.4086 329.00
67.7129 385.00
68.0172 423.00
68.3214 526.00
68.6257 366.00
68.9299 409.00
69.2342 365.00
69.5385 315.00
69.8427 369.00
70.147 448.00
70.4512 426.00
70.7555 384.00
71.0598 374.00
71.364 370.00
71.6683 331.00
71.9725 335.00
72.2768 406.00
72.5811 347.00
72.8853 343.00
73.1896 388.00
73.4938 381.00
73.7981 363.00
74.1024 381.00
74.4066 421.00
74.7109 362.00
75.0151 407.00
75.3194 348.00
75.6237 360.00
75.9279 394.00
76.2322 371.00
76.5364 408.00
76.8407 1777.00
77.145 979.00
77.4492 567.00
77.7535 411.00
78.0577 315.00
78.362 348.00
78.6663 357.00
78.9705 392.00
79.2748 389.00
79.579 368.00
79.8833 397.00
80.1876 388.00
80.4918 377.00
80.7961 379.00
81.1003 359.00
81.4046 406.00
81.7089 372.00
82.0131 332.00
82.3174 370.00
82.6217 357.00
82.9259 357.00
83.2302 345.00
83.5344 379.00
83.8387 363.00
84.143 379.00
84.4472 341.00
84.7515 319.00
85.0557 364.00
85.36 371.00
85.6643 357.00
85.9685 326.00
86.2728 370.00
86.577 342.00
86.8813 317.00
87.1856 371.00
87.4898 348.00
87.7941 347.00
88.0983 363.00
88.4026 329.00
88.7069 359.00
89.0111 506.00
89.3154 430.00
89.6196 359.00
89.9239 365.00
90.2282 329.00
90.5324 371.00
90.8367 735.00
91.1409 610.00
91.4452 318.00
91.7495 313.00
92.0537 350.00
92.358 349.00
92.6622 383.00
92.9665 346.00
93.2708 344.00
93.575 375.00
93.8793 331.00
94.1835 372.00
94.4878 379.00
94.7921 344.00
95.0963 361.00
95.4006 402.00
95.7048 317.00
96.0091 327.00
96.3134 348.00
96.6176 340.00
96.9219 336.00
97.2261 325.00
97.5304 308.00
97.8347 293.00
98.1389 323.00
98.4432 343.00
98.7474 354.00
99.0517 325.00
99.356 331.00
99.6602 341.00
99.9645 327.00
100.095 293.00