File: data/xrd_creation/results/Na_207.xy
9.903433 2729.00
10.2077 3033.00
10.512 2674.00
10.8162 2631.00
11.1205 2610.00
11.4247 2573.00
11.729 4028.00
12.0333 2577.00
12.3375 2118.00
12.6418 2168.00
12.946 1954.00
13.2503 1926.00
13.5546 2037.00
13.8588 2044.00
14.1631 1740.00
14.4673 1696.00
14.7716 1666.00
15.0759 1624.00
15.3801 1670.00
15.6844 1545.00
15.9886 1564.00
16.2929 1561.00
16.5972 1541.00
16.9014 1448.00
17.2057 1406.00
17.5099 1686.00
17.8142 1408.00
18.1185 1336.00
18.4227 1327.00
18.727 1301.00
19.0312 1469.00
19.3355 2926.00
19.6398 2139.00
19.944 1260.00
20.2483 1241.00
20.5525 1444.00
20.8568 1243.00
21.1611 1128.00
21.4653 1120.00
21.7696 1221.00
22.0738 1163.00
22.3781 1258.00
22.6824 2593.00
22.9866 1848.00
23.2909 1148.00
23.5951 1365.00
23.8994 1859.00
24.2037 1907.00
24.5079 1612.00
24.8122 1119.00
25.1164 1088.00
25.4207 976.00
25.725 1139.00
26.0292 1203.00
26.3335 1027.00
26.6378 1030.00
26.942 1058.00
27.2463 1068.00
27.5505 1513.00
27.8548 1203.00
28.1591 2755.00
28.4633 3824.00
28.7676 1117.00
29.0718 993.00
29.3761 1048.00
29.6804 1029.00
29.9846 2077.00
30.2889 1450.00
30.5931 1113.00
30.8974 2884.00
31.2017 1974.00
31.5059 2769.00
31.8102 2648.00
32.1144 1005.00
32.4187 892.00
32.723 872.00
33.0272 882.00
33.3315 923.00
33.6357 1616.00
33.94 4031.00
34.2443 2189.00
34.5485 2035.00
34.8528 973.00
35.157 878.00
35.4613 1945.00
35.7656 961.00
36.0698 1445.00
36.3741 852.00
36.6783 706.00
36.9826 711.00
37.2869 666.00
37.5911 638.00
37.8954 662.00
38.1996 718.00
38.5039 674.00
38.8082 1034.00
39.1124 767.00
39.4167 693.00
39.7209 714.00
40.0252 721.00
40.3295 690.00
40.6337 705.00
40.938 1272.00
41.2422 1124.00
41.5465 994.00
41.8508 898.00
42.155 730.00
42.4593 601.00
42.7635 608.00
43.0678 727.00
43.3721 689.00
43.6763 590.00
43.9806 579.00
44.2849 712.00
44.5891 628.00
44.8934 647.00
45.1976 841.00
45.5019 675.00
45.8062 1060.00
46.1104 919.00
46.4147 962.00
46.7189 1209.00
47.0232 566.00
47.3275 576.00
47.6317 594.00
47.936 606.00
48.2402 540.00
48.5445 703.00
48.8488 889.00
49.153 723.00
49.4573 1179.00
49.7615 885.00
50.0658 679.00
50.3701 1727.00
50.6743 1096.00
50.9786 1143.00
51.2828 670.00
51.5871 731.00
51.8914 574.00
52.1956 567.00
52.4999 561.00
52.8041 1006.00
53.1084 713.00
53.4127 629.00
53.7169 578.00
54.0212 565.00
54.3254 926.00
54.6297 1055.00
54.934 615.00
55.2382 610.00
55.5425 759.00
55.8467 1224.00
56.151 891.00
56.4553 734.00
56.7595 552.00
57.0638 534.00
57.368 587.00
57.6723 756.00
57.9766 591.00
58.2808 827.00
58.5851 760.00
58.8893 1146.00
59.1936 657.00
59.4979 548.00
59.8021 561.00
60.1064 806.00
60.4106 991.00
60.7149 917.00
61.0192 715.00
61.3234 596.00
61.6277 657.00
61.932 773.00
62.2362 870.00
62.5405 690.00
62.8447 563.00
63.149 728.00
63.4533 732.00
63.7575 516.00
64.0618 531.00
64.366 548.00
64.6703 595.00
64.9745 542.00
65.2788 513.00
65.5831 606.00
65.8873 724.00
66.1916 930.00
66.4959 631.00
66.8001 453.00
67.1044 457.00
67.4086 471.00
67.7129 438.00
68.0172 484.00
68.3214 410.00
68.6257 453.00
68.9299 447.00
69.2342 563.00
69.5385 601.00
69.8427 420.00
70.147 439.00
70.4512 444.00
70.7555 428.00
71.0598 504.00
71.364 598.00
71.6683 689.00
71.9725 552.00
72.2768 456.00
72.5811 571.00
72.8853 543.00
73.1896 534.00
73.4938 468.00
73.7981 435.00
74.1024 436.00
74.4066 414.00
74.7109 498.00
75.0151 480.00
75.3194 476.00
75.6237 595.00
75.9279 506.00
76.2322 460.00
76.5364 504.00
76.8407 460.00
77.145 502.00
77.4492 442.00
77.7535 451.00
78.0577 455.00
78.362 424.00
78.6663 450.00
78.9705 418.00
79.2748 446.00
79.579 567.00
79.8833 537.00
80.1876 428.00
80.4918 482.00
80.7961 433.00
81.1003 499.00
81.4046 476.00
81.7089 520.00
82.0131 509.00
82.3174 462.00
82.6217 471.00
82.9259 496.00
83.2302 514.00
83.5344 487.00
83.8387 529.00
84.143 486.00
84.4472 499.00
84.7515 545.00
85.0557 490.00
85.36 462.00
85.6643 439.00
85.9685 515.00
86.2728 480.00
86.577 449.00
86.8813 503.00
87.1856 436.00
87.4898 452.00
87.7941 449.00
88.0983 495.00
88.4026 480.00
88.7069 481.00
89.0111 490.00
89.3154 531.00
89.6196 470.00
89.9239 459.00
90.2282 436.00
90.5324 474.00
90.8367 450.00
91.1409 464.00
91.4452 467.00
91.7495 447.00
92.0537 453.00
92.358 431.00
92.6622 472.00
92.9665 411.00
93.2708 395.00
93.575 387.00
93.8793 380.00
94.1835 388.00
94.4878 471.00
94.7921 460.00
95.0963 428.00
95.4006 446.00
95.7048 512.00
96.0091 413.00
96.3134 426.00
96.6176 427.00
96.9219 494.00
97.2261 533.00
97.5304 525.00
97.8347 497.00
98.1389 468.00
98.4432 415.00
98.7474 470.00
99.0517 476.00
99.356 496.00
99.6602 496.00
99.9645 487.00
100.095 482.00