File: data/xrd_creation/results/Na_297.xy
9.903433 2735.00
10.2077 2615.00
10.512 2615.00
10.8162 2443.00
11.1205 2376.00
11.4247 2253.00
11.729 2234.00
12.0333 2112.00
12.3375 2127.00
12.6418 2021.00
12.946 2098.00
13.2503 1968.00
13.5546 1967.00
13.8588 1909.00
14.1631 2014.00
14.4673 1847.00
14.7716 1933.00
15.0759 1886.00
15.3801 1986.00
15.6844 1858.00
15.9886 1748.00
16.2929 1694.00
16.5972 1624.00
16.9014 1650.00
17.2057 1566.00
17.5099 1531.00
17.8142 1517.00
18.1185 1488.00
18.4227 1559.00
18.727 1521.00
19.0312 1760.00
19.3355 1691.00
19.6398 1508.00
19.944 1675.00
20.2483 1913.00
20.5525 3047.00
20.8568 9920.00
21.1611 1750.00
21.4653 1477.00
21.7696 1436.00
22.0738 1439.00
22.3781 1537.00
22.6824 1331.00
22.9866 1340.00
23.2909 1253.00
23.5951 1299.00
23.8994 1406.00
24.2037 1865.00
24.5079 1360.00
24.8122 1292.00
25.1164 1309.00
25.4207 1288.00
25.725 1350.00
26.0292 1211.00
26.3335 1279.00
26.6378 1304.00
26.942 1185.00
27.2463 1274.00
27.5505 1297.00
27.8548 1193.00
28.1591 1233.00
28.4633 1403.00
28.7676 1200.00
29.0718 1267.00
29.3761 1243.00
29.6804 1340.00
29.9846 1843.00
30.2889 2874.00
30.5931 2982.00
30.8974 1898.00
31.2017 1683.00
31.5059 2095.00
31.8102 3670.00
32.1144 2503.00
32.4187 1517.00
32.723 1394.00
33.0272 1375.00
33.3315 1673.00
33.6357 2251.00
33.94 2802.00
34.2443 13103.00
34.5485 3359.00
34.8528 1735.00
35.157 3065.00
35.4613 3778.00
35.7656 1500.00
36.0698 1265.00
36.3741 1197.00
36.6783 1201.00
36.9826 1289.00
37.2869 1641.00
37.5911 2019.00
37.8954 1489.00
38.1996 1546.00
38.5039 2520.00
38.8082 1661.00
39.1124 1250.00
39.4167 1085.00
39.7209 1212.00
40.0252 1169.00
40.3295 1169.00
40.6337 1127.00
40.938 1027.00
41.2422 990.00
41.5465 1054.00
41.8508 1062.00
42.155 1235.00
42.4593 1348.00
42.7635 1153.00
43.0678 1416.00
43.3721 1156.00
43.6763 934.00
43.9806 995.00
44.2849 947.00
44.5891 954.00
44.8934 1030.00
45.1976 1045.00
45.5019 1059.00
45.8062 1384.00
46.1104 1294.00
46.4147 964.00
46.7189 884.00
47.0232 1009.00
47.3275 987.00
47.6317 752.00
47.936 929.00
48.2402 1049.00
48.5445 1214.00
48.8488 1424.00
49.153 2974.00
49.4573 1558.00
49.7615 1039.00
50.0658 940.00
50.3701 921.00
50.6743 809.00
50.9786 910.00
51.2828 848.00
51.5871 823.00
51.8914 807.00
52.1956 810.00
52.4999 891.00
52.8041 888.00
53.1084 871.00
53.4127 866.00
53.7169 784.00
54.0212 824.00
54.3254 924.00
54.6297 1001.00
54.934 874.00
55.2382 811.00
55.5425 748.00
55.8467 699.00
56.151 743.00
56.4553 868.00
56.7595 790.00
57.0638 743.00
57.368 875.00
57.6723 1341.00
57.9766 1061.00
58.2808 836.00
58.5851 772.00
58.8893 794.00
59.1936 929.00
59.4979 849.00
59.8021 1031.00
60.1064 1224.00
60.4106 1064.00
60.7149 1150.00
61.0192 2021.00
61.3234 4070.00
61.6277 961.00
61.932 787.00
62.2362 751.00
62.5405 839.00
62.8447 970.00
63.149 823.00
63.4533 751.00
63.7575 779.00
64.0618 1073.00
64.366 1278.00
64.6703 1917.00
64.9745 1815.00
65.2788 1032.00
65.5831 896.00
65.8873 698.00
66.1916 629.00
66.4959 635.00
66.8001 668.00
67.1044 654.00
67.4086 660.00
67.7129 635.00
68.0172 604.00
68.3214 580.00
68.6257 611.00
68.9299 665.00
69.2342 754.00
69.5385 922.00
69.8427 841.00
70.147 771.00
70.4512 852.00
70.7555 753.00
71.0598 630.00
71.364 579.00
71.6683 581.00
71.9725 1093.00
72.2768 917.00
72.5811 778.00
72.8853 661.00
73.1896 585.00
73.4938 588.00
73.7981 618.00
74.1024 658.00
74.4066 578.00
74.7109 591.00
75.0151 535.00
75.3194 492.00
75.6237 532.00
75.9279 677.00
76.2322 516.00
76.5364 524.00
76.8407 565.00
77.145 566.00
77.4492 514.00
77.7535 546.00
78.0577 588.00
78.362 556.00
78.6663 535.00
78.9705 565.00
79.2748 587.00
79.579 509.00
79.8833 513.00
80.1876 561.00
80.4918 518.00
80.7961 528.00
81.1003 510.00
81.4046 513.00
81.7089 526.00
82.0131 845.00
82.3174 871.00
82.6217 591.00
82.9259 536.00
83.2302 561.00
83.5344 566.00
83.8387 561.00
84.143 531.00
84.4472 566.00
84.7515 631.00
85.0557 528.00
85.36 522.00
85.6643 583.00
85.9685 578.00
86.2728 544.00
86.577 496.00
86.8813 527.00
87.1856 501.00
87.4898 459.00
87.7941 469.00
88.0983 492.00
88.4026 486.00
88.7069 533.00
89.0111 525.00
89.3154 541.00
89.6196 493.00
89.9239 486.00
90.2282 560.00
90.5324 515.00
90.8367 524.00
91.1409 518.00
91.4452 586.00
91.7495 602.00
92.0537 666.00
92.358 549.00
92.6622 483.00
92.9665 505.00
93.2708 475.00
93.575 492.00
93.8793 505.00
94.1835 534.00
94.4878 632.00
94.7921 590.00
95.0963 615.00
95.4006 570.00
95.7048 581.00
96.0091 601.00
96.3134 670.00
96.6176 648.00
96.9219 604.00
97.2261 478.00
97.5304 493.00
97.8347 461.00
98.1389 505.00
98.4432 507.00
98.7474 543.00
99.0517 506.00
99.356 527.00
99.6602 520.00
99.9645 460.00
100.095 455.00