File: data/xrd_creation/results/Na_203.xy
9.903433 2880.00
10.2077 2779.00
10.512 2741.00
10.8162 2652.00
11.1205 2494.00
11.4247 3188.00
11.729 10042.00
12.0333 8252.00
12.3375 2414.00
12.6418 2201.00
12.946 2155.00
13.2503 2026.00
13.5546 1962.00
13.8588 1879.00
14.1631 1824.00
14.4673 1830.00
14.7716 1823.00
15.0759 1848.00
15.3801 1711.00
15.6844 1740.00
15.9886 1943.00
16.2929 1709.00
16.5972 2243.00
16.9014 1655.00
17.2057 1504.00
17.5099 1692.00
17.8142 1669.00
18.1185 1928.00
18.4227 3169.00
18.727 1848.00
19.0312 1316.00
19.3355 1453.00
19.6398 1411.00
19.944 1319.00
20.2483 1375.00
20.5525 1307.00
20.8568 1436.00
21.1611 1796.00
21.4653 1289.00
21.7696 1216.00
22.0738 1271.00
22.3781 1146.00
22.6824 1101.00
22.9866 1310.00
23.2909 1903.00
23.5951 1079.00
23.8994 1663.00
24.2037 1325.00
24.5079 1596.00
24.8122 1456.00
25.1164 2162.00
25.4207 1474.00
25.725 1213.00
26.0292 2662.00
26.3335 1542.00
26.6378 3989.00
26.942 1029.00
27.2463 989.00
27.5505 1165.00
27.8548 1504.00
28.1591 1839.00
28.4633 2880.00
28.7676 1001.00
29.0718 1019.00
29.3761 1536.00
29.6804 994.00
29.9846 933.00
30.2889 1104.00
30.5931 868.00
30.8974 1287.00
31.2017 1299.00
31.5059 858.00
31.8102 955.00
32.1144 936.00
32.4187 812.00
32.723 871.00
33.0272 1042.00
33.3315 5855.00
33.6357 3004.00
33.94 1639.00
34.2443 1292.00
34.5485 1188.00
34.8528 1224.00
35.157 7882.00
35.4613 1206.00
35.7656 698.00
36.0698 1094.00
36.3741 812.00
36.6783 639.00
36.9826 736.00
37.2869 716.00
37.5911 618.00
37.8954 655.00
38.1996 622.00
38.5039 590.00
38.8082 1001.00
39.1124 652.00
39.4167 613.00
39.7209 807.00
40.0252 572.00
40.3295 550.00
40.6337 647.00
40.938 589.00
41.2422 649.00
41.5465 693.00
41.8508 650.00
42.155 605.00
42.4593 800.00
42.7635 966.00
43.0678 1070.00
43.3721 539.00
43.6763 591.00
43.9806 507.00
44.2849 1009.00
44.5891 742.00
44.8934 739.00
45.1976 635.00
45.5019 624.00
45.8062 579.00
46.1104 951.00
46.4147 593.00
46.7189 665.00
47.0232 2078.00
47.3275 1529.00
47.6317 562.00
47.936 669.00
48.2402 615.00
48.5445 1361.00
48.8488 1378.00
49.153 633.00
49.4573 815.00
49.7615 697.00
50.0658 693.00
50.3701 707.00
50.6743 965.00
50.9786 1322.00
51.2828 823.00
51.5871 604.00
51.8914 638.00
52.1956 1534.00
52.4999 635.00
52.8041 461.00
53.1084 474.00
53.4127 518.00
53.7169 658.00
54.0212 550.00
54.3254 594.00
54.6297 743.00
54.934 490.00
55.2382 453.00
55.5425 524.00
55.8467 480.00
56.151 593.00
56.4553 649.00
56.7595 660.00
57.0638 823.00
57.368 567.00
57.6723 580.00
57.9766 405.00
58.2808 681.00
58.5851 622.00
58.8893 601.00
59.1936 1392.00
59.4979 601.00
59.8021 781.00
60.1064 689.00
60.4106 1314.00
60.7149 1180.00
61.0192 778.00
61.3234 951.00
61.6277 527.00
61.932 538.00
62.2362 391.00
62.5405 590.00
62.8447 387.00
63.149 368.00
63.4533 426.00
63.7575 485.00
64.0618 661.00
64.366 686.00
64.6703 351.00
64.9745 384.00
65.2788 653.00
65.5831 487.00
65.8873 420.00
66.1916 362.00
66.4959 457.00
66.8001 434.00
67.1044 540.00
67.4086 439.00
67.7129 439.00
68.0172 385.00
68.3214 489.00
68.6257 391.00
68.9299 366.00
69.2342 435.00
69.5385 424.00
69.8427 608.00
70.147 362.00
70.4512 429.00
70.7555 381.00
71.0598 374.00
71.364 594.00
71.6683 409.00
71.9725 374.00
72.2768 378.00
72.5811 386.00
72.8853 393.00
73.1896 368.00
73.4938 373.00
73.7981 529.00
74.1024 508.00
74.4066 435.00
74.7109 534.00
75.0151 374.00
75.3194 407.00
75.6237 409.00
75.9279 337.00
76.2322 356.00
76.5364 388.00
76.8407 311.00
77.145 324.00
77.4492 312.00
77.7535 339.00
78.0577 521.00
78.362 707.00
78.6663 404.00
78.9705 345.00
79.2748 505.00
79.579 366.00
79.8833 371.00
80.1876 510.00
80.4918 490.00
80.7961 382.00
81.1003 319.00
81.4046 397.00
81.7089 350.00
82.0131 435.00
82.3174 421.00
82.6217 377.00
82.9259 359.00
83.2302 311.00
83.5344 265.00
83.8387 318.00
84.143 311.00
84.4472 298.00
84.7515 306.00
85.0557 315.00
85.36 308.00
85.6643 286.00
85.9685 295.00
86.2728 319.00
86.577 322.00
86.8813 348.00
87.1856 397.00
87.4898 312.00
87.7941 346.00
88.0983 287.00
88.4026 321.00
88.7069 314.00
89.0111 290.00
89.3154 301.00
89.6196 388.00
89.9239 335.00
90.2282 304.00
90.5324 336.00
90.8367 378.00
91.1409 367.00
91.4452 316.00
91.7495 275.00
92.0537 332.00
92.358 306.00
92.6622 339.00
92.9665 332.00
93.2708 354.00
93.575 320.00
93.8793 317.00
94.1835 343.00
94.4878 348.00
94.7921 300.00
95.0963 283.00
95.4006 297.00
95.7048 321.00
96.0091 305.00
96.3134 324.00
96.6176 319.00
96.9219 323.00
97.2261 480.00
97.5304 443.00
97.8347 327.00
98.1389 384.00
98.4432 350.00
98.7474 423.00
99.0517 377.00
99.356 390.00
99.6602 414.00
99.9645 352.00
100.095 335.00