File: data/xrd_creation/results/Na_20.xy
9.903433 2602.00
10.2077 2452.00
10.512 2390.00
10.8162 2258.00
11.1205 2140.00
11.4247 2080.00
11.729 1982.00
12.0333 1942.00
12.3375 1803.00
12.6418 1685.00
12.946 1751.00
13.2503 1719.00
13.5546 1639.00
13.8588 1594.00
14.1631 1533.00
14.4673 1450.00
14.7716 1418.00
15.0759 1430.00
15.3801 1350.00
15.6844 1376.00
15.9886 1347.00
16.2929 1335.00
16.5972 1230.00
16.9014 1205.00
17.2057 1256.00
17.5099 1179.00
17.8142 1148.00
18.1185 1156.00
18.4227 1077.00
18.727 1147.00
19.0312 1056.00
19.3355 1016.00
19.6398 965.00
19.944 978.00
20.2483 968.00
20.5525 971.00
20.8568 898.00
21.1611 967.00
21.4653 939.00
21.7696 937.00
22.0738 984.00
22.3781 888.00
22.6824 901.00
22.9866 841.00
23.2909 844.00
23.5951 871.00
23.8994 861.00
24.2037 825.00
24.5079 753.00
24.8122 779.00
25.1164 805.00
25.4207 764.00
25.725 778.00
26.0292 792.00
26.3335 812.00
26.6378 686.00
26.942 714.00
27.2463 695.00
27.5505 687.00
27.8548 725.00
28.1591 740.00
28.4633 655.00
28.7676 618.00
29.0718 678.00
29.3761 649.00
29.6804 625.00
29.9846 566.00
30.2889 587.00
30.5931 588.00
30.8974 564.00
31.2017 627.00
31.5059 616.00
31.8102 585.00
32.1144 549.00
32.4187 536.00
32.723 519.00
33.0272 548.00
33.3315 494.00
33.6357 496.00
33.94 497.00
34.2443 556.00
34.5485 479.00
34.8528 511.00
35.157 486.00
35.4613 441.00
35.7656 414.00
36.0698 487.00
36.3741 430.00
36.6783 437.00
36.9826 406.00
37.2869 396.00
37.5911 417.00
37.8954 387.00
38.1996 375.00
38.5039 390.00
38.8082 366.00
39.1124 371.00
39.4167 424.00
39.7209 342.00
40.0252 342.00
40.3295 376.00
40.6337 362.00
40.938 365.00
41.2422 358.00
41.5465 371.00
41.8508 380.00
42.155 334.00
42.4593 340.00
42.7635 360.00
43.0678 386.00
43.3721 315.00
43.6763 313.00
43.9806 339.00
44.2849 287.00
44.5891 303.00
44.8934 303.00
45.1976 318.00
45.5019 300.00
45.8062 307.00
46.1104 320.00
46.4147 299.00
46.7189 270.00
47.0232 320.00
47.3275 287.00
47.6317 261.00
47.936 284.00
48.2402 330.00
48.5445 292.00
48.8488 289.00
49.153 279.00
49.4573 269.00
49.7615 287.00
50.0658 277.00
50.3701 250.00
50.6743 275.00
50.9786 264.00
51.2828 295.00
51.5871 260.00
51.8914 249.00
52.1956 263.00
52.4999 249.00
52.8041 240.00
53.1084 230.00
53.4127 281.00
53.7169 276.00
54.0212 262.00
54.3254 218.00
54.6297 272.00
54.934 229.00
55.2382 237.00
55.5425 236.00
55.8467 273.00
56.151 246.00
56.4553 211.00
56.7595 240.00
57.0638 203.00
57.368 243.00
57.6723 235.00
57.9766 212.00
58.2808 225.00
58.5851 224.00
58.8893 226.00
59.1936 222.00
59.4979 188.00
59.8021 229.00
60.1064 234.00
60.4106 209.00
60.7149 211.00
61.0192 223.00
61.3234 183.00
61.6277 174.00
61.932 238.00
62.2362 202.00
62.5405 198.00
62.8447 222.00
63.149 208.00
63.4533 212.00
63.7575 196.00
64.0618 176.00
64.366 213.00
64.6703 187.00
64.9745 192.00
65.2788 201.00
65.5831 204.00
65.8873 181.00
66.1916 188.00
66.4959 210.00
66.8001 177.00
67.1044 152.00
67.4086 205.00
67.7129 216.00
68.0172 188.00
68.3214 214.00
68.6257 186.00
68.9299 224.00
69.2342 214.00
69.5385 176.00
69.8427 200.00
70.147 194.00
70.4512 213.00
70.7555 197.00
71.0598 183.00
71.364 196.00
71.6683 175.00
71.9725 195.00
72.2768 165.00
72.5811 194.00
72.8853 197.00
73.1896 184.00
73.4938 199.00
73.7981 192.00
74.1024 207.00
74.4066 188.00
74.7109 232.00
75.0151 190.00
75.3194 181.00
75.6237 224.00
75.9279 196.00
76.2322 185.00
76.5364 191.00
76.8407 192.00
77.145 210.00
77.4492 188.00
77.7535 221.00
78.0577 217.00
78.362 210.00
78.6663 212.00
78.9705 225.00
79.2748 218.00
79.579 211.00
79.8833 195.00
80.1876 216.00
80.4918 219.00
80.7961 223.00
81.1003 191.00
81.4046 225.00
81.7089 214.00
82.0131 201.00
82.3174 250.00
82.6217 249.00
82.9259 212.00
83.2302 239.00
83.5344 213.00
83.8387 236.00
84.143 216.00
84.4472 227.00
84.7515 206.00
85.0557 222.00
85.36 198.00
85.6643 205.00
85.9685 233.00
86.2728 213.00
86.577 237.00
86.8813 195.00
87.1856 207.00
87.4898 219.00
87.7941 208.00
88.0983 215.00
88.4026 208.00
88.7069 216.00
89.0111 224.00
89.3154 202.00
89.6196 200.00
89.9239 210.00
90.2282 208.00
90.5324 232.00
90.8367 214.00
91.1409 200.00
91.4452 197.00
91.7495 184.00
92.0537 176.00
92.358 180.00
92.6622 198.00
92.9665 186.00
93.2708 184.00
93.575 197.00
93.8793 239.00
94.1835 206.00
94.4878 209.00
94.7921 211.00
95.0963 160.00
95.4006 223.00
95.7048 179.00
96.0091 235.00
96.3134 203.00
96.6176 200.00
96.9219 181.00
97.2261 197.00
97.5304 168.00
97.8347 184.00
98.1389 203.00
98.4432 172.00
98.7474 188.00
99.0517 193.00
99.356 183.00
99.6602 200.00
99.9645 163.00
100.095 171.00