File: data/xrd_creation/results/Na_208.xy
9.903433 2779.00
10.2077 2957.00
10.512 2949.00
10.8162 2470.00
11.1205 2565.00
11.4247 2567.00
11.729 3475.00
12.0333 3566.00
12.3375 2229.00
12.6418 2098.00
12.946 2069.00
13.2503 1890.00
13.5546 1990.00
13.8588 2144.00
14.1631 1829.00
14.4673 1714.00
14.7716 1678.00
15.0759 1572.00
15.3801 1673.00
15.6844 1561.00
15.9886 1620.00
16.2929 1559.00
16.5972 1513.00
16.9014 1510.00
17.2057 1484.00
17.5099 1550.00
17.8142 1441.00
18.1185 1364.00
18.4227 1437.00
18.727 1311.00
19.0312 1472.00
19.3355 2806.00
19.6398 2878.00
19.944 1486.00
20.2483 1270.00
20.5525 1341.00
20.8568 1354.00
21.1611 1249.00
21.4653 1178.00
21.7696 1184.00
22.0738 1253.00
22.3781 1303.00
22.6824 2444.00
22.9866 3263.00
23.2909 1373.00
23.5951 1315.00
23.8994 2052.00
24.2037 1978.00
24.5079 1596.00
24.8122 1389.00
25.1164 1184.00
25.4207 1137.00
25.725 1197.00
26.0292 1248.00
26.3335 1118.00
26.6378 1138.00
26.942 1080.00
27.2463 1164.00
27.5505 1687.00
27.8548 1396.00
28.1591 2226.00
28.4633 5095.00
28.7676 1609.00
29.0718 1108.00
29.3761 1070.00
29.6804 1118.00
29.9846 2057.00
30.2889 2194.00
30.5931 1254.00
30.8974 2803.00
31.2017 3552.00
31.5059 2452.00
31.8102 4055.00
32.1144 1339.00
32.4187 1012.00
32.723 1047.00
33.0272 913.00
33.3315 1011.00
33.6357 1484.00
33.94 5247.00
34.2443 2898.00
34.5485 2397.00
34.8528 1420.00
35.157 994.00
35.4613 1807.00
35.7656 1475.00
36.0698 1595.00
36.3741 1132.00
36.6783 828.00
36.9826 842.00
37.2869 794.00
37.5911 830.00
37.8954 793.00
38.1996 800.00
38.5039 815.00
38.8082 1188.00
39.1124 960.00
39.4167 924.00
39.7209 816.00
40.0252 856.00
40.3295 857.00
40.6337 799.00
40.938 1251.00
41.2422 1620.00
41.5465 1298.00
41.8508 1168.00
42.155 980.00
42.4593 782.00
42.7635 779.00
43.0678 800.00
43.3721 828.00
43.6763 724.00
43.9806 775.00
44.2849 971.00
44.5891 790.00
44.8934 809.00
45.1976 963.00
45.5019 860.00
45.8062 1150.00
46.1104 1433.00
46.4147 1171.00
46.7189 1936.00
47.0232 937.00
47.3275 741.00
47.6317 719.00
47.936 729.00
48.2402 697.00
48.5445 808.00
48.8488 1222.00
49.153 991.00
49.4573 1206.00
49.7615 1354.00
50.0658 884.00
50.3701 1821.00
50.6743 1679.00
50.9786 1503.00
51.2828 1078.00
51.5871 993.00
51.8914 745.00
52.1956 683.00
52.4999 682.00
52.8041 1197.00
53.1084 1153.00
53.4127 764.00
53.7169 714.00
54.0212 731.00
54.3254 1065.00
54.6297 1563.00
54.934 945.00
55.2382 800.00
55.5425 884.00
55.8467 1476.00
56.151 1130.00
56.4553 1003.00
56.7595 688.00
57.0638 653.00
57.368 733.00
57.6723 977.00
57.9766 810.00
58.2808 1027.00
58.5851 1002.00
58.8893 1606.00
59.1936 1007.00
59.4979 735.00
59.8021 693.00
60.1064 931.00
60.4106 1350.00
60.7149 1344.00
61.0192 984.00
61.3234 791.00
61.6277 802.00
61.932 994.00
62.2362 1157.00
62.5405 1057.00
62.8447 724.00
63.149 883.00
63.4533 964.00
63.7575 637.00
64.0618 598.00
64.366 692.00
64.6703 807.00
64.9745 733.00
65.2788 604.00
65.5831 771.00
65.8873 1089.00
66.1916 1182.00
66.4959 914.00
66.8001 638.00
67.1044 599.00
67.4086 589.00
67.7129 571.00
68.0172 644.00
68.3214 580.00
68.6257 549.00
68.9299 544.00
69.2342 746.00
69.5385 813.00
69.8427 554.00
70.147 548.00
70.4512 560.00
70.7555 524.00
71.0598 620.00
71.364 759.00
71.6683 851.00
71.9725 773.00
72.2768 614.00
72.5811 694.00
72.8853 643.00
73.1896 712.00
73.4938 631.00
73.7981 575.00
74.1024 518.00
74.4066 537.00
74.7109 659.00
75.0151 610.00
75.3194 700.00
75.6237 754.00
75.9279 677.00
76.2322 590.00
76.5364 649.00
76.8407 612.00
77.145 620.00
77.4492 529.00
77.7535 547.00
78.0577 568.00
78.362 563.00
78.6663 576.00
78.9705 574.00
79.2748 581.00
79.579 742.00
79.8833 679.00
80.1876 576.00
80.4918 517.00
80.7961 502.00
81.1003 568.00
81.4046 590.00
81.7089 616.00
82.0131 619.00
82.3174 694.00
82.6217 587.00
82.9259 620.00
83.2302 627.00
83.5344 612.00
83.8387 585.00
84.143 582.00
84.4472 681.00
84.7515 663.00
85.0557 602.00
85.36 574.00
85.6643 565.00
85.9685 629.00
86.2728 628.00
86.577 637.00
86.8813 597.00
87.1856 563.00
87.4898 505.00
87.7941 535.00
88.0983 630.00
88.4026 587.00
88.7069 582.00
89.0111 682.00
89.3154 689.00
89.6196 699.00
89.9239 624.00
90.2282 566.00
90.5324 645.00
90.8367 632.00
91.1409 549.00
91.4452 607.00
91.7495 549.00
92.0537 537.00
92.358 523.00
92.6622 541.00
92.9665 551.00
93.2708 504.00
93.575 473.00
93.8793 472.00
94.1835 535.00
94.4878 547.00
94.7921 584.00
95.0963 471.00
95.4006 572.00
95.7048 630.00
96.0091 607.00
96.3134 571.00
96.6176 552.00
96.9219 612.00
97.2261 648.00
97.5304 679.00
97.8347 630.00
98.1389 628.00
98.4432 570.00
98.7474 605.00
99.0517 596.00
99.356 677.00
99.6602 628.00
99.9645 603.00
100.095 696.00