File: data/xrd_creation/results/Na_295.xy
9.903433 2638.00
10.2077 2767.00
10.512 2519.00
10.8162 2515.00
11.1205 2388.00
11.4247 2370.00
11.729 2322.00
12.0333 2237.00
12.3375 2210.00
12.6418 2115.00
12.946 2054.00
13.2503 2107.00
13.5546 2128.00
13.8588 2052.00
14.1631 1957.00
14.4673 2153.00
14.7716 2011.00
15.0759 1982.00
15.3801 2043.00
15.6844 2011.00
15.9886 2139.00
16.2929 1905.00
16.5972 1943.00
16.9014 1823.00
17.2057 1719.00
17.5099 1798.00
17.8142 1772.00
18.1185 1596.00
18.4227 1656.00
18.727 1689.00
19.0312 1862.00
19.3355 1839.00
19.6398 1617.00
19.944 1669.00
20.2483 1747.00
20.5525 1991.00
20.8568 7945.00
21.1611 3359.00
21.4653 1627.00
21.7696 1559.00
22.0738 1534.00
22.3781 1487.00
22.6824 1446.00
22.9866 1426.00
23.2909 1437.00
23.5951 1397.00
23.8994 1507.00
24.2037 2431.00
24.5079 1570.00
24.8122 1306.00
25.1164 1376.00
25.4207 1324.00
25.725 1429.00
26.0292 1318.00
26.3335 1316.00
26.6378 1305.00
26.942 1274.00
27.2463 1281.00
27.5505 1308.00
27.8548 1283.00
28.1591 1246.00
28.4633 1237.00
28.7676 1262.00
29.0718 1251.00
29.3761 1334.00
29.6804 1350.00
29.9846 1657.00
30.2889 3189.00
30.5931 3449.00
30.8974 2785.00
31.2017 1712.00
31.5059 1772.00
31.8102 3039.00
32.1144 3981.00
32.4187 2020.00
32.723 1415.00
33.0272 1349.00
33.3315 1558.00
33.6357 2235.00
33.94 2357.00
34.2443 6451.00
34.5485 15224.00
34.8528 1991.00
35.157 2177.00
35.4613 5967.00
35.7656 2206.00
36.0698 1496.00
36.3741 1394.00
36.6783 1412.00
36.9826 1449.00
37.2869 1784.00
37.5911 2545.00
37.8954 1865.00
38.1996 1791.00
38.5039 2468.00
38.8082 2638.00
39.1124 1571.00
39.4167 1368.00
39.7209 1259.00
40.0252 1239.00
40.3295 1339.00
40.6337 1316.00
40.938 1277.00
41.2422 1190.00
41.5465 1235.00
41.8508 1183.00
42.155 1184.00
42.4593 2355.00
42.7635 1195.00
43.0678 1414.00
43.3721 1504.00
43.6763 1169.00
43.9806 1066.00
44.2849 1137.00
44.5891 1087.00
44.8934 1187.00
45.1976 1073.00
45.5019 1091.00
45.8062 1370.00
46.1104 1892.00
46.4147 1203.00
46.7189 1019.00
47.0232 918.00
47.3275 981.00
47.6317 1008.00
47.936 1036.00
48.2402 1070.00
48.5445 1303.00
48.8488 1946.00
49.153 2000.00
49.4573 4005.00
49.7615 1439.00
50.0658 1086.00
50.3701 983.00
50.6743 944.00
50.9786 944.00
51.2828 1004.00
51.5871 948.00
51.8914 890.00
52.1956 881.00
52.4999 992.00
52.8041 953.00
53.1084 893.00
53.4127 942.00
53.7169 922.00
54.0212 948.00
54.3254 902.00
54.6297 1072.00
54.934 1051.00
55.2382 909.00
55.5425 887.00
55.8467 884.00
56.151 838.00
56.4553 875.00
56.7595 884.00
57.0638 810.00
57.368 966.00
57.6723 1372.00
57.9766 1595.00
58.2808 1057.00
58.5851 889.00
58.8893 893.00
59.1936 1037.00
59.4979 1153.00
59.8021 1094.00
60.1064 1498.00
60.4106 1406.00
60.7149 1318.00
61.0192 1723.00
61.3234 5661.00
61.6277 2049.00
61.932 969.00
62.2362 893.00
62.5405 944.00
62.8447 1157.00
63.149 1084.00
63.4533 847.00
63.7575 820.00
64.0618 1029.00
64.366 1634.00
64.6703 1945.00
64.9745 2841.00
65.2788 1397.00
65.5831 1103.00
65.8873 827.00
66.1916 747.00
66.4959 696.00
66.8001 727.00
67.1044 749.00
67.4086 754.00
67.7129 755.00
68.0172 701.00
68.3214 717.00
68.6257 719.00
68.9299 762.00
69.2342 826.00
69.5385 1061.00
69.8427 1027.00
70.147 936.00
70.4512 1066.00
70.7555 1008.00
71.0598 749.00
71.364 731.00
71.6683 709.00
71.9725 1001.00
72.2768 1224.00
72.5811 932.00
72.8853 832.00
73.1896 636.00
73.4938 664.00
73.7981 775.00
74.1024 767.00
74.4066 671.00
74.7109 682.00
75.0151 698.00
75.3194 594.00
75.6237 621.00
75.9279 823.00
76.2322 795.00
76.5364 596.00
76.8407 561.00
77.145 608.00
77.4492 595.00
77.7535 633.00
78.0577 649.00
78.362 683.00
78.6663 680.00
78.9705 673.00
79.2748 665.00
79.579 594.00
79.8833 565.00
80.1876 647.00
80.4918 566.00
80.7961 610.00
81.1003 573.00
81.4046 581.00
81.7089 626.00
82.0131 713.00
82.3174 1233.00
82.6217 858.00
82.9259 656.00
83.2302 668.00
83.5344 615.00
83.8387 603.00
84.143 626.00
84.4472 771.00
84.7515 702.00
85.0557 700.00
85.36 609.00
85.6643 647.00
85.9685 753.00
86.2728 708.00
86.577 558.00
86.8813 582.00
87.1856 620.00
87.4898 587.00
87.7941 589.00
88.0983 605.00
88.4026 568.00
88.7069 574.00
89.0111 611.00
89.3154 625.00
89.6196 606.00
89.9239 626.00
90.2282 651.00
90.5324 619.00
90.8367 648.00
91.1409 648.00
91.4452 772.00
91.7495 781.00
92.0537 819.00
92.358 714.00
92.6622 563.00
92.9665 589.00
93.2708 581.00
93.575 654.00
93.8793 598.00
94.1835 612.00
94.4878 747.00
94.7921 771.00
95.0963 729.00
95.4006 665.00
95.7048 703.00
96.0091 765.00
96.3134 780.00
96.6176 824.00
96.9219 715.00
97.2261 601.00
97.5304 565.00
97.8347 510.00
98.1389 578.00
98.4432 618.00
98.7474 604.00
99.0517 645.00
99.356 662.00
99.6602 627.00
99.9645 560.00
100.095 602.00