File: data/xrd_creation/results/Na_272.xy
9.903433 2682.00
10.2077 2607.00
10.512 2523.00
10.8162 2282.00
11.1205 2249.00
11.4247 2311.00
11.729 2232.00
12.0333 2143.00
12.3375 1964.00
12.6418 1927.00
12.946 1892.00
13.2503 2023.00
13.5546 1976.00
13.8588 1700.00
14.1631 1684.00
14.4673 1652.00
14.7716 1719.00
15.0759 1608.00
15.3801 1605.00
15.6844 1600.00
15.9886 1555.00
16.2929 1580.00
16.5972 1602.00
16.9014 1635.00
17.2057 1447.00
17.5099 1431.00
17.8142 1601.00
18.1185 1477.00
18.4227 1472.00
18.727 1492.00
19.0312 2190.00
19.3355 1516.00
19.6398 1600.00
19.944 3974.00
20.2483 10844.00
20.5525 4163.00
20.8568 2527.00
21.1611 1421.00
21.4653 1736.00
21.7696 1453.00
22.0738 1285.00
22.3781 1203.00
22.6824 1259.00
22.9866 1275.00
23.2909 1526.00
23.5951 1130.00
23.8994 1150.00
24.2037 1095.00
24.5079 1253.00
24.8122 1158.00
25.1164 1179.00
25.4207 1328.00
25.725 2599.00
26.0292 20587.00
26.3335 5318.00
26.6378 4314.00
26.942 1437.00
27.2463 1166.00
27.5505 1354.00
27.8548 1082.00
28.1591 1045.00
28.4633 1000.00
28.7676 1142.00
29.0718 1001.00
29.3761 994.00
29.6804 1045.00
29.9846 1020.00
30.2889 937.00
30.5931 932.00
30.8974 982.00
31.2017 993.00
31.5059 958.00
31.8102 921.00
32.1144 981.00
32.4187 1246.00
32.723 5071.00
33.0272 4338.00
33.3315 9547.00
33.6357 1430.00
33.94 2227.00
34.2443 1149.00
34.5485 1252.00
34.8528 1123.00
35.157 1196.00
35.4613 1184.00
35.7656 1273.00
36.0698 2970.00
36.3741 1483.00
36.6783 1053.00
36.9826 1478.00
37.2869 1382.00
37.5911 1040.00
37.8954 1484.00
38.1996 5198.00
38.5039 3244.00
38.8082 1658.00
39.1124 1336.00
39.4167 2047.00
39.7209 2766.00
40.0252 957.00
40.3295 936.00
40.6337 799.00
40.938 817.00
41.2422 821.00
41.5465 971.00
41.8508 3422.00
42.155 2195.00
42.4593 874.00
42.7635 1124.00
43.0678 887.00
43.3721 861.00
43.6763 2000.00
43.9806 1024.00
44.2849 926.00
44.5891 944.00
44.8934 1592.00
45.1976 1161.00
45.5019 769.00
45.8062 859.00
46.1104 736.00
46.4147 717.00
46.7189 695.00
47.0232 903.00
47.3275 2727.00
47.6317 1290.00
47.936 998.00
48.2402 924.00
48.5445 1828.00
48.8488 3009.00
49.153 1323.00
49.4573 717.00
49.7615 657.00
50.0658 625.00
50.3701 675.00
50.6743 712.00
50.9786 642.00
51.2828 679.00
51.5871 741.00
51.8914 1063.00
52.1956 1041.00
52.4999 842.00
52.8041 678.00
53.1084 1119.00
53.4127 1700.00
53.7169 1568.00
54.0212 854.00
54.3254 776.00
54.6297 975.00
54.934 760.00
55.2382 718.00
55.5425 733.00
55.8467 882.00
56.151 839.00
56.4553 1147.00
56.7595 1065.00
57.0638 895.00
57.368 764.00
57.6723 665.00
57.9766 706.00
58.2808 846.00
58.5851 992.00
58.8893 3140.00
59.1936 3474.00
59.4979 1729.00
59.8021 1167.00
60.1064 799.00
60.4106 724.00
60.7149 639.00
61.0192 670.00
61.3234 638.00
61.6277 838.00
61.932 1319.00
62.2362 885.00
62.5405 866.00
62.8447 1357.00
63.149 1062.00
63.4533 730.00
63.7575 703.00
64.0618 660.00
64.366 626.00
64.6703 632.00
64.9745 823.00
65.2788 1287.00
65.5831 1497.00
65.8873 2258.00
66.1916 2856.00
66.4959 1605.00
66.8001 971.00
67.1044 1742.00
67.4086 1470.00
67.7129 853.00
68.0172 620.00
68.3214 574.00
68.6257 550.00
68.9299 572.00
69.2342 577.00
69.5385 878.00
69.8427 1111.00
70.147 1426.00
70.4512 1253.00
70.7555 697.00
71.0598 601.00
71.364 602.00
71.6683 563.00
71.9725 547.00
72.2768 615.00
72.5811 627.00
72.8853 731.00
73.1896 774.00
73.4938 675.00
73.7981 882.00
74.1024 1048.00
74.4066 745.00
74.7109 625.00
75.0151 600.00
75.3194 757.00
75.6237 600.00
75.9279 592.00
76.2322 726.00
76.5364 758.00
76.8407 644.00
77.145 623.00
77.4492 876.00
77.7535 999.00
78.0577 837.00
78.362 707.00
78.6663 774.00
78.9705 925.00
79.2748 831.00
79.579 716.00
79.8833 765.00
80.1876 1033.00
80.4918 842.00
80.7961 591.00
81.1003 562.00
81.4046 599.00
81.7089 575.00
82.0131 579.00
82.3174 810.00
82.6217 782.00
82.9259 578.00
83.2302 551.00
83.5344 522.00
83.8387 525.00
84.143 501.00
84.4472 634.00
84.7515 874.00
85.0557 803.00
85.36 624.00
85.6643 549.00
85.9685 532.00
86.2728 554.00
86.577 653.00
86.8813 603.00
87.1856 530.00
87.4898 522.00
87.7941 519.00
88.0983 542.00
88.4026 706.00
88.7069 808.00
89.0111 731.00
89.3154 602.00
89.6196 619.00
89.9239 710.00
90.2282 618.00
90.5324 574.00
90.8367 554.00
91.1409 523.00
91.4452 520.00
91.7495 618.00
92.0537 693.00
92.358 734.00
92.6622 739.00
92.9665 730.00
93.2708 707.00
93.575 593.00
93.8793 591.00
94.1835 551.00
94.4878 561.00
94.7921 484.00
95.0963 544.00
95.4006 593.00
95.7048 636.00
96.0091 660.00
96.3134 573.00
96.6176 532.00
96.9219 616.00
97.2261 669.00
97.5304 708.00
97.8347 699.00
98.1389 752.00
98.4432 785.00
98.7474 619.00
99.0517 677.00
99.356 966.00
99.6602 1003.00
99.9645 907.00
100.095 873.00