File: data/xrd_creation/results/Na_290.xy
9.903433 2508.00
10.2077 2450.00
10.512 2267.00
10.8162 2173.00
11.1205 2165.00
11.4247 2073.00
11.729 1976.00
12.0333 1914.00
12.3375 1817.00
12.6418 1721.00
12.946 1649.00
13.2503 1616.00
13.5546 1598.00
13.8588 1509.00
14.1631 1499.00
14.4673 1355.00
14.7716 1423.00
15.0759 1353.00
15.3801 1320.00
15.6844 1377.00
15.9886 1396.00
16.2929 1269.00
16.5972 1234.00
16.9014 1182.00
17.2057 1197.00
17.5099 1244.00
17.8142 1141.00
18.1185 1111.00
18.4227 1138.00
18.727 1065.00
19.0312 1030.00
19.3355 1100.00
19.6398 1027.00
19.944 938.00
20.2483 989.00
20.5525 1207.00
20.8568 932.00
21.1611 956.00
21.4653 891.00
21.7696 895.00
22.0738 856.00
22.3781 842.00
22.6824 866.00
22.9866 887.00
23.2909 849.00
23.5951 850.00
23.8994 909.00
24.2037 822.00
24.5079 718.00
24.8122 728.00
25.1164 799.00
25.4207 767.00
25.725 741.00
26.0292 688.00
26.3335 717.00
26.6378 707.00
26.942 688.00
27.2463 717.00
27.5505 748.00
27.8548 1219.00
28.1591 687.00
28.4633 571.00
28.7676 675.00
29.0718 1600.00
29.3761 687.00
29.6804 607.00
29.9846 655.00
30.2889 614.00
30.5931 624.00
30.8974 605.00
31.2017 582.00
31.5059 609.00
31.8102 583.00
32.1144 594.00
32.4187 593.00
32.723 583.00
33.0272 529.00
33.3315 530.00
33.6357 707.00
33.94 742.00
34.2443 799.00
34.5485 506.00
34.8528 545.00
35.157 497.00
35.4613 494.00
35.7656 494.00
36.0698 499.00
36.3741 425.00
36.6783 439.00
36.9826 472.00
37.2869 417.00
37.5911 426.00
37.8954 463.00
38.1996 416.00
38.5039 380.00
38.8082 375.00
39.1124 404.00
39.4167 412.00
39.7209 412.00
40.0252 401.00
40.3295 392.00
40.6337 385.00
40.938 377.00
41.2422 400.00
41.5465 387.00
41.8508 413.00
42.155 362.00
42.4593 391.00
42.7635 361.00
43.0678 370.00
43.3721 390.00
43.6763 335.00
43.9806 358.00
44.2849 378.00
44.5891 321.00
44.8934 354.00
45.1976 340.00
45.5019 316.00
45.8062 336.00
46.1104 503.00
46.4147 351.00
46.7189 397.00
47.0232 341.00
47.3275 333.00
47.6317 303.00
47.936 301.00
48.2402 334.00
48.5445 552.00
48.8488 350.00
49.153 346.00
49.4573 316.00
49.7615 310.00
50.0658 317.00
50.3701 287.00
50.6743 279.00
50.9786 294.00
51.2828 297.00
51.5871 305.00
51.8914 265.00
52.1956 248.00
52.4999 264.00
52.8041 278.00
53.1084 282.00
53.4127 303.00
53.7169 277.00
54.0212 257.00
54.3254 320.00
54.6297 300.00
54.934 271.00
55.2382 275.00
55.5425 341.00
55.8467 282.00
56.151 279.00
56.4553 261.00
56.7595 278.00
57.0638 227.00
57.368 263.00
57.6723 391.00
57.9766 238.00
58.2808 203.00
58.5851 268.00
58.8893 230.00
59.1936 283.00
59.4979 223.00
59.8021 209.00
60.1064 242.00
60.4106 231.00
60.7149 246.00
61.0192 235.00
61.3234 229.00
61.6277 240.00
61.932 244.00
62.2362 228.00
62.5405 227.00
62.8447 246.00
63.149 199.00
63.4533 218.00
63.7575 212.00
64.0618 240.00
64.366 203.00
64.6703 221.00
64.9745 203.00
65.2788 200.00
65.5831 244.00
65.8873 205.00
66.1916 213.00
66.4959 246.00
66.8001 235.00
67.1044 179.00
67.4086 218.00
67.7129 190.00
68.0172 224.00
68.3214 263.00
68.6257 212.00
68.9299 220.00
69.2342 194.00
69.5385 221.00
69.8427 195.00
70.147 207.00
70.4512 193.00
70.7555 214.00
71.0598 212.00
71.364 207.00
71.6683 205.00
71.9725 234.00
72.2768 231.00
72.5811 242.00
72.8853 228.00
73.1896 224.00
73.4938 207.00
73.7981 209.00
74.1024 219.00
74.4066 277.00
74.7109 240.00
75.0151 230.00
75.3194 219.00
75.6237 238.00
75.9279 248.00
76.2322 233.00
76.5364 210.00
76.8407 226.00
77.145 216.00
77.4492 237.00
77.7535 238.00
78.0577 250.00
78.362 233.00
78.6663 217.00
78.9705 225.00
79.2748 239.00
79.579 221.00
79.8833 211.00
80.1876 244.00
80.4918 247.00
80.7961 275.00
81.1003 245.00
81.4046 262.00
81.7089 237.00
82.0131 274.00
82.3174 266.00
82.6217 277.00
82.9259 237.00
83.2302 260.00
83.5344 238.00
83.8387 234.00
84.143 228.00
84.4472 242.00
84.7515 227.00
85.0557 283.00
85.36 205.00
85.6643 228.00
85.9685 203.00
86.2728 236.00
86.577 237.00
86.8813 202.00
87.1856 221.00
87.4898 203.00
87.7941 193.00
88.0983 219.00
88.4026 195.00
88.7069 226.00
89.0111 219.00
89.3154 217.00
89.6196 193.00
89.9239 213.00
90.2282 218.00
90.5324 212.00
90.8367 212.00
91.1409 218.00
91.4452 208.00
91.7495 183.00
92.0537 217.00
92.358 209.00
92.6622 159.00
92.9665 192.00
93.2708 230.00
93.575 196.00
93.8793 206.00
94.1835 175.00
94.4878 170.00
94.7921 197.00
95.0963 204.00
95.4006 200.00
95.7048 200.00
96.0091 210.00
96.3134 209.00
96.6176 188.00
96.9219 202.00
97.2261 196.00
97.5304 180.00
97.8347 195.00
98.1389 233.00
98.4432 190.00
98.7474 213.00
99.0517 208.00
99.356 189.00
99.6602 210.00
99.9645 185.00
100.095 215.00