File: data/xrd_creation/results/Na_287.xy
9.903433 2847.00
10.2077 2647.00
10.512 2640.00
10.8162 2501.00
11.1205 2509.00
11.4247 2351.00
11.729 2299.00
12.0333 2294.00
12.3375 2167.00
12.6418 2175.00
12.946 2121.00
13.2503 2052.00
13.5546 2114.00
13.8588 2324.00
14.1631 2170.00
14.4673 2198.00
14.7716 2057.00
15.0759 1955.00
15.3801 2026.00
15.6844 2105.00
15.9886 1989.00
16.2929 1901.00
16.5972 1789.00
16.9014 1738.00
17.2057 1763.00
17.5099 1795.00
17.8142 1662.00
18.1185 1668.00
18.4227 1704.00
18.727 1572.00
19.0312 1889.00
19.3355 1882.00
19.6398 1815.00
19.944 1748.00
20.2483 2609.00
20.5525 1894.00
20.8568 5323.00
21.1611 5403.00
21.4653 1800.00
21.7696 1530.00
22.0738 1496.00
22.3781 1442.00
22.6824 1629.00
22.9866 1414.00
23.2909 1399.00
23.5951 1422.00
23.8994 1432.00
24.2037 2010.00
24.5079 1883.00
24.8122 1404.00
25.1164 1401.00
25.4207 1411.00
25.725 1952.00
26.0292 1437.00
26.3335 1416.00
26.6378 1372.00
26.942 1371.00
27.2463 1428.00
27.5505 2365.00
27.8548 1449.00
28.1591 1321.00
28.4633 1457.00
28.7676 1327.00
29.0718 1631.00
29.3761 1698.00
29.6804 1558.00
29.9846 1736.00
30.2889 2887.00
30.5931 3356.00
30.8974 3060.00
31.2017 2050.00
31.5059 2560.00
31.8102 3157.00
32.1144 4331.00
32.4187 5560.00
32.723 1637.00
33.0272 1564.00
33.3315 1620.00
33.6357 2013.00
33.94 2284.00
34.2443 4937.00
34.5485 15722.00
34.8528 2291.00
35.157 2527.00
35.4613 5423.00
35.7656 2542.00
36.0698 1684.00
36.3741 1427.00
36.6783 1414.00
36.9826 1409.00
37.2869 1623.00
37.5911 2283.00
37.8954 1989.00
38.1996 1879.00
38.5039 2579.00
38.8082 2756.00
39.1124 1902.00
39.4167 1441.00
39.7209 1815.00
40.0252 1252.00
40.3295 1289.00
40.6337 1269.00
40.938 1351.00
41.2422 1166.00
41.5465 1361.00
41.8508 1434.00
42.155 1202.00
42.4593 2352.00
42.7635 1311.00
43.0678 1330.00
43.3721 1567.00
43.6763 1215.00
43.9806 1322.00
44.2849 1272.00
44.5891 1221.00
44.8934 1276.00
45.1976 1230.00
45.5019 1432.00
45.8062 1698.00
46.1104 1905.00
46.4147 1339.00
46.7189 1163.00
47.0232 992.00
47.3275 1210.00
47.6317 1027.00
47.936 1028.00
48.2402 1128.00
48.5445 1354.00
48.8488 1849.00
49.153 1751.00
49.4573 3299.00
49.7615 1331.00
50.0658 1123.00
50.3701 1062.00
50.6743 1084.00
50.9786 946.00
51.2828 990.00
51.5871 1049.00
51.8914 964.00
52.1956 957.00
52.4999 1294.00
52.8041 975.00
53.1084 1003.00
53.4127 971.00
53.7169 1012.00
54.0212 941.00
54.3254 997.00
54.6297 1253.00
54.934 1073.00
55.2382 891.00
55.5425 901.00
55.8467 896.00
56.151 925.00
56.4553 931.00
56.7595 943.00
57.0638 907.00
57.368 955.00
57.6723 1344.00
57.9766 1576.00
58.2808 1192.00
58.5851 942.00
58.8893 909.00
59.1936 1018.00
59.4979 1136.00
59.8021 1137.00
60.1064 1514.00
60.4106 1459.00
60.7149 1444.00
61.0192 1542.00
61.3234 3989.00
61.6277 2331.00
61.932 1043.00
62.2362 896.00
62.5405 954.00
62.8447 1117.00
63.149 1079.00
63.4533 944.00
63.7575 924.00
64.0618 1189.00
64.366 1566.00
64.6703 1956.00
64.9745 2742.00
65.2788 1400.00
65.5831 1299.00
65.8873 847.00
66.1916 829.00
66.4959 702.00
66.8001 701.00
67.1044 791.00
67.4086 773.00
67.7129 758.00
68.0172 698.00
68.3214 700.00
68.6257 753.00
68.9299 780.00
69.2342 840.00
69.5385 1012.00
69.8427 1086.00
70.147 1034.00
70.4512 974.00
70.7555 898.00
71.0598 850.00
71.364 714.00
71.6683 770.00
71.9725 932.00
72.2768 1142.00
72.5811 851.00
72.8853 815.00
73.1896 774.00
73.4938 695.00
73.7981 737.00
74.1024 808.00
74.4066 712.00
74.7109 709.00
75.0151 645.00
75.3194 570.00
75.6237 636.00
75.9279 737.00
76.2322 748.00
76.5364 634.00
76.8407 620.00
77.145 629.00
77.4492 616.00
77.7535 635.00
78.0577 689.00
78.362 620.00
78.6663 641.00
78.9705 656.00
79.2748 671.00
79.579 646.00
79.8833 587.00
80.1876 580.00
80.4918 612.00
80.7961 626.00
81.1003 670.00
81.4046 626.00
81.7089 636.00
82.0131 687.00
82.3174 1371.00
82.6217 870.00
82.9259 692.00
83.2302 614.00
83.5344 629.00
83.8387 681.00
84.143 629.00
84.4472 730.00
84.7515 725.00
85.0557 664.00
85.36 672.00
85.6643 661.00
85.9685 727.00
86.2728 683.00
86.577 602.00
86.8813 578.00
87.1856 632.00
87.4898 631.00
87.7941 574.00
88.0983 616.00
88.4026 602.00
88.7069 588.00
89.0111 606.00
89.3154 608.00
89.6196 651.00
89.9239 683.00
90.2282 666.00
90.5324 659.00
90.8367 642.00
91.1409 646.00
91.4452 659.00
91.7495 690.00
92.0537 732.00
92.358 681.00
92.6622 586.00
92.9665 627.00
93.2708 646.00
93.575 595.00
93.8793 630.00
94.1835 652.00
94.4878 721.00
94.7921 765.00
95.0963 724.00
95.4006 683.00
95.7048 728.00
96.0091 781.00
96.3134 807.00
96.6176 849.00
96.9219 760.00
97.2261 619.00
97.5304 580.00
97.8347 569.00
98.1389 602.00
98.4432 602.00
98.7474 631.00
99.0517 620.00
99.356 660.00
99.6602 663.00
99.9645 586.00
100.095 580.00