File: data/xrd_creation/results/Na_286.xy
9.903433 2860.00
10.2077 2881.00
10.512 2664.00
10.8162 2649.00
11.1205 2606.00
11.4247 2947.00
11.729 5359.00
12.0333 10485.00
12.3375 6108.00
12.6418 5016.00
12.946 2420.00
13.2503 2363.00
13.5546 2218.00
13.8588 2468.00
14.1631 3259.00
14.4673 4358.00
14.7716 2407.00
15.0759 2061.00
15.3801 1964.00
15.6844 1946.00
15.9886 1880.00
16.2929 1893.00
16.5972 1894.00
16.9014 1853.00
17.2057 1993.00
17.5099 2249.00
17.8142 1761.00
18.1185 1824.00
18.4227 1822.00
18.727 2266.00
19.0312 2208.00
19.3355 3681.00
19.6398 3591.00
19.944 2921.00
20.2483 2273.00
20.5525 2382.00
20.8568 3054.00
21.1611 1952.00
21.4653 2828.00
21.7696 2719.00
22.0738 2359.00
22.3781 1693.00
22.6824 2042.00
22.9866 3585.00
23.2909 5182.00
23.5951 2344.00
23.8994 3987.00
24.2037 4089.00
24.5079 2129.00
24.8122 2534.00
25.1164 3371.00
25.4207 1670.00
25.725 1594.00
26.0292 1449.00
26.3335 1783.00
26.6378 1777.00
26.942 1708.00
27.2463 1983.00
27.5505 2428.00
27.8548 3748.00
28.1591 4973.00
28.4633 4046.00
28.7676 3393.00
29.0718 5155.00
29.3761 2070.00
29.6804 2087.00
29.9846 5037.00
30.2889 2520.00
30.5931 3324.00
30.8974 3318.00
31.2017 2063.00
31.5059 3471.00
31.8102 3909.00
32.1144 3830.00
32.4187 3186.00
32.723 3224.00
33.0272 3216.00
33.3315 2607.00
33.6357 2123.00
33.94 1722.00
34.2443 3584.00
34.5485 2439.00
34.8528 2917.00
35.157 3449.00
35.4613 1574.00
35.7656 1640.00
36.0698 1769.00
36.3741 2274.00
36.6783 2773.00
36.9826 4114.00
37.2869 2323.00
37.5911 1888.00
37.8954 2284.00
38.1996 1542.00
38.5039 1538.00
38.8082 2008.00
39.1124 1479.00
39.4167 1825.00
39.7209 1460.00
40.0252 1741.00
40.3295 1525.00
40.6337 1247.00
40.938 1275.00
41.2422 1356.00
41.5465 1600.00
41.8508 1841.00
42.155 1448.00
42.4593 1416.00
42.7635 1271.00
43.0678 1362.00
43.3721 1620.00
43.6763 1776.00
43.9806 1616.00
44.2849 1631.00
44.5891 1663.00
44.8934 2082.00
45.1976 1652.00
45.5019 1400.00
45.8062 1743.00
46.1104 1645.00
46.4147 1810.00
46.7189 1543.00
47.0232 3095.00
47.3275 1748.00
47.6317 1933.00
47.936 1177.00
48.2402 1221.00
48.5445 1677.00
48.8488 1808.00
49.153 2095.00
49.4573 1821.00
49.7615 1751.00
50.0658 1942.00
50.3701 1547.00
50.6743 1771.00
50.9786 2239.00
51.2828 2064.00
51.5871 2112.00
51.8914 1433.00
52.1956 1738.00
52.4999 1553.00
52.8041 1497.00
53.1084 1697.00
53.4127 2173.00
53.7169 2010.00
54.0212 1738.00
54.3254 1869.00
54.6297 1745.00
54.934 2035.00
55.2382 1867.00
55.5425 2028.00
55.8467 2879.00
56.151 2445.00
56.4553 2363.00
56.7595 2027.00
57.0638 1685.00
57.368 1684.00
57.6723 1904.00
57.9766 1617.00
58.2808 1385.00
58.5851 1401.00
58.8893 1544.00
59.1936 1957.00
59.4979 1950.00
59.8021 1885.00
60.1064 2095.00
60.4106 1764.00
60.7149 1705.00
61.0192 1573.00
61.3234 1578.00
61.6277 1477.00
61.932 1644.00
62.2362 1451.00
62.5405 1502.00
62.8447 1591.00
63.149 1450.00
63.4533 1431.00
63.7575 1699.00
64.0618 1491.00
64.366 1430.00
64.6703 1430.00
64.9745 1388.00
65.2788 1342.00
65.5831 1402.00
65.8873 1578.00
66.1916 1624.00
66.4959 1494.00
66.8001 1632.00
67.1044 1490.00
67.4086 1381.00
67.7129 1554.00
68.0172 1527.00
68.3214 1463.00
68.6257 1241.00
68.9299 1219.00
69.2342 1437.00
69.5385 1312.00
69.8427 1407.00
70.147 1369.00
70.4512 1304.00
70.7555 1446.00
71.0598 1294.00
71.364 1107.00
71.6683 1270.00
71.9725 1268.00
72.2768 1211.00
72.5811 1165.00
72.8853 1199.00
73.1896 1404.00
73.4938 1354.00
73.7981 1368.00
74.1024 1298.00
74.4066 1142.00
74.7109 1133.00
75.0151 1129.00
75.3194 1156.00
75.6237 1166.00
75.9279 1102.00
76.2322 1106.00
76.5364 1125.00
76.8407 1143.00
77.145 1338.00
77.4492 1201.00
77.7535 1184.00
78.0577 1186.00
78.362 1140.00
78.6663 1045.00
78.9705 1088.00
79.2748 1176.00
79.579 1193.00
79.8833 1205.00
80.1876 1330.00
80.4918 1425.00
80.7961 1346.00
81.1003 1309.00
81.4046 1139.00
81.7089 1128.00
82.0131 1146.00
82.3174 1181.00
82.6217 1183.00
82.9259 1305.00
83.2302 1263.00
83.5344 1144.00
83.8387 1172.00
84.143 1218.00
84.4472 1252.00
84.7515 1333.00
85.0557 1311.00
85.36 1204.00
85.6643 1257.00
85.9685 1276.00
86.2728 1227.00
86.577 1176.00
86.8813 1180.00
87.1856 1183.00
87.4898 1146.00
87.7941 1219.00
88.0983 1190.00
88.4026 1250.00
88.7069 1199.00
89.0111 1148.00
89.3154 1148.00
89.6196 1247.00
89.9239 1300.00
90.2282 1273.00
90.5324 1125.00
90.8367 1177.00
91.1409 1106.00
91.4452 1122.00
91.7495 1048.00
92.0537 1068.00
92.358 1147.00
92.6622 1181.00
92.9665 1098.00
93.2708 1199.00
93.575 1191.00
93.8793 1188.00
94.1835 1205.00
94.4878 1211.00
94.7921 1173.00
95.0963 1217.00
95.4006 1245.00
95.7048 1163.00
96.0091 1080.00
96.3134 1138.00
96.6176 1125.00
96.9219 1106.00
97.2261 1129.00
97.5304 1097.00
97.8347 1113.00
98.1389 1165.00
98.4432 1259.00
98.7474 1232.00
99.0517 1198.00
99.356 1127.00
99.6602 1216.00
99.9645 1198.00
100.095 1116.00