File: data/xrd_creation/results/Na_289.xy
9.903433 5056.00
10.2077 5206.00
10.512 5155.00
10.8162 5156.00
11.1205 5312.00
11.4247 5143.00
11.729 5178.00
12.0333 5269.00
12.3375 5187.00
12.6418 5410.00
12.946 5309.00
13.2503 5432.00
13.5546 5472.00
13.8588 5539.00
14.1631 5329.00
14.4673 5502.00
14.7716 5625.00
15.0759 5591.00
15.3801 5644.00
15.6844 5695.00
15.9886 5764.00
16.2929 5641.00
16.5972 5809.00
16.9014 5816.00
17.2057 5882.00
17.5099 5848.00
17.8142 5868.00
18.1185 5759.00
18.4227 5859.00
18.727 5863.00
19.0312 6084.00
19.3355 6307.00
19.6398 6085.00
19.944 6016.00
20.2483 6124.00
20.5525 6277.00
20.8568 7422.00
21.1611 15757.00
21.4653 6300.00
21.7696 6270.00
22.0738 6390.00
22.3781 6457.00
22.6824 6501.00
22.9866 6245.00
23.2909 6382.00
23.5951 6368.00
23.8994 6477.00
24.2037 6464.00
24.5079 6310.00
24.8122 6338.00
25.1164 6495.00
25.4207 6440.00
25.725 6369.00
26.0292 6469.00
26.3335 6492.00
26.6378 6464.00
26.942 6464.00
27.2463 6390.00
27.5505 6441.00
27.8548 6287.00
28.1591 6485.00
28.4633 6410.00
28.7676 6344.00
29.0718 6497.00
29.3761 6325.00
29.6804 6511.00
29.9846 6415.00
30.2889 6550.00
30.5931 6778.00
30.8974 6356.00
31.2017 6486.00
31.5059 6629.00
31.8102 6704.00
32.1144 6456.00
32.4187 6522.00
32.723 6434.00
33.0272 6625.00
33.3315 6606.00
33.6357 6730.00
33.94 6652.00
34.2443 7054.00
34.5485 19270.00
34.8528 7451.00
35.157 6830.00
35.4613 6631.00
35.7656 6553.00
36.0698 6904.00
36.3741 7297.00
36.6783 6766.00
36.9826 6711.00
37.2869 6984.00
37.5911 6824.00
37.8954 6759.00
38.1996 6631.00
38.5039 6638.00
38.8082 6743.00
39.1124 6735.00
39.4167 7009.00
39.7209 6887.00
40.0252 6663.00
40.3295 6583.00
40.6337 6634.00
40.938 6645.00
41.2422 6688.00
41.5465 6585.00
41.8508 6561.00
42.155 6691.00
42.4593 6790.00
42.7635 7076.00
43.0678 6760.00
43.3721 6711.00
43.6763 6625.00
43.9806 6817.00
44.2849 6738.00
44.5891 6761.00
44.8934 6608.00
45.1976 6537.00
45.5019 6768.00
45.8062 6687.00
46.1104 6616.00
46.4147 6690.00
46.7189 6692.00
47.0232 6783.00
47.3275 6711.00
47.6317 6714.00
47.936 6608.00
48.2402 6737.00
48.5445 6657.00
48.8488 6737.00
49.153 6749.00
49.4573 7171.00
49.7615 7960.00
50.0658 6805.00
50.3701 6734.00
50.6743 6638.00
50.9786 6651.00
51.2828 6828.00
51.5871 6601.00
51.8914 6786.00
52.1956 6683.00
52.4999 6631.00
52.8041 6680.00
53.1084 6663.00
53.4127 6810.00
53.7169 6744.00
54.0212 6874.00
54.3254 6768.00
54.6297 6610.00
54.934 6627.00
55.2382 6650.00
55.5425 6609.00
55.8467 6900.00
56.151 6658.00
56.4553 6911.00
56.7595 6618.00
57.0638 6655.00
57.368 6696.00
57.6723 6637.00
57.9766 6785.00
58.2808 6581.00
58.5851 6515.00
58.8893 6678.00
59.1936 6815.00
59.4979 6623.00
59.8021 6693.00
60.1064 6673.00
60.4106 6623.00
60.7149 6639.00
61.0192 6788.00
61.3234 6740.00
61.6277 8859.00
61.932 8059.00
62.2362 6758.00
62.5405 6698.00
62.8447 6576.00
63.149 6671.00
63.4533 6669.00
63.7575 6654.00
64.0618 6618.00
64.366 6641.00
64.6703 6709.00
64.9745 6768.00
65.2788 6736.00
65.5831 6809.00
65.8873 6952.00
66.1916 6890.00
66.4959 6687.00
66.8001 6580.00
67.1044 6724.00
67.4086 6412.00
67.7129 6411.00
68.0172 6524.00
68.3214 6620.00
68.6257 6602.00
68.9299 6630.00
69.2342 6583.00
69.5385 6692.00
69.8427 6622.00
70.147 6611.00
70.4512 6530.00
70.7555 6736.00
71.0598 6558.00
71.364 6648.00
71.6683 6531.00
71.9725 6739.00
72.2768 6707.00
72.5811 7257.00
72.8853 6475.00
73.1896 6504.00
73.4938 6705.00
73.7981 6497.00
74.1024 6563.00
74.4066 6600.00
74.7109 6597.00
75.0151 6673.00
75.3194 6516.00
75.6237 6612.00
75.9279 6715.00
76.2322 6581.00
76.5364 6801.00
76.8407 6657.00
77.145 6704.00
77.4492 6560.00
77.7535 6656.00
78.0577 6537.00
78.362 6543.00
78.6663 6622.00
78.9705 6499.00
79.2748 6588.00
79.579 6574.00
79.8833 6555.00
80.1876 6582.00
80.4918 6512.00
80.7961 6577.00
81.1003 6615.00
81.4046 6645.00
81.7089 6557.00
82.0131 6567.00
82.3174 6677.00
82.6217 6895.00
82.9259 7207.00
83.2302 6661.00
83.5344 6567.00
83.8387 6628.00
84.143 6504.00
84.4472 6639.00
84.7515 6606.00
85.0557 6620.00
85.36 6414.00
85.6643 6618.00
85.9685 6620.00
86.2728 6696.00
86.577 6598.00
86.8813 6610.00
87.1856 6592.00
87.4898 6495.00
87.7941 6614.00
88.0983 6621.00
88.4026 6489.00
88.7069 6505.00
89.0111 6632.00
89.3154 6599.00
89.6196 6650.00
89.9239 6616.00
90.2282 6434.00
90.5324 6565.00
90.8367 6595.00
91.1409 6652.00
91.4452 6532.00
91.7495 6687.00
92.0537 6508.00
92.358 6818.00
92.6622 6557.00
92.9665 6767.00
93.2708 6662.00
93.575 6589.00
93.8793 6562.00
94.1835 6717.00
94.4878 6607.00
94.7921 6676.00
95.0963 6481.00
95.4006 6552.00
95.7048 6592.00
96.0091 6572.00
96.3134 6545.00
96.6176 6640.00
96.9219 6525.00
97.2261 6583.00
97.5304 6484.00
97.8347 6517.00
98.1389 6573.00
98.4432 6706.00
98.7474 6665.00
99.0517 6499.00
99.356 6629.00
99.6602 6608.00
99.9645 6593.00
100.095 6451.00