File: data/xrd_creation/results/Na_292.xy
9.903433 2747.00
10.2077 2648.00
10.512 2480.00
10.8162 2470.00
11.1205 2398.00
11.4247 2301.00
11.729 2198.00
12.0333 2195.00
12.3375 2145.00
12.6418 2012.00
12.946 2140.00
13.2503 2622.00
13.5546 2091.00
13.8588 2097.00
14.1631 1874.00
14.4673 1830.00
14.7716 1769.00
15.0759 1782.00
15.3801 1750.00
15.6844 1800.00
15.9886 1806.00
16.2929 1679.00
16.5972 1638.00
16.9014 1606.00
17.2057 1646.00
17.5099 1562.00
17.8142 1562.00
18.1185 1506.00
18.4227 1494.00
18.727 1520.00
19.0312 1424.00
19.3355 1811.00
19.6398 1466.00
19.944 1328.00
20.2483 1381.00
20.5525 1405.00
20.8568 2002.00
21.1611 1620.00
21.4653 1303.00
21.7696 1467.00
22.0738 1204.00
22.3781 1255.00
22.6824 1685.00
22.9866 1426.00
23.2909 1391.00
23.5951 1137.00
23.8994 1232.00
24.2037 2078.00
24.5079 1130.00
24.8122 1043.00
25.1164 1070.00
25.4207 1170.00
25.725 1224.00
26.0292 1156.00
26.3335 2489.00
26.6378 1271.00
26.942 1284.00
27.2463 1234.00
27.5505 1408.00
27.8548 1748.00
28.1591 1035.00
28.4633 1004.00
28.7676 1004.00
29.0718 1249.00
29.3761 6055.00
29.6804 1582.00
29.9846 1405.00
30.2889 10648.00
30.5931 1470.00
30.8974 2335.00
31.2017 1183.00
31.5059 1042.00
31.8102 1120.00
32.1144 2005.00
32.4187 1004.00
32.723 860.00
33.0272 960.00
33.3315 983.00
33.6357 1605.00
33.94 1204.00
34.2443 1906.00
34.5485 3881.00
34.8528 956.00
35.157 848.00
35.4613 801.00
35.7656 833.00
36.0698 795.00
36.3741 807.00
36.6783 849.00
36.9826 801.00
37.2869 716.00
37.5911 742.00
37.8954 708.00
38.1996 811.00
38.5039 762.00
38.8082 795.00
39.1124 766.00
39.4167 817.00
39.7209 2569.00
40.0252 1296.00
40.3295 809.00
40.6337 782.00
40.938 1389.00
41.2422 840.00
41.5465 676.00
41.8508 742.00
42.155 733.00
42.4593 1000.00
42.7635 649.00
43.0678 617.00
43.3721 675.00
43.6763 669.00
43.9806 1202.00
44.2849 1199.00
44.5891 682.00
44.8934 782.00
45.1976 810.00
45.5019 704.00
45.8062 808.00
46.1104 963.00
46.4147 3046.00
46.7189 852.00
47.0232 829.00
47.3275 711.00
47.6317 639.00
47.936 661.00
48.2402 642.00
48.5445 651.00
48.8488 692.00
49.153 874.00
49.4573 1393.00
49.7615 612.00
50.0658 696.00
50.3701 627.00
50.6743 624.00
50.9786 1201.00
51.2828 721.00
51.5871 559.00
51.8914 798.00
52.1956 1001.00
52.4999 2168.00
52.8041 766.00
53.1084 554.00
53.4127 646.00
53.7169 1194.00
54.0212 1238.00
54.3254 680.00
54.6297 591.00
54.934 560.00
55.2382 592.00
55.5425 1051.00
55.8467 1921.00
56.151 1492.00
56.4553 1004.00
56.7595 537.00
57.0638 519.00
57.368 544.00
57.6723 473.00
57.9766 522.00
58.2808 494.00
58.5851 525.00
58.8893 542.00
59.1936 494.00
59.4979 479.00
59.8021 504.00
60.1064 504.00
60.4106 572.00
60.7149 879.00
61.0192 635.00
61.3234 1610.00
61.6277 558.00
61.932 471.00
62.2362 423.00
62.5405 837.00
62.8447 513.00
63.149 491.00
63.4533 533.00
63.7575 481.00
64.0618 534.00
64.366 448.00
64.6703 390.00
64.9745 403.00
65.2788 419.00
65.5831 796.00
65.8873 467.00
66.1916 418.00
66.4959 443.00
66.8001 443.00
67.1044 534.00
67.4086 439.00
67.7129 361.00
68.0172 389.00
68.3214 331.00
68.6257 404.00
68.9299 388.00
69.2342 387.00
69.5385 350.00
69.8427 363.00
70.147 481.00
70.4512 448.00
70.7555 457.00
71.0598 389.00
71.364 411.00
71.6683 454.00
71.9725 558.00
72.2768 1059.00
72.5811 714.00
72.8853 476.00
73.1896 444.00
73.4938 477.00
73.7981 491.00
74.1024 431.00
74.4066 389.00
74.7109 376.00
75.0151 390.00
75.3194 518.00
75.6237 940.00
75.9279 615.00
76.2322 414.00
76.5364 418.00
76.8407 444.00
77.145 406.00
77.4492 354.00
77.7535 433.00
78.0577 417.00
78.362 432.00
78.6663 374.00
78.9705 457.00
79.2748 639.00
79.579 651.00
79.8833 416.00
80.1876 378.00
80.4918 354.00
80.7961 428.00
81.1003 581.00
81.4046 489.00
81.7089 380.00
82.0131 442.00
82.3174 564.00
82.6217 463.00
82.9259 354.00
83.2302 377.00
83.5344 382.00
83.8387 497.00
84.143 576.00
84.4472 449.00
84.7515 407.00
85.0557 450.00
85.36 542.00
85.6643 639.00
85.9685 548.00
86.2728 444.00
86.577 406.00
86.8813 407.00
87.1856 332.00
87.4898 340.00
87.7941 395.00
88.0983 425.00
88.4026 402.00
88.7069 360.00
89.0111 350.00
89.3154 366.00
89.6196 354.00
89.9239 468.00
90.2282 741.00
90.5324 503.00
90.8367 388.00
91.1409 350.00
91.4452 348.00
91.7495 358.00
92.0537 410.00
92.358 389.00
92.6622 462.00
92.9665 557.00
93.2708 441.00
93.575 354.00
93.8793 358.00
94.1835 325.00
94.4878 377.00
94.7921 309.00
95.0963 345.00
95.4006 328.00
95.7048 364.00
96.0091 371.00
96.3134 353.00
96.6176 350.00
96.9219 323.00
97.2261 320.00
97.5304 331.00
97.8347 346.00
98.1389 392.00
98.4432 369.00
98.7474 340.00
99.0517 331.00
99.356 308.00
99.6602 337.00
99.9645 319.00
100.095 351.00