File: data/xrd_creation/results/Na_204.xy
9.903433 2696.00
10.2077 2654.00
10.512 2582.00
10.8162 2445.00
11.1205 2491.00
11.4247 3212.00
11.729 6387.00
12.0333 4820.00
12.3375 2169.00
12.6418 2112.00
12.946 1948.00
13.2503 1897.00
13.5546 1891.00
13.8588 1806.00
14.1631 1762.00
14.4673 1800.00
14.7716 1808.00
15.0759 1790.00
15.3801 1658.00
15.6844 1710.00
15.9886 1771.00
16.2929 1699.00
16.5972 1918.00
16.9014 1576.00
17.2057 1496.00
17.5099 1615.00
17.8142 1584.00
18.1185 2012.00
18.4227 2899.00
18.727 1638.00
19.0312 1365.00
19.3355 1420.00
19.6398 1404.00
19.944 1269.00
20.2483 1284.00
20.5525 1221.00
20.8568 1343.00
21.1611 1963.00
21.4653 1232.00
21.7696 1142.00
22.0738 1260.00
22.3781 1213.00
22.6824 1134.00
22.9866 1153.00
23.2909 1417.00
23.5951 1117.00
23.8994 1522.00
24.2037 1485.00
24.5079 1522.00
24.8122 1483.00
25.1164 2022.00
25.4207 1352.00
25.725 1183.00
26.0292 2748.00
26.3335 1464.00
26.6378 2444.00
26.942 1004.00
27.2463 988.00
27.5505 1085.00
27.8548 1373.00
28.1591 1868.00
28.4633 2854.00
28.7676 993.00
29.0718 1032.00
29.3761 1402.00
29.6804 992.00
29.9846 848.00
30.2889 1113.00
30.5931 936.00
30.8974 1344.00
31.2017 1114.00
31.5059 911.00
31.8102 957.00
32.1144 959.00
32.4187 840.00
32.723 814.00
33.0272 1010.00
33.3315 4629.00
33.6357 2527.00
33.94 1876.00
34.2443 1353.00
34.5485 1416.00
34.8528 1274.00
35.157 6973.00
35.4613 1088.00
35.7656 660.00
36.0698 1060.00
36.3741 867.00
36.6783 723.00
36.9826 767.00
37.2869 705.00
37.5911 673.00
37.8954 623.00
38.1996 609.00
38.5039 602.00
38.8082 900.00
39.1124 655.00
39.4167 617.00
39.7209 697.00
40.0252 552.00
40.3295 577.00
40.6337 654.00
40.938 578.00
41.2422 662.00
41.5465 673.00
41.8508 661.00
42.155 556.00
42.4593 723.00
42.7635 909.00
43.0678 1020.00
43.3721 516.00
43.6763 542.00
43.9806 574.00
44.2849 936.00
44.5891 691.00
44.8934 639.00
45.1976 565.00
45.5019 573.00
45.8062 573.00
46.1104 919.00
46.4147 592.00
46.7189 673.00
47.0232 2228.00
47.3275 1092.00
47.6317 502.00
47.936 739.00
48.2402 656.00
48.5445 1306.00
48.8488 996.00
49.153 640.00
49.4573 739.00
49.7615 716.00
50.0658 704.00
50.3701 701.00
50.6743 935.00
50.9786 1228.00
51.2828 840.00
51.5871 565.00
51.8914 638.00
52.1956 1614.00
52.4999 499.00
52.8041 487.00
53.1084 467.00
53.4127 503.00
53.7169 642.00
54.0212 586.00
54.3254 588.00
54.6297 795.00
54.934 532.00
55.2382 439.00
55.5425 530.00
55.8467 509.00
56.151 612.00
56.4553 623.00
56.7595 621.00
57.0638 701.00
57.368 591.00
57.6723 499.00
57.9766 417.00
58.2808 708.00
58.5851 606.00
58.8893 624.00
59.1936 1396.00
59.4979 543.00
59.8021 848.00
60.1064 627.00
60.4106 2100.00
60.7149 1361.00
61.0192 769.00
61.3234 1045.00
61.6277 564.00
61.932 502.00
62.2362 450.00
62.5405 685.00
62.8447 413.00
63.149 364.00
63.4533 421.00
63.7575 515.00
64.0618 702.00
64.366 649.00
64.6703 372.00
64.9745 377.00
65.2788 553.00
65.5831 518.00
65.8873 432.00
66.1916 403.00
66.4959 467.00
66.8001 434.00
67.1044 453.00
67.4086 401.00
67.7129 432.00
68.0172 414.00
68.3214 503.00
68.6257 363.00
68.9299 396.00
69.2342 515.00
69.5385 427.00
69.8427 573.00
70.147 431.00
70.4512 368.00
70.7555 360.00
71.0598 446.00
71.364 640.00
71.6683 401.00
71.9725 371.00
72.2768 391.00
72.5811 372.00
72.8853 357.00
73.1896 332.00
73.4938 330.00
73.7981 490.00
74.1024 455.00
74.4066 434.00
74.7109 419.00
75.0151 353.00
75.3194 459.00
75.6237 355.00
75.9279 332.00
76.2322 341.00
76.5364 371.00
76.8407 354.00
77.145 289.00
77.4492 292.00
77.7535 350.00
78.0577 478.00
78.362 625.00
78.6663 372.00
78.9705 351.00
79.2748 406.00
79.579 317.00
79.8833 344.00
80.1876 554.00
80.4918 436.00
80.7961 328.00
81.1003 334.00
81.4046 397.00
81.7089 343.00
82.0131 418.00
82.3174 357.00
82.6217 379.00
82.9259 380.00
83.2302 303.00
83.5344 283.00
83.8387 337.00
84.143 316.00
84.4472 318.00
84.7515 284.00
85.0557 280.00
85.36 306.00
85.6643 309.00
85.9685 309.00
86.2728 323.00
86.577 320.00
86.8813 326.00
87.1856 362.00
87.4898 333.00
87.7941 347.00
88.0983 335.00
88.4026 334.00
88.7069 298.00
89.0111 321.00
89.3154 323.00
89.6196 349.00
89.9239 319.00
90.2282 312.00
90.5324 358.00
90.8367 367.00
91.1409 378.00
91.4452 316.00
91.7495 298.00
92.0537 346.00
92.358 323.00
92.6622 293.00
92.9665 345.00
93.2708 340.00
93.575 303.00
93.8793 313.00
94.1835 367.00
94.4878 340.00
94.7921 297.00
95.0963 271.00
95.4006 294.00
95.7048 326.00
96.0091 288.00
96.3134 326.00
96.6176 325.00
96.9219 298.00
97.2261 435.00
97.5304 372.00
97.8347 306.00
98.1389 373.00
98.4432 365.00
98.7474 437.00
99.0517 367.00
99.356 403.00
99.6602 422.00
99.9645 337.00
100.095 348.00