File: data/xrd_creation/results/Na_299.xy
9.903433 2775.00
10.2077 2734.00
10.512 2683.00
10.8162 2452.00
11.1205 2504.00
11.4247 2287.00
11.729 2137.00
12.0333 2175.00
12.3375 2171.00
12.6418 2154.00
12.946 2044.00
13.2503 1851.00
13.5546 1825.00
13.8588 1831.00
14.1631 1828.00
14.4673 1823.00
14.7716 1743.00
15.0759 1784.00
15.3801 1698.00
15.6844 1663.00
15.9886 1703.00
16.2929 1620.00
16.5972 1613.00
16.9014 1661.00
17.2057 1523.00
17.5099 1595.00
17.8142 1469.00
18.1185 1511.00
18.4227 1449.00
18.727 1437.00
19.0312 1516.00
19.3355 1349.00
19.6398 1531.00
19.944 1915.00
20.2483 2274.00
20.5525 2801.00
20.8568 7724.00
21.1611 1490.00
21.4653 1399.00
21.7696 1287.00
22.0738 1314.00
22.3781 1336.00
22.6824 1261.00
22.9866 1323.00
23.2909 1265.00
23.5951 1249.00
23.8994 1333.00
24.2037 1425.00
24.5079 1950.00
24.8122 1202.00
25.1164 1100.00
25.4207 1229.00
25.725 1226.00
26.0292 1188.00
26.3335 1815.00
26.6378 1244.00
26.942 1127.00
27.2463 1089.00
27.5505 1160.00
27.8548 1068.00
28.1591 1154.00
28.4633 1117.00
28.7676 1031.00
29.0718 1122.00
29.3761 997.00
29.6804 1027.00
29.9846 1036.00
30.2889 1094.00
30.5931 1127.00
30.8974 1125.00
31.2017 1085.00
31.5059 1075.00
31.8102 1076.00
32.1144 1045.00
32.4187 1144.00
32.723 2367.00
33.0272 1395.00
33.3315 1664.00
33.6357 2355.00
33.94 1519.00
34.2443 8535.00
34.5485 1183.00
34.8528 1205.00
35.157 1099.00
35.4613 910.00
35.7656 1039.00
36.0698 1418.00
36.3741 1467.00
36.6783 920.00
36.9826 937.00
37.2869 980.00
37.5911 841.00
37.8954 923.00
38.1996 904.00
38.5039 1326.00
38.8082 876.00
39.1124 894.00
39.4167 856.00
39.7209 838.00
40.0252 909.00
40.3295 897.00
40.6337 802.00
40.938 830.00
41.2422 836.00
41.5465 1222.00
41.8508 810.00
42.155 1015.00
42.4593 831.00
42.7635 792.00
43.0678 705.00
43.3721 726.00
43.6763 935.00
43.9806 789.00
44.2849 770.00
44.5891 810.00
44.8934 744.00
45.1976 725.00
45.5019 727.00
45.8062 733.00
46.1104 724.00
46.4147 715.00
46.7189 714.00
47.0232 696.00
47.3275 1008.00
47.6317 793.00
47.936 763.00
48.2402 648.00
48.5445 705.00
48.8488 744.00
49.153 1336.00
49.4573 777.00
49.7615 682.00
50.0658 790.00
50.3701 981.00
50.6743 660.00
50.9786 663.00
51.2828 685.00
51.5871 639.00
51.8914 677.00
52.1956 752.00
52.4999 666.00
52.8041 671.00
53.1084 695.00
53.4127 664.00
53.7169 711.00
54.0212 730.00
54.3254 764.00
54.6297 802.00
54.934 1649.00
55.2382 756.00
55.5425 667.00
55.8467 682.00
56.151 627.00
56.4553 646.00
56.7595 660.00
57.0638 674.00
57.368 629.00
57.6723 595.00
57.9766 615.00
58.2808 632.00
58.5851 649.00
58.8893 672.00
59.1936 716.00
59.4979 666.00
59.8021 653.00
60.1064 570.00
60.4106 600.00
60.7149 643.00
61.0192 664.00
61.3234 1360.00
61.6277 736.00
61.932 570.00
62.2362 589.00
62.5405 620.00
62.8447 662.00
63.149 638.00
63.4533 894.00
63.7575 639.00
64.0618 566.00
64.366 580.00
64.6703 600.00
64.9745 782.00
65.2788 1112.00
65.5831 804.00
65.8873 543.00
66.1916 558.00
66.4959 514.00
66.8001 551.00
67.1044 539.00
67.4086 575.00
67.7129 541.00
68.0172 523.00
68.3214 561.00
68.6257 508.00
68.9299 517.00
69.2342 494.00
69.5385 543.00
69.8427 604.00
70.147 542.00
70.4512 527.00
70.7555 550.00
71.0598 493.00
71.364 472.00
71.6683 512.00
71.9725 677.00
72.2768 668.00
72.5811 582.00
72.8853 676.00
73.1896 627.00
73.4938 566.00
73.7981 494.00
74.1024 470.00
74.4066 518.00
74.7109 518.00
75.0151 471.00
75.3194 526.00
75.6237 502.00
75.9279 596.00
76.2322 534.00
76.5364 498.00
76.8407 572.00
77.145 516.00
77.4492 509.00
77.7535 478.00
78.0577 490.00
78.362 500.00
78.6663 478.00
78.9705 595.00
79.2748 577.00
79.579 446.00
79.8833 509.00
80.1876 486.00
80.4918 485.00
80.7961 480.00
81.1003 485.00
81.4046 471.00
81.7089 499.00
82.0131 523.00
82.3174 725.00
82.6217 510.00
82.9259 491.00
83.2302 497.00
83.5344 512.00
83.8387 498.00
84.143 515.00
84.4472 547.00
84.7515 566.00
85.0557 512.00
85.36 453.00
85.6643 472.00
85.9685 533.00
86.2728 472.00
86.577 547.00
86.8813 561.00
87.1856 452.00
87.4898 466.00
87.7941 438.00
88.0983 473.00
88.4026 492.00
88.7069 445.00
89.0111 479.00
89.3154 467.00
89.6196 477.00
89.9239 494.00
90.2282 616.00
90.5324 516.00
90.8367 472.00
91.1409 462.00
91.4452 439.00
91.7495 511.00
92.0537 507.00
92.358 484.00
92.6622 483.00
92.9665 459.00
93.2708 457.00
93.575 444.00
93.8793 472.00
94.1835 464.00
94.4878 464.00
94.7921 452.00
95.0963 505.00
95.4006 548.00
95.7048 510.00
96.0091 489.00
96.3134 458.00
96.6176 474.00
96.9219 483.00
97.2261 463.00
97.5304 457.00
97.8347 481.00
98.1389 480.00
98.4432 472.00
98.7474 497.00
99.0517 500.00
99.356 454.00
99.6602 461.00
99.9645 439.00
100.095 430.00