File: data/xrd_creation/results/Na_277.xy
9.903433 2663.00
10.2077 2647.00
10.512 2385.00
10.8162 2271.00
11.1205 2224.00
11.4247 2095.00
11.729 2462.00
12.0333 2122.00
12.3375 1880.00
12.6418 1873.00
12.946 1805.00
13.2503 1628.00
13.5546 1665.00
13.8588 1586.00
14.1631 1491.00
14.4673 1450.00
14.7716 1451.00
15.0759 1383.00
15.3801 1331.00
15.6844 1403.00
15.9886 1329.00
16.2929 1266.00
16.5972 1279.00
16.9014 1259.00
17.2057 1261.00
17.5099 1296.00
17.8142 1255.00
18.1185 1099.00
18.4227 1162.00
18.727 1089.00
19.0312 1157.00
19.3355 1155.00
19.6398 1239.00
19.944 1009.00
20.2483 1027.00
20.5525 1291.00
20.8568 1002.00
21.1611 932.00
21.4653 933.00
21.7696 944.00
22.0738 893.00
22.3781 930.00
22.6824 1041.00
22.9866 1102.00
23.2909 960.00
23.5951 887.00
23.8994 1188.00
24.2037 888.00
24.5079 902.00
24.8122 814.00
25.1164 795.00
25.4207 768.00
25.725 762.00
26.0292 750.00
26.3335 826.00
26.6378 753.00
26.942 710.00
27.2463 751.00
27.5505 730.00
27.8548 781.00
28.1591 1553.00
28.4633 792.00
28.7676 679.00
29.0718 712.00
29.3761 669.00
29.6804 707.00
29.9846 768.00
30.2889 693.00
30.5931 658.00
30.8974 694.00
31.2017 1005.00
31.5059 1171.00
31.8102 638.00
32.1144 599.00
32.4187 614.00
32.723 579.00
33.0272 604.00
33.3315 566.00
33.6357 712.00
33.94 1365.00
34.2443 801.00
34.5485 529.00
34.8528 536.00
35.157 539.00
35.4613 564.00
35.7656 514.00
36.0698 528.00
36.3741 481.00
36.6783 493.00
36.9826 465.00
37.2869 447.00
37.5911 453.00
37.8954 450.00
38.1996 407.00
38.5039 470.00
38.8082 406.00
39.1124 439.00
39.4167 398.00
39.7209 412.00
40.0252 468.00
40.3295 409.00
40.6337 424.00
40.938 463.00
41.2422 419.00
41.5465 392.00
41.8508 402.00
42.155 401.00
42.4593 348.00
42.7635 403.00
43.0678 361.00
43.3721 378.00
43.6763 350.00
43.9806 327.00
44.2849 347.00
44.5891 393.00
44.8934 400.00
45.1976 351.00
45.5019 397.00
45.8062 360.00
46.1104 398.00
46.4147 352.00
46.7189 437.00
47.0232 409.00
47.3275 324.00
47.6317 361.00
47.936 310.00
48.2402 336.00
48.5445 320.00
48.8488 384.00
49.153 417.00
49.4573 379.00
49.7615 332.00
50.0658 476.00
50.3701 370.00
50.6743 365.00
50.9786 334.00
51.2828 356.00
51.5871 381.00
51.8914 308.00
52.1956 309.00
52.4999 301.00
52.8041 316.00
53.1084 263.00
53.4127 302.00
53.7169 338.00
54.0212 386.00
54.3254 337.00
54.6297 347.00
54.934 286.00
55.2382 344.00
55.5425 357.00
55.8467 307.00
56.151 272.00
56.4553 271.00
56.7595 247.00
57.0638 292.00
57.368 236.00
57.6723 278.00
57.9766 283.00
58.2808 265.00
58.5851 294.00
58.8893 273.00
59.1936 290.00
59.4979 249.00
59.8021 285.00
60.1064 291.00
60.4106 268.00
60.7149 273.00
61.0192 284.00
61.3234 247.00
61.6277 263.00
61.932 278.00
62.2362 223.00
62.5405 244.00
62.8447 287.00
63.149 263.00
63.4533 249.00
63.7575 240.00
64.0618 258.00
64.366 258.00
64.6703 245.00
64.9745 249.00
65.2788 234.00
65.5831 215.00
65.8873 259.00
66.1916 227.00
66.4959 245.00
66.8001 278.00
67.1044 228.00
67.4086 221.00
67.7129 244.00
68.0172 233.00
68.3214 226.00
68.6257 187.00
68.9299 232.00
69.2342 229.00
69.5385 222.00
69.8427 218.00
70.147 209.00
70.4512 204.00
70.7555 216.00
71.0598 219.00
71.364 276.00
71.6683 204.00
71.9725 231.00
72.2768 230.00
72.5811 231.00
72.8853 236.00
73.1896 223.00
73.4938 245.00
73.7981 226.00
74.1024 226.00
74.4066 234.00
74.7109 238.00
75.0151 227.00
75.3194 198.00
75.6237 219.00
75.9279 243.00
76.2322 261.00
76.5364 227.00
76.8407 217.00
77.145 241.00
77.4492 233.00
77.7535 288.00
78.0577 271.00
78.362 228.00
78.6663 227.00
78.9705 251.00
79.2748 266.00
79.579 236.00
79.8833 241.00
80.1876 272.00
80.4918 249.00
80.7961 249.00
81.1003 243.00
81.4046 289.00
81.7089 271.00
82.0131 274.00
82.3174 259.00
82.6217 256.00
82.9259 267.00
83.2302 247.00
83.5344 271.00
83.8387 261.00
84.143 278.00
84.4472 258.00
84.7515 264.00
85.0557 204.00
85.36 249.00
85.6643 244.00
85.9685 224.00
86.2728 230.00
86.577 261.00
86.8813 233.00
87.1856 222.00
87.4898 235.00
87.7941 247.00
88.0983 257.00
88.4026 234.00
88.7069 243.00
89.0111 225.00
89.3154 198.00
89.6196 218.00
89.9239 233.00
90.2282 195.00
90.5324 222.00
90.8367 225.00
91.1409 248.00
91.4452 216.00
91.7495 207.00
92.0537 212.00
92.358 227.00
92.6622 237.00
92.9665 222.00
93.2708 222.00
93.575 209.00
93.8793 217.00
94.1835 207.00
94.4878 215.00
94.7921 225.00
95.0963 194.00
95.4006 206.00
95.7048 208.00
96.0091 221.00
96.3134 239.00
96.6176 223.00
96.9219 232.00
97.2261 206.00
97.5304 208.00
97.8347 215.00
98.1389 227.00
98.4432 233.00
98.7474 192.00
99.0517 231.00
99.356 215.00
99.6602 187.00
99.9645 228.00
100.095 216.00