File: data/xrd_creation/results/Na_280.xy
9.903433 2757.00
10.2077 2514.00
10.512 2481.00
10.8162 2355.00
11.1205 2300.00
11.4247 2289.00
11.729 2213.00
12.0333 2064.00
12.3375 2065.00
12.6418 1956.00
12.946 1889.00
13.2503 1835.00
13.5546 1782.00
13.8588 1750.00
14.1631 1775.00
14.4673 1620.00
14.7716 1700.00
15.0759 1595.00
15.3801 1623.00
15.6844 1517.00
15.9886 1549.00
16.2929 1591.00
16.5972 1555.00
16.9014 1549.00
17.2057 1459.00
17.5099 1410.00
17.8142 1445.00
18.1185 1487.00
18.4227 1411.00
18.727 1416.00
19.0312 1773.00
19.3355 1349.00
19.6398 1365.00
19.944 3274.00
20.2483 3345.00
20.5525 1314.00
20.8568 1232.00
21.1611 1246.00
21.4653 1203.00
21.7696 1212.00
22.0738 1249.00
22.3781 1123.00
22.6824 1124.00
22.9866 1329.00
23.2909 1188.00
23.5951 1140.00
23.8994 1078.00
24.2037 1169.00
24.5079 2914.00
24.8122 1087.00
25.1164 1038.00
25.4207 997.00
25.725 1048.00
26.0292 1122.00
26.3335 2265.00
26.6378 1205.00
26.942 931.00
27.2463 944.00
27.5505 1136.00
27.8548 897.00
28.1591 905.00
28.4633 916.00
28.7676 851.00
29.0718 855.00
29.3761 922.00
29.6804 820.00
29.9846 895.00
30.2889 837.00
30.5931 850.00
30.8974 926.00
31.2017 830.00
31.5059 809.00
31.8102 869.00
32.1144 844.00
32.4187 1022.00
32.723 5222.00
33.0272 2619.00
33.3315 3180.00
33.6357 3873.00
33.94 1600.00
34.2443 848.00
34.5485 1016.00
34.8528 877.00
35.157 865.00
35.4613 787.00
35.7656 1057.00
36.0698 1696.00
36.3741 1920.00
36.6783 948.00
36.9826 1031.00
37.2869 1068.00
37.5911 781.00
37.8954 724.00
38.1996 786.00
38.5039 2503.00
38.8082 860.00
39.1124 869.00
39.4167 916.00
39.7209 870.00
40.0252 813.00
40.3295 698.00
40.6337 669.00
40.938 657.00
41.2422 782.00
41.5465 1531.00
41.8508 717.00
42.155 665.00
42.4593 674.00
42.7635 829.00
43.0678 712.00
43.3721 645.00
43.6763 1511.00
43.9806 809.00
44.2849 868.00
44.5891 809.00
44.8934 1036.00
45.1976 641.00
45.5019 614.00
45.8062 601.00
46.1104 586.00
46.4147 625.00
46.7189 630.00
47.0232 741.00
47.3275 2180.00
47.6317 815.00
47.936 750.00
48.2402 590.00
48.5445 621.00
48.8488 708.00
49.153 675.00
49.4573 574.00
49.7615 593.00
50.0658 875.00
50.3701 1330.00
50.6743 646.00
50.9786 605.00
51.2828 627.00
51.5871 842.00
51.8914 792.00
52.1956 964.00
52.4999 602.00
52.8041 575.00
53.1084 644.00
53.4127 646.00
53.7169 719.00
54.0212 613.00
54.3254 785.00
54.6297 1059.00
54.934 2811.00
55.2382 859.00
55.5425 609.00
55.8467 792.00
56.151 642.00
56.4553 687.00
56.7595 815.00
57.0638 662.00
57.368 648.00
57.6723 570.00
57.9766 572.00
58.2808 706.00
58.5851 776.00
58.8893 1181.00
59.1936 1413.00
59.4979 853.00
59.8021 864.00
60.1064 591.00
60.4106 535.00
60.7149 562.00
61.0192 575.00
61.3234 589.00
61.6277 608.00
61.932 564.00
62.2362 623.00
62.5405 682.00
62.8447 1272.00
63.149 737.00
63.4533 1345.00
63.7575 781.00
64.0618 587.00
64.366 592.00
64.6703 576.00
64.9745 1075.00
65.2788 1979.00
65.5831 785.00
65.8873 635.00
66.1916 586.00
66.4959 568.00
66.8001 601.00
67.1044 560.00
67.4086 611.00
67.7129 502.00
68.0172 514.00
68.3214 508.00
68.6257 523.00
68.9299 533.00
69.2342 517.00
69.5385 737.00
69.8427 728.00
70.147 660.00
70.4512 578.00
70.7555 521.00
71.0598 512.00
71.364 492.00
71.6683 536.00
71.9725 584.00
72.2768 543.00
72.5811 624.00
72.8853 966.00
73.1896 862.00
73.4938 633.00
73.7981 481.00
74.1024 540.00
74.4066 627.00
74.7109 560.00
75.0151 522.00
75.3194 654.00
75.6237 620.00
75.9279 559.00
76.2322 523.00
76.5364 576.00
76.8407 670.00
77.145 574.00
77.4492 504.00
77.7535 518.00
78.0577 558.00
78.362 504.00
78.6663 553.00
78.9705 759.00
79.2748 859.00
79.579 546.00
79.8833 522.00
80.1876 573.00
80.4918 597.00
80.7961 521.00
81.1003 506.00
81.4046 486.00
81.7089 530.00
82.0131 569.00
82.3174 629.00
82.6217 646.00
82.9259 551.00
83.2302 549.00
83.5344 520.00
83.8387 516.00
84.143 665.00
84.4472 794.00
84.7515 853.00
85.0557 638.00
85.36 559.00
85.6643 551.00
85.9685 602.00
86.2728 587.00
86.577 816.00
86.8813 693.00
87.1856 553.00
87.4898 503.00
87.7941 475.00
88.0983 500.00
88.4026 631.00
88.7069 613.00
89.0111 498.00
89.3154 553.00
89.6196 504.00
89.9239 576.00
90.2282 862.00
90.5324 692.00
90.8367 563.00
91.1409 530.00
91.4452 555.00
91.7495 678.00
92.0537 654.00
92.358 545.00
92.6622 552.00
92.9665 478.00
93.2708 523.00
93.575 530.00
93.8793 585.00
94.1835 547.00
94.4878 486.00
94.7921 504.00
95.0963 661.00
95.4006 766.00
95.7048 655.00
96.0091 578.00
96.3134 509.00
96.6176 498.00
96.9219 497.00
97.2261 566.00
97.5304 579.00
97.8347 645.00
98.1389 688.00
98.4432 663.00
98.7474 624.00
99.0517 576.00
99.356 563.00
99.6602 541.00
99.9645 497.00
100.095 528.00