File: data/xrd_creation/results/Na_281.xy
9.903433 5486.00
10.2077 5337.00
10.512 5452.00
10.8162 5317.00
11.1205 5243.00
11.4247 5518.00
11.729 5565.00
12.0333 5435.00
12.3375 5442.00
12.6418 5474.00
12.946 5645.00
13.2503 5714.00
13.5546 5609.00
13.8588 5772.00
14.1631 5838.00
14.4673 5868.00
14.7716 5754.00
15.0759 5798.00
15.3801 6002.00
15.6844 6038.00
15.9886 6021.00
16.2929 6165.00
16.5972 6123.00
16.9014 6207.00
17.2057 6247.00
17.5099 6181.00
17.8142 6155.00
18.1185 6235.00
18.4227 6287.00
18.727 6329.00
19.0312 6571.00
19.3355 6524.00
19.6398 6458.00
19.944 6507.00
20.2483 6510.00
20.5525 6793.00
20.8568 8137.00
21.1611 14852.00
21.4653 6760.00
21.7696 6772.00
22.0738 6596.00
22.3781 6948.00
22.6824 6729.00
22.9866 6791.00
23.2909 7035.00
23.5951 6787.00
23.8994 6838.00
24.2037 6818.00
24.5079 6870.00
24.8122 6823.00
25.1164 7025.00
25.4207 6830.00
25.725 6862.00
26.0292 6726.00
26.3335 6823.00
26.6378 6916.00
26.942 6833.00
27.2463 6753.00
27.5505 6716.00
27.8548 6668.00
28.1591 6793.00
28.4633 6895.00
28.7676 6896.00
29.0718 6866.00
29.3761 6706.00
29.6804 6872.00
29.9846 6870.00
30.2889 6832.00
30.5931 6857.00
30.8974 6635.00
31.2017 6858.00
31.5059 6847.00
31.8102 6711.00
32.1144 6764.00
32.4187 6655.00
32.723 6805.00
33.0272 6788.00
33.3315 6870.00
33.6357 6900.00
33.94 7046.00
34.2443 7408.00
34.5485 24087.00
34.8528 7417.00
35.157 7139.00
35.4613 6824.00
35.7656 6770.00
36.0698 7213.00
36.3741 7182.00
36.6783 6838.00
36.9826 6872.00
37.2869 7002.00
37.5911 6976.00
37.8954 6760.00
38.1996 6811.00
38.5039 6746.00
38.8082 6916.00
39.1124 6799.00
39.4167 6924.00
39.7209 7050.00
40.0252 6797.00
40.3295 6866.00
40.6337 6819.00
40.938 6719.00
41.2422 6946.00
41.5465 6884.00
41.8508 6781.00
42.155 6640.00
42.4593 6836.00
42.7635 7048.00
43.0678 6881.00
43.3721 6763.00
43.6763 7008.00
43.9806 6820.00
44.2849 6704.00
44.5891 6773.00
44.8934 6786.00
45.1976 6807.00
45.5019 6684.00
45.8062 6797.00
46.1104 6665.00
46.4147 6725.00
46.7189 6709.00
47.0232 6687.00
47.3275 6811.00
47.6317 6691.00
47.936 6755.00
48.2402 6684.00
48.5445 6757.00
48.8488 6791.00
49.153 6700.00
49.4573 7986.00
49.7615 7587.00
50.0658 6970.00
50.3701 6766.00
50.6743 6806.00
50.9786 6589.00
51.2828 6848.00
51.5871 6623.00
51.8914 6701.00
52.1956 6689.00
52.4999 6681.00
52.8041 6756.00
53.1084 6755.00
53.4127 6768.00
53.7169 6737.00
54.0212 6915.00
54.3254 6771.00
54.6297 6648.00
54.934 6726.00
55.2382 6732.00
55.5425 6731.00
55.8467 7045.00
56.151 6870.00
56.4553 6749.00
56.7595 6833.00
57.0638 6668.00
57.368 6745.00
57.6723 6725.00
57.9766 6815.00
58.2808 6638.00
58.5851 6694.00
58.8893 6649.00
59.1936 6824.00
59.4979 6818.00
59.8021 6664.00
60.1064 6727.00
60.4106 6620.00
60.7149 6770.00
61.0192 6616.00
61.3234 6660.00
61.6277 9652.00
61.932 7813.00
62.2362 6622.00
62.5405 6831.00
62.8447 6630.00
63.149 6579.00
63.4533 6761.00
63.7575 6816.00
64.0618 6814.00
64.366 6663.00
64.6703 6882.00
64.9745 6767.00
65.2788 6883.00
65.5831 6656.00
65.8873 6964.00
66.1916 6864.00
66.4959 6612.00
66.8001 6656.00
67.1044 6757.00
67.4086 6622.00
67.7129 6757.00
68.0172 6719.00
68.3214 6646.00
68.6257 6705.00
68.9299 6555.00
69.2342 6647.00
69.5385 6658.00
69.8427 6687.00
70.147 6578.00
70.4512 6763.00
70.7555 6673.00
71.0598 6641.00
71.364 6557.00
71.6683 6617.00
71.9725 6788.00
72.2768 6634.00
72.5811 7260.00
72.8853 6737.00
73.1896 6579.00
73.4938 6571.00
73.7981 6619.00
74.1024 6677.00
74.4066 6644.00
74.7109 6605.00
75.0151 6609.00
75.3194 6623.00
75.6237 6596.00
75.9279 6609.00
76.2322 6717.00
76.5364 6869.00
76.8407 6493.00
77.145 6716.00
77.4492 6558.00
77.7535 6609.00
78.0577 6572.00
78.362 6589.00
78.6663 6592.00
78.9705 6434.00
79.2748 6653.00
79.579 6605.00
79.8833 6471.00
80.1876 6608.00
80.4918 6585.00
80.7961 6683.00
81.1003 6555.00
81.4046 6710.00
81.7089 6657.00
82.0131 6680.00
82.3174 6424.00
82.6217 7113.00
82.9259 7125.00
83.2302 6760.00
83.5344 6561.00
83.8387 6484.00
84.143 6401.00
84.4472 6529.00
84.7515 6586.00
85.0557 6534.00
85.36 6439.00
85.6643 6534.00
85.9685 6654.00
86.2728 6547.00
86.577 6661.00
86.8813 6562.00
87.1856 6376.00
87.4898 6532.00
87.7941 6517.00
88.0983 6448.00
88.4026 6390.00
88.7069 6433.00
89.0111 6476.00
89.3154 6566.00
89.6196 6599.00
89.9239 6573.00
90.2282 6552.00
90.5324 6764.00
90.8367 6756.00
91.1409 6504.00
91.4452 6412.00
91.7495 6563.00
92.0537 6497.00
92.358 6500.00
92.6622 6488.00
92.9665 6544.00
93.2708 6557.00
93.575 6501.00
93.8793 6485.00
94.1835 6550.00
94.4878 6486.00
94.7921 6562.00
95.0963 6418.00
95.4006 6524.00
95.7048 6435.00
96.0091 6351.00
96.3134 6478.00
96.6176 6395.00
96.9219 6408.00
97.2261 6559.00
97.5304 6528.00
97.8347 6549.00
98.1389 6486.00
98.4432 6426.00
98.7474 6512.00
99.0517 6537.00
99.356 6533.00
99.6602 6559.00
99.9645 6468.00
100.095 6507.00