File: data/xrd_creation/results/Na_274.xy
9.903433 2811.00
10.2077 2744.00
10.512 2866.00
10.8162 2383.00
11.1205 2373.00
11.4247 2200.00
11.729 2205.00
12.0333 2052.00
12.3375 1960.00
12.6418 1975.00
12.946 1880.00
13.2503 1752.00
13.5546 1789.00
13.8588 1697.00
14.1631 1966.00
14.4673 1693.00
14.7716 1901.00
15.0759 1620.00
15.3801 1620.00
15.6844 1625.00
15.9886 2756.00
16.2929 1514.00
16.5972 1854.00
16.9014 1597.00
17.2057 1460.00
17.5099 1411.00
17.8142 1349.00
18.1185 1342.00
18.4227 1384.00
18.727 2438.00
19.0312 1898.00
19.3355 1728.00
19.6398 1764.00
19.944 1716.00
20.2483 1438.00
20.5525 1344.00
20.8568 1241.00
21.1611 1238.00
21.4653 1199.00
21.7696 1165.00
22.0738 1296.00
22.3781 1486.00
22.6824 1417.00
22.9866 1542.00
23.2909 1521.00
23.5951 1279.00
23.8994 1420.00
24.2037 1989.00
24.5079 1076.00
24.8122 1006.00
25.1164 1020.00
25.4207 982.00
25.725 1452.00
26.0292 971.00
26.3335 1185.00
26.6378 969.00
26.942 1022.00
27.2463 1142.00
27.5505 3076.00
27.8548 1212.00
28.1591 2259.00
28.4633 2386.00
28.7676 1703.00
29.0718 1606.00
29.3761 1109.00
29.6804 1250.00
29.9846 1251.00
30.2889 939.00
30.5931 1502.00
30.8974 1457.00
31.2017 1080.00
31.5059 1197.00
31.8102 1104.00
32.1144 1178.00
32.4187 2680.00
32.723 990.00
33.0272 853.00
33.3315 1339.00
33.6357 924.00
33.94 1440.00
34.2443 1045.00
34.5485 1298.00
34.8528 934.00
35.157 1688.00
35.4613 847.00
35.7656 940.00
36.0698 690.00
36.3741 773.00
36.6783 856.00
36.9826 773.00
37.2869 748.00
37.5911 638.00
37.8954 721.00
38.1996 701.00
38.5039 690.00
38.8082 912.00
39.1124 555.00
39.4167 653.00
39.7209 655.00
40.0252 803.00
40.3295 638.00
40.6337 569.00
40.938 558.00
41.2422 640.00
41.5465 686.00
41.8508 742.00
42.155 656.00
42.4593 622.00
42.7635 670.00
43.0678 665.00
43.3721 661.00
43.6763 589.00
43.9806 626.00
44.2849 549.00
44.5891 553.00
44.8934 512.00
45.1976 525.00
45.5019 619.00
45.8062 783.00
46.1104 523.00
46.4147 443.00
46.7189 492.00
47.0232 490.00
47.3275 593.00
47.6317 556.00
47.936 513.00
48.2402 469.00
48.5445 534.00
48.8488 821.00
49.153 541.00
49.4573 470.00
49.7615 557.00
50.0658 481.00
50.3701 659.00
50.6743 703.00
50.9786 559.00
51.2828 508.00
51.5871 555.00
51.8914 648.00
52.1956 594.00
52.4999 507.00
52.8041 477.00
53.1084 467.00
53.4127 598.00
53.7169 631.00
54.0212 554.00
54.3254 625.00
54.6297 735.00
54.934 588.00
55.2382 469.00
55.5425 391.00
55.8467 509.00
56.151 428.00
56.4553 566.00
56.7595 580.00
57.0638 663.00
57.368 482.00
57.6723 456.00
57.9766 424.00
58.2808 585.00
58.5851 607.00
58.8893 527.00
59.1936 555.00
59.4979 463.00
59.8021 545.00
60.1064 455.00
60.4106 466.00
60.7149 513.00
61.0192 450.00
61.3234 390.00
61.6277 425.00
61.932 455.00
62.2362 436.00
62.5405 412.00
62.8447 421.00
63.149 436.00
63.4533 386.00
63.7575 346.00
64.0618 432.00
64.366 472.00
64.6703 422.00
64.9745 425.00
65.2788 387.00
65.5831 396.00
65.8873 417.00
66.1916 438.00
66.4959 352.00
66.8001 374.00
67.1044 394.00
67.4086 393.00
67.7129 314.00
68.0172 360.00
68.3214 386.00
68.6257 384.00
68.9299 424.00
69.2342 346.00
69.5385 345.00
69.8427 401.00
70.147 316.00
70.4512 338.00
70.7555 407.00
71.0598 343.00
71.364 339.00
71.6683 317.00
71.9725 317.00
72.2768 323.00
72.5811 367.00
72.8853 349.00
73.1896 344.00
73.4938 320.00
73.7981 278.00
74.1024 365.00
74.4066 372.00
74.7109 332.00
75.0151 342.00
75.3194 346.00
75.6237 357.00
75.9279 306.00
76.2322 354.00
76.5364 344.00
76.8407 353.00
77.145 366.00
77.4492 362.00
77.7535 372.00
78.0577 370.00
78.362 406.00
78.6663 388.00
78.9705 330.00
79.2748 320.00
79.579 345.00
79.8833 380.00
80.1876 342.00
80.4918 345.00
80.7961 394.00
81.1003 363.00
81.4046 340.00
81.7089 319.00
82.0131 363.00
82.3174 419.00
82.6217 351.00
82.9259 344.00
83.2302 313.00
83.5344 397.00
83.8387 340.00
84.143 308.00
84.4472 307.00
84.7515 369.00
85.0557 398.00
85.36 349.00
85.6643 308.00
85.9685 319.00
86.2728 333.00
86.577 347.00
86.8813 268.00
87.1856 313.00
87.4898 314.00
87.7941 310.00
88.0983 283.00
88.4026 327.00
88.7069 300.00
89.0111 261.00
89.3154 336.00
89.6196 278.00
89.9239 293.00
90.2282 308.00
90.5324 310.00
90.8367 294.00
91.1409 327.00
91.4452 274.00
91.7495 286.00
92.0537 291.00
92.358 295.00
92.6622 300.00
92.9665 291.00
93.2708 277.00
93.575 311.00
93.8793 303.00
94.1835 317.00
94.4878 288.00
94.7921 300.00
95.0963 313.00
95.4006 301.00
95.7048 256.00
96.0091 291.00
96.3134 267.00
96.6176 278.00
96.9219 285.00
97.2261 296.00
97.5304 239.00
97.8347 287.00
98.1389 267.00
98.4432 301.00
98.7474 328.00
99.0517 291.00
99.356 284.00
99.6602 268.00
99.9645 285.00
100.095 238.00