File: data/xrd_creation/results/Na_283.xy
9.903433 3021.00
10.2077 2906.00
10.512 2717.00
10.8162 2760.00
11.1205 2780.00
11.4247 2620.00
11.729 2589.00
12.0333 2449.00
12.3375 2367.00
12.6418 2453.00
12.946 2550.00
13.2503 2535.00
13.5546 2945.00
13.8588 2408.00
14.1631 2304.00
14.4673 2274.00
14.7716 2269.00
15.0759 2254.00
15.3801 2257.00
15.6844 2200.00
15.9886 2185.00
16.2929 2279.00
16.5972 2129.00
16.9014 2252.00
17.2057 1996.00
17.5099 2140.00
17.8142 2043.00
18.1185 2212.00
18.4227 2028.00
18.727 1947.00
19.0312 2097.00
19.3355 2311.00
19.6398 2935.00
19.944 2293.00
20.2483 3502.00
20.5525 3221.00
20.8568 2256.00
21.1611 2089.00
21.4653 2013.00
21.7696 1946.00
22.0738 1942.00
22.3781 1992.00
22.6824 2295.00
22.9866 5439.00
23.2909 6806.00
23.5951 3903.00
23.8994 2504.00
24.2037 2089.00
24.5079 1860.00
24.8122 1855.00
25.1164 1893.00
25.4207 1788.00
25.725 1873.00
26.0292 1925.00
26.3335 2011.00
26.6378 3017.00
26.942 1951.00
27.2463 2156.00
27.5505 1894.00
27.8548 1879.00
28.1591 1653.00
28.4633 1651.00
28.7676 1734.00
29.0718 1791.00
29.3761 1675.00
29.6804 1779.00
29.9846 1655.00
30.2889 1693.00
30.5931 1766.00
30.8974 1651.00
31.2017 1668.00
31.5059 1729.00
31.8102 1804.00
32.1144 1968.00
32.4187 4763.00
32.723 7866.00
33.0272 7999.00
33.3315 3004.00
33.6357 2289.00
33.94 2305.00
34.2443 3989.00
34.5485 2085.00
34.8528 1825.00
35.157 1573.00
35.4613 1572.00
35.7656 1562.00
36.0698 1621.00
36.3741 1479.00
36.6783 1466.00
36.9826 1728.00
37.2869 1446.00
37.5911 1610.00
37.8954 1413.00
38.1996 1452.00
38.5039 1509.00
38.8082 2358.00
39.1124 1632.00
39.4167 1442.00
39.7209 1497.00
40.0252 1329.00
40.3295 1555.00
40.6337 1590.00
40.938 1411.00
41.2422 1302.00
41.5465 1328.00
41.8508 1438.00
42.155 1453.00
42.4593 1481.00
42.7635 1341.00
43.0678 1480.00
43.3721 1341.00
43.6763 1424.00
43.9806 1690.00
44.2849 1507.00
44.5891 1458.00
44.8934 1413.00
45.1976 1476.00
45.5019 1546.00
45.8062 1412.00
46.1104 1321.00
46.4147 1398.00
46.7189 1973.00
47.0232 3793.00
47.3275 2209.00
47.6317 2886.00
47.936 2525.00
48.2402 1513.00
48.5445 1340.00
48.8488 1371.00
49.153 1302.00
49.4573 1276.00
49.7615 1337.00
50.0658 1250.00
50.3701 1428.00
50.6743 1320.00
50.9786 1250.00
51.2828 1343.00
51.5871 1427.00
51.8914 1433.00
52.1956 1530.00
52.4999 1915.00
52.8041 2965.00
53.1084 2887.00
53.4127 1720.00
53.7169 1541.00
54.0212 1513.00
54.3254 1254.00
54.6297 1420.00
54.934 1334.00
55.2382 1250.00
55.5425 1272.00
55.8467 1289.00
56.151 1367.00
56.4553 1323.00
56.7595 1453.00
57.0638 1422.00
57.368 1317.00
57.6723 1411.00
57.9766 1787.00
58.2808 2831.00
58.5851 2839.00
58.8893 1619.00
59.1936 1699.00
59.4979 1771.00
59.8021 2062.00
60.1064 1959.00
60.4106 1423.00
60.7149 1339.00
61.0192 1394.00
61.3234 1298.00
61.6277 1285.00
61.932 1135.00
62.2362 1130.00
62.5405 1153.00
62.8447 1292.00
63.149 1488.00
63.4533 1178.00
63.7575 1251.00
64.0618 1450.00
64.366 1604.00
64.6703 1250.00
64.9745 1199.00
65.2788 1290.00
65.5831 1481.00
65.8873 1188.00
66.1916 1101.00
66.4959 1174.00
66.8001 1218.00
67.1044 1227.00
67.4086 1230.00
67.7129 1423.00
68.0172 1358.00
68.3214 1673.00
68.6257 1823.00
68.9299 1329.00
69.2342 1139.00
69.5385 1188.00
69.8427 1284.00
70.147 1230.00
70.4512 1166.00
70.7555 1197.00
71.0598 1266.00
71.364 1224.00
71.6683 1244.00
71.9725 1333.00
72.2768 1177.00
72.5811 1145.00
72.8853 1292.00
73.1896 1585.00
73.4938 1615.00
73.7981 1164.00
74.1024 1109.00
74.4066 1087.00
74.7109 1119.00
75.0151 1110.00
75.3194 1150.00
75.6237 1137.00
75.9279 1101.00
76.2322 1149.00
76.5364 1170.00
76.8407 1149.00
77.145 1175.00
77.4492 1180.00
77.7535 1417.00
78.0577 1501.00
78.362 1280.00
78.6663 1111.00
78.9705 1027.00
79.2748 1129.00
79.579 1106.00
79.8833 1105.00
80.1876 1069.00
80.4918 1140.00
80.7961 1156.00
81.1003 1178.00
81.4046 1192.00
81.7089 1097.00
82.0131 1097.00
82.3174 1192.00
82.6217 1329.00
82.9259 1147.00
83.2302 1086.00
83.5344 1100.00
83.8387 1110.00
84.143 1100.00
84.4472 1104.00
84.7515 1222.00
85.0557 1203.00
85.36 1111.00
85.6643 1046.00
85.9685 1085.00
86.2728 1061.00
86.577 1141.00
86.8813 1280.00
87.1856 1264.00
87.4898 1184.00
87.7941 1120.00
88.0983 1001.00
88.4026 1089.00
88.7069 1121.00
89.0111 1060.00
89.3154 1106.00
89.6196 1001.00
89.9239 1055.00
90.2282 1061.00
90.5324 1081.00
90.8367 1084.00
91.1409 1185.00
91.4452 1171.00
91.7495 1185.00
92.0537 1178.00
92.358 1122.00
92.6622 1040.00
92.9665 1080.00
93.2708 1020.00
93.575 1055.00
93.8793 1085.00
94.1835 1131.00
94.4878 1124.00
94.7921 1091.00
95.0963 1108.00
95.4006 1178.00
95.7048 1389.00
96.0091 1535.00
96.3134 1452.00
96.6176 1238.00
96.9219 1171.00
97.2261 1058.00
97.5304 1067.00
97.8347 1047.00
98.1389 1060.00
98.4432 1082.00
98.7474 1078.00
99.0517 1017.00
99.356 1017.00
99.6602 1101.00
99.9645 1050.00
100.095 978.00