File: data/xrd_creation/results/Na_271.xy
9.903433 3164.00
10.2077 2878.00
10.512 2865.00
10.8162 2652.00
11.1205 2596.00
11.4247 2535.00
11.729 2490.00
12.0333 2441.00
12.3375 2508.00
12.6418 2291.00
12.946 2227.00
13.2503 2199.00
13.5546 2114.00
13.8588 2022.00
14.1631 2065.00
14.4673 2051.00
14.7716 1908.00
15.0759 1979.00
15.3801 2028.00
15.6844 1963.00
15.9886 1924.00
16.2929 1897.00
16.5972 1815.00
16.9014 1861.00
17.2057 1780.00
17.5099 1788.00
17.8142 1802.00
18.1185 1791.00
18.4227 1652.00
18.727 1625.00
19.0312 1741.00
19.3355 1604.00
19.6398 1658.00
19.944 1670.00
20.2483 2021.00
20.5525 2330.00
20.8568 10852.00
21.1611 5745.00
21.4653 2013.00
21.7696 1598.00
22.0738 1581.00
22.3781 1493.00
22.6824 1549.00
22.9866 1498.00
23.2909 1516.00
23.5951 1406.00
23.8994 1744.00
24.2037 3264.00
24.5079 1538.00
24.8122 1484.00
25.1164 1417.00
25.4207 1350.00
25.725 1284.00
26.0292 1253.00
26.3335 1329.00
26.6378 1341.00
26.942 1321.00
27.2463 1233.00
27.5505 1266.00
27.8548 1268.00
28.1591 1249.00
28.4633 1282.00
28.7676 1247.00
29.0718 1252.00
29.3761 1275.00
29.6804 1289.00
29.9846 1326.00
30.2889 1319.00
30.5931 1265.00
30.8974 1301.00
31.2017 1294.00
31.5059 1265.00
31.8102 1311.00
32.1144 1285.00
32.4187 1306.00
32.723 1267.00
33.0272 1312.00
33.3315 1500.00
33.6357 1703.00
33.94 2525.00
34.2443 9468.00
34.5485 17706.00
34.8528 2159.00
35.157 1563.00
35.4613 1863.00
35.7656 1292.00
36.0698 1326.00
36.3741 1336.00
36.6783 1330.00
36.9826 1386.00
37.2869 1441.00
37.5911 1450.00
37.8954 1457.00
38.1996 1438.00
38.5039 1380.00
38.8082 1323.00
39.1124 1437.00
39.4167 1380.00
39.7209 1369.00
40.0252 1292.00
40.3295 1407.00
40.6337 1472.00
40.938 1328.00
41.2422 1269.00
41.5465 1307.00
41.8508 1210.00
42.155 1263.00
42.4593 1840.00
42.7635 1246.00
43.0678 1154.00
43.3721 1115.00
43.6763 1000.00
43.9806 1047.00
44.2849 1027.00
44.5891 990.00
44.8934 1012.00
45.1976 1141.00
45.5019 1070.00
45.8062 1118.00
46.1104 1187.00
46.4147 1117.00
46.7189 1038.00
47.0232 982.00
47.3275 920.00
47.6317 953.00
47.936 881.00
48.2402 944.00
48.5445 1094.00
48.8488 1118.00
49.153 2152.00
49.4573 3560.00
49.7615 1137.00
50.0658 957.00
50.3701 932.00
50.6743 965.00
50.9786 864.00
51.2828 844.00
51.5871 883.00
51.8914 833.00
52.1956 834.00
52.4999 829.00
52.8041 802.00
53.1084 807.00
53.4127 796.00
53.7169 845.00
54.0212 898.00
54.3254 876.00
54.6297 786.00
54.934 847.00
55.2382 819.00
55.5425 810.00
55.8467 766.00
56.151 745.00
56.4553 710.00
56.7595 770.00
57.0638 709.00
57.368 727.00
57.6723 682.00
57.9766 688.00
58.2808 712.00
58.5851 743.00
58.8893 680.00
59.1936 740.00
59.4979 776.00
59.8021 777.00
60.1064 776.00
60.4106 861.00
60.7149 835.00
61.0192 1139.00
61.3234 3379.00
61.6277 2769.00
61.932 939.00
62.2362 769.00
62.5405 727.00
62.8447 690.00
63.149 663.00
63.4533 646.00
63.7575 661.00
64.0618 676.00
64.366 637.00
64.6703 646.00
64.9745 732.00
65.2788 820.00
65.5831 1152.00
65.8873 710.00
66.1916 702.00
66.4959 755.00
66.8001 842.00
67.1044 881.00
67.4086 794.00
67.7129 779.00
68.0172 667.00
68.3214 643.00
68.6257 593.00
68.9299 581.00
69.2342 540.00
69.5385 561.00
69.8427 538.00
70.147 552.00
70.4512 571.00
70.7555 549.00
71.0598 552.00
71.364 544.00
71.6683 572.00
71.9725 833.00
72.2768 1256.00
72.5811 686.00
72.8853 515.00
73.1896 511.00
73.4938 517.00
73.7981 554.00
74.1024 500.00
74.4066 510.00
74.7109 527.00
75.0151 484.00
75.3194 482.00
75.6237 516.00
75.9279 692.00
76.2322 622.00
76.5364 502.00
76.8407 458.00
77.145 539.00
77.4492 486.00
77.7535 486.00
78.0577 502.00
78.362 490.00
78.6663 463.00
78.9705 466.00
79.2748 505.00
79.579 463.00
79.8833 501.00
80.1876 486.00
80.4918 465.00
80.7961 533.00
81.1003 480.00
81.4046 484.00
81.7089 481.00
82.0131 585.00
82.3174 1183.00
82.6217 903.00
82.9259 570.00
83.2302 500.00
83.5344 515.00
83.8387 507.00
84.143 447.00
84.4472 460.00
84.7515 481.00
85.0557 480.00
85.36 459.00
85.6643 467.00
85.9685 496.00
86.2728 479.00
86.577 464.00
86.8813 435.00
87.1856 450.00
87.4898 461.00
87.7941 460.00
88.0983 446.00
88.4026 457.00
88.7069 449.00
89.0111 455.00
89.3154 451.00
89.6196 434.00
89.9239 422.00
90.2282 459.00
90.5324 454.00
90.8367 430.00
91.1409 424.00
91.4452 459.00
91.7495 423.00
92.0537 513.00
92.358 531.00
92.6622 476.00
92.9665 436.00
93.2708 414.00
93.575 404.00
93.8793 425.00
94.1835 450.00
94.4878 411.00
94.7921 432.00
95.0963 444.00
95.4006 453.00
95.7048 417.00
96.0091 553.00
96.3134 508.00
96.6176 422.00
96.9219 438.00
97.2261 462.00
97.5304 474.00
97.8347 422.00
98.1389 426.00
98.4432 427.00
98.7474 432.00
99.0517 429.00
99.356 405.00
99.6602 408.00
99.9645 441.00
100.095 430.00