File: data/xrd_creation/results/Na_298.xy
9.903433 3444.00
10.2077 3113.00
10.512 3037.00
10.8162 3068.00
11.1205 2910.00
11.4247 2939.00
11.729 2884.00
12.0333 2838.00
12.3375 2758.00
12.6418 2644.00
12.946 2690.00
13.2503 2601.00
13.5546 2678.00
13.8588 2725.00
14.1631 2823.00
14.4673 3067.00
14.7716 2840.00
15.0759 2625.00
15.3801 2677.00
15.6844 2550.00
15.9886 2547.00
16.2929 2654.00
16.5972 2508.00
16.9014 2685.00
17.2057 2649.00
17.5099 2519.00
17.8142 2480.00
18.1185 2585.00
18.4227 2422.00
18.727 2504.00
19.0312 2403.00
19.3355 2412.00
19.6398 2723.00
19.944 2476.00
20.2483 2525.00
20.5525 2721.00
20.8568 6423.00
21.1611 3590.00
21.4653 2431.00
21.7696 2240.00
22.0738 2165.00
22.3781 2197.00
22.6824 2103.00
22.9866 2192.00
23.2909 2302.00
23.5951 2690.00
23.8994 2389.00
24.2037 3762.00
24.5079 2404.00
24.8122 2071.00
25.1164 2006.00
25.4207 2174.00
25.725 2307.00
26.0292 2068.00
26.3335 2069.00
26.6378 2347.00
26.942 2081.00
27.2463 2153.00
27.5505 2046.00
27.8548 2015.00
28.1591 2005.00
28.4633 2249.00
28.7676 2304.00
29.0718 2788.00
29.3761 18415.00
29.6804 3685.00
29.9846 2215.00
30.2889 2080.00
30.5931 2092.00
30.8974 2226.00
31.2017 2295.00
31.5059 2108.00
31.8102 2277.00
32.1144 2426.00
32.4187 2863.00
32.723 2579.00
33.0272 2360.00
33.3315 2441.00
33.6357 2535.00
33.94 4207.00
34.2443 5682.00
34.5485 12766.00
34.8528 2307.00
35.157 2115.00
35.4613 2191.00
35.7656 1971.00
36.0698 2458.00
36.3741 2187.00
36.6783 2043.00
36.9826 2021.00
37.2869 1908.00
37.5911 1846.00
37.8954 1851.00
38.1996 2147.00
38.5039 1916.00
38.8082 1810.00
39.1124 1816.00
39.4167 1938.00
39.7209 2057.00
40.0252 2452.00
40.3295 2144.00
40.6337 1977.00
40.938 1977.00
41.2422 1784.00
41.5465 1801.00
41.8508 1986.00
42.155 1903.00
42.4593 2387.00
42.7635 1871.00
43.0678 1884.00
43.3721 1784.00
43.6763 2810.00
43.9806 2024.00
44.2849 1761.00
44.5891 1699.00
44.8934 1756.00
45.1976 1819.00
45.5019 1799.00
45.8062 1587.00
46.1104 1713.00
46.4147 1745.00
46.7189 1720.00
47.0232 1993.00
47.3275 2260.00
47.6317 1942.00
47.936 1852.00
48.2402 2006.00
48.5445 2493.00
48.8488 11243.00
49.153 2240.00
49.4573 3748.00
49.7615 1847.00
50.0658 1793.00
50.3701 2147.00
50.6743 1786.00
50.9786 1532.00
51.2828 1495.00
51.5871 1479.00
51.8914 1586.00
52.1956 1502.00
52.4999 1523.00
52.8041 1607.00
53.1084 1704.00
53.4127 2460.00
53.7169 1759.00
54.0212 1596.00
54.3254 1587.00
54.6297 1670.00
54.934 1847.00
55.2382 1610.00
55.5425 1502.00
55.8467 1560.00
56.151 1614.00
56.4553 2577.00
56.7595 1668.00
57.0638 1514.00
57.368 1605.00
57.6723 2265.00
57.9766 5144.00
58.2808 1682.00
58.5851 1546.00
58.8893 1471.00
59.1936 2078.00
59.4979 2031.00
59.8021 1505.00
60.1064 1397.00
60.4106 1611.00
60.7149 2724.00
61.0192 1634.00
61.3234 2134.00
61.6277 2557.00
61.932 1526.00
62.2362 1642.00
62.5405 1388.00
62.8447 1371.00
63.149 1332.00
63.4533 1601.00
63.7575 1428.00
64.0618 1363.00
64.366 1505.00
64.6703 1609.00
64.9745 1697.00
65.2788 1374.00
65.5831 1465.00
65.8873 1397.00
66.1916 1425.00
66.4959 1328.00
66.8001 1283.00
67.1044 1377.00
67.4086 1276.00
67.7129 1347.00
68.0172 1308.00
68.3214 1393.00
68.6257 1328.00
68.9299 1201.00
69.2342 1256.00
69.5385 1236.00
69.8427 1328.00
70.147 1527.00
70.4512 1298.00
70.7555 1219.00
71.0598 1299.00
71.364 1877.00
71.6683 1333.00
71.9725 1433.00
72.2768 1764.00
72.5811 2014.00
72.8853 1408.00
73.1896 1289.00
73.4938 1310.00
73.7981 1536.00
74.1024 1443.00
74.4066 1196.00
74.7109 1190.00
75.0151 1392.00
75.3194 1482.00
75.6237 1172.00
75.9279 1205.00
76.2322 1326.00
76.5364 1322.00
76.8407 1135.00
77.145 1272.00
77.4492 1421.00
77.7535 1490.00
78.0577 1199.00
78.362 1256.00
78.6663 1509.00
78.9705 1806.00
79.2748 1312.00
79.579 1163.00
79.8833 1326.00
80.1876 1251.00
80.4918 1156.00
80.7961 1141.00
81.1003 1343.00
81.4046 1495.00
81.7089 1297.00
82.0131 1197.00
82.3174 1420.00
82.6217 1459.00
82.9259 1207.00
83.2302 1183.00
83.5344 1338.00
83.8387 1232.00
84.143 1198.00
84.4472 1191.00
84.7515 1215.00
85.0557 1359.00
85.36 1236.00
85.6643 1202.00
85.9685 1237.00
86.2728 1153.00
86.577 1176.00
86.8813 1167.00
87.1856 1359.00
87.4898 1349.00
87.7941 1119.00
88.0983 1204.00
88.4026 1084.00
88.7069 1136.00
89.0111 1126.00
89.3154 1180.00
89.6196 1307.00
89.9239 1259.00
90.2282 1181.00
90.5324 1228.00
90.8367 1492.00
91.1409 1455.00
91.4452 1222.00
91.7495 1098.00
92.0537 1320.00
92.358 1289.00
92.6622 1176.00
92.9665 1189.00
93.2708 1255.00
93.575 1172.00
93.8793 1177.00
94.1835 1133.00
94.4878 1168.00
94.7921 1181.00
95.0963 1132.00
95.4006 1221.00
95.7048 1551.00
96.0091 1371.00
96.3134 1158.00
96.6176 1088.00
96.9219 1180.00
97.2261 1137.00
97.5304 1104.00
97.8347 1161.00
98.1389 1581.00
98.4432 1312.00
98.7474 1223.00
99.0517 1097.00
99.356 1376.00
99.6602 1248.00
99.9645 1143.00
100.095 1059.00