File: data/xrd_creation/results/Na_278.xy
9.903433 2801.00
10.2077 2887.00
10.512 3265.00
10.8162 2750.00
11.1205 2795.00
11.4247 2673.00
11.729 2935.00
12.0333 5065.00
12.3375 2689.00
12.6418 2304.00
12.946 2232.00
13.2503 2535.00
13.5546 2174.00
13.8588 2381.00
14.1631 2302.00
14.4673 1945.00
14.7716 1925.00
15.0759 1951.00
15.3801 1830.00
15.6844 1903.00
15.9886 1844.00
16.2929 1856.00
16.5972 1885.00
16.9014 1835.00
17.2057 1816.00
17.5099 1811.00
17.8142 2287.00
18.1185 1746.00
18.4227 1703.00
18.727 1675.00
19.0312 1786.00
19.3355 2026.00
19.6398 4890.00
19.944 3149.00
20.2483 1713.00
20.5525 1744.00
20.8568 2044.00
21.1611 1647.00
21.4653 1565.00
21.7696 1659.00
22.0738 1615.00
22.3781 1650.00
22.6824 1849.00
22.9866 4484.00
23.2909 2615.00
23.5951 1755.00
23.8994 1908.00
24.2037 4552.00
24.5079 3792.00
24.8122 2565.00
25.1164 1695.00
25.4207 1599.00
25.725 1489.00
26.0292 1567.00
26.3335 1876.00
26.6378 1565.00
26.942 1575.00
27.2463 1606.00
27.5505 1673.00
27.8548 2677.00
28.1591 2097.00
28.4633 5430.00
28.7676 8467.00
29.0718 2109.00
29.3761 1629.00
29.6804 1669.00
29.9846 1760.00
30.2889 3713.00
30.5931 2236.00
30.8974 2211.00
31.2017 5903.00
31.5059 3520.00
31.8102 5922.00
32.1144 5646.00
32.4187 1814.00
32.723 1522.00
33.0272 1449.00
33.3315 1448.00
33.6357 1537.00
33.94 2471.00
34.2443 9569.00
34.5485 5275.00
34.8528 4201.00
35.157 1913.00
35.4613 1554.00
35.7656 4112.00
36.0698 1890.00
36.3741 3130.00
36.6783 1518.00
36.9826 1262.00
37.2869 1216.00
37.5911 1232.00
37.8954 1171.00
38.1996 1169.00
38.5039 1245.00
38.8082 1285.00
39.1124 2482.00
39.4167 1371.00
39.7209 1419.00
40.0252 1363.00
40.3295 1373.00
40.6337 1343.00
40.938 1385.00
41.2422 2854.00
41.5465 2564.00
41.8508 2040.00
42.155 1904.00
42.4593 1395.00
42.7635 1207.00
43.0678 1125.00
43.3721 1226.00
43.6763 1342.00
43.9806 1202.00
44.2849 1259.00
44.5891 1468.00
44.8934 1265.00
45.1976 1359.00
45.5019 1572.00
45.8062 1502.00
46.1104 2397.00
46.4147 1793.00
46.7189 2263.00
47.0232 2474.00
47.3275 1369.00
47.6317 1167.00
47.936 1233.00
48.2402 1222.00
48.5445 1172.00
48.8488 1336.00
49.153 2333.00
49.4573 1842.00
49.7615 2900.00
50.0658 1942.00
50.3701 1704.00
50.6743 4288.00
50.9786 2838.00
51.2828 2737.00
51.5871 1560.00
51.8914 1737.00
52.1956 1283.00
52.4999 1158.00
52.8041 1211.00
53.1084 2245.00
53.4127 1540.00
53.7169 1288.00
54.0212 1208.00
54.3254 1362.00
54.6297 2568.00
54.934 2275.00
55.2382 1403.00
55.5425 1432.00
55.8467 2145.00
56.151 2726.00
56.4553 1997.00
56.7595 1814.00
57.0638 1158.00
57.368 1196.00
57.6723 1595.00
57.9766 1777.00
58.2808 1310.00
58.5851 2075.00
58.8893 2117.00
59.1936 2359.00
59.4979 1428.00
59.8021 1286.00
60.1064 1225.00
60.4106 2139.00
60.7149 2492.00
61.0192 2258.00
61.3234 1913.00
61.6277 1353.00
61.932 1823.00
62.2362 1940.00
62.5405 2224.00
62.8447 1670.00
63.149 1372.00
63.4533 1851.00
63.7575 1650.00
64.0618 1144.00
64.366 1164.00
64.6703 1268.00
64.9745 1501.00
65.2788 1267.00
65.5831 1145.00
65.8873 1571.00
66.1916 1864.00
66.4959 2314.00
66.8001 1439.00
67.1044 1038.00
67.4086 1022.00
67.7129 1060.00
68.0172 1084.00
68.3214 1096.00
68.6257 974.00
68.9299 937.00
69.2342 1081.00
69.5385 1291.00
69.8427 1326.00
70.147 986.00
70.4512 1023.00
70.7555 1001.00
71.0598 983.00
71.364 1088.00
71.6683 1526.00
71.9725 1830.00
72.2768 1222.00
72.5811 1150.00
72.8853 1323.00
73.1896 1298.00
73.4938 1167.00
73.7981 1035.00
74.1024 922.00
74.4066 962.00
74.7109 939.00
75.0151 1106.00
75.3194 1170.00
75.6237 1218.00
75.9279 1499.00
76.2322 1142.00
76.5364 987.00
76.8407 1087.00
77.145 1194.00
77.4492 1163.00
77.7535 993.00
78.0577 1101.00
78.362 1089.00
78.6663 1055.00
78.9705 1066.00
79.2748 1053.00
79.579 1249.00
79.8833 1411.00
80.1876 1192.00
80.4918 1034.00
80.7961 1002.00
81.1003 989.00
81.4046 1080.00
81.7089 1105.00
82.0131 1203.00
82.3174 1340.00
82.6217 1171.00
82.9259 1128.00
83.2302 1100.00
83.5344 1182.00
83.8387 1262.00
84.143 1258.00
84.4472 1152.00
84.7515 1245.00
85.0557 1241.00
85.36 1131.00
85.6643 1202.00
85.9685 1275.00
86.2728 1093.00
86.577 1138.00
86.8813 1134.00
87.1856 1088.00
87.4898 994.00
87.7941 1008.00
88.0983 1040.00
88.4026 1122.00
88.7069 1203.00
89.0111 1268.00
89.3154 1396.00
89.6196 1332.00
89.9239 1185.00
90.2282 1169.00
90.5324 1217.00
90.8367 1241.00
91.1409 1161.00
91.4452 1058.00
91.7495 1073.00
92.0537 1040.00
92.358 1029.00
92.6622 1016.00
92.9665 1043.00
93.2708 1005.00
93.575 951.00
93.8793 966.00
94.1835 955.00
94.4878 1077.00
94.7921 1092.00
95.0963 1099.00
95.4006 993.00
95.7048 1109.00
96.0091 1164.00
96.3134 1110.00
96.6176 1025.00
96.9219 1133.00
97.2261 1207.00
97.5304 1320.00
97.8347 1343.00
98.1389 1159.00
98.4432 1157.00
98.7474 1112.00
99.0517 1218.00
99.356 1286.00
99.6602 1305.00
99.9645 1279.00
100.095 1316.00