File: data/xrd_creation/results/Na_288.xy
9.903433 2718.00
10.2077 2574.00
10.512 2449.00
10.8162 2350.00
11.1205 2296.00
11.4247 2228.00
11.729 2090.00
12.0333 2003.00
12.3375 2087.00
12.6418 2011.00
12.946 1856.00
13.2503 1947.00
13.5546 1788.00
13.8588 1726.00
14.1631 1749.00
14.4673 1731.00
14.7716 1739.00
15.0759 1622.00
15.3801 1607.00
15.6844 1621.00
15.9886 1478.00
16.2929 1513.00
16.5972 1482.00
16.9014 1468.00
17.2057 1545.00
17.5099 1436.00
17.8142 1405.00
18.1185 1425.00
18.4227 1321.00
18.727 1418.00
19.0312 1485.00
19.3355 1350.00
19.6398 1329.00
19.944 2545.00
20.2483 2766.00
20.5525 1759.00
20.8568 1672.00
21.1611 1271.00
21.4653 1221.00
21.7696 1214.00
22.0738 1179.00
22.3781 1194.00
22.6824 1187.00
22.9866 1190.00
23.2909 1138.00
23.5951 1068.00
23.8994 1067.00
24.2037 1165.00
24.5079 1997.00
24.8122 1480.00
25.1164 1054.00
25.4207 987.00
25.725 986.00
26.0292 972.00
26.3335 1717.00
26.6378 1446.00
26.942 946.00
27.2463 923.00
27.5505 955.00
27.8548 906.00
28.1591 942.00
28.4633 910.00
28.7676 896.00
29.0718 917.00
29.3761 844.00
29.6804 839.00
29.9846 782.00
30.2889 827.00
30.5931 818.00
30.8974 849.00
31.2017 882.00
31.5059 831.00
31.8102 773.00
32.1144 875.00
32.4187 905.00
32.723 2636.00
33.0272 2593.00
33.3315 2407.00
33.6357 2365.00
33.94 1916.00
34.2443 1975.00
34.5485 1068.00
34.8528 845.00
35.157 842.00
35.4613 834.00
35.7656 895.00
36.0698 1412.00
36.3741 1721.00
36.6783 1008.00
36.9826 886.00
37.2869 912.00
37.5911 689.00
37.8954 707.00
38.1996 714.00
38.5039 1334.00
38.8082 1125.00
39.1124 779.00
39.4167 792.00
39.7209 816.00
40.0252 794.00
40.3295 772.00
40.6337 644.00
40.938 664.00
41.2422 685.00
41.5465 1088.00
41.8508 838.00
42.155 703.00
42.4593 665.00
42.7635 721.00
43.0678 642.00
43.3721 628.00
43.6763 988.00
43.9806 769.00
44.2849 746.00
44.5891 794.00
44.8934 874.00
45.1976 692.00
45.5019 552.00
45.8062 609.00
46.1104 567.00
46.4147 631.00
46.7189 597.00
47.0232 656.00
47.3275 1192.00
47.6317 938.00
47.936 661.00
48.2402 628.00
48.5445 648.00
48.8488 692.00
49.153 714.00
49.4573 664.00
49.7615 595.00
50.0658 737.00
50.3701 1138.00
50.6743 712.00
50.9786 605.00
51.2828 610.00
51.5871 692.00
51.8914 730.00
52.1956 711.00
52.4999 637.00
52.8041 543.00
53.1084 599.00
53.4127 542.00
53.7169 659.00
54.0212 644.00
54.3254 685.00
54.6297 882.00
54.934 1972.00
55.2382 1052.00
55.5425 672.00
55.8467 666.00
56.151 672.00
56.4553 620.00
56.7595 651.00
57.0638 598.00
57.368 616.00
57.6723 574.00
57.9766 578.00
58.2808 656.00
58.5851 703.00
58.8893 847.00
59.1936 1096.00
59.4979 823.00
59.8021 729.00
60.1064 589.00
60.4106 545.00
60.7149 510.00
61.0192 645.00
61.3234 777.00
61.6277 598.00
61.932 564.00
62.2362 534.00
62.5405 581.00
62.8447 821.00
63.149 750.00
63.4533 942.00
63.7575 851.00
64.0618 537.00
64.366 519.00
64.6703 568.00
64.9745 809.00
65.2788 1562.00
65.5831 902.00
65.8873 558.00
66.1916 566.00
66.4959 511.00
66.8001 534.00
67.1044 513.00
67.4086 538.00
67.7129 492.00
68.0172 484.00
68.3214 472.00
68.6257 524.00
68.9299 465.00
69.2342 479.00
69.5385 563.00
69.8427 655.00
70.147 602.00
70.4512 547.00
70.7555 491.00
71.0598 507.00
71.364 524.00
71.6683 502.00
71.9725 578.00
72.2768 509.00
72.5811 525.00
72.8853 741.00
73.1896 762.00
73.4938 594.00
73.7981 529.00
74.1024 492.00
74.4066 509.00
74.7109 538.00
75.0151 495.00
75.3194 569.00
75.6237 506.00
75.9279 568.00
76.2322 477.00
76.5364 558.00
76.8407 604.00
77.145 548.00
77.4492 528.00
77.7535 451.00
78.0577 467.00
78.362 521.00
78.6663 461.00
78.9705 609.00
79.2748 741.00
79.579 561.00
79.8833 470.00
80.1876 498.00
80.4918 554.00
80.7961 516.00
81.1003 469.00
81.4046 476.00
81.7089 474.00
82.0131 578.00
82.3174 685.00
82.6217 660.00
82.9259 563.00
83.2302 543.00
83.5344 528.00
83.8387 506.00
84.143 531.00
84.4472 688.00
84.7515 783.00
85.0557 624.00
85.36 521.00
85.6643 529.00
85.9685 559.00
86.2728 592.00
86.577 641.00
86.8813 591.00
87.1856 515.00
87.4898 542.00
87.7941 464.00
88.0983 519.00
88.4026 541.00
88.7069 590.00
89.0111 542.00
89.3154 522.00
89.6196 502.00
89.9239 509.00
90.2282 706.00
90.5324 666.00
90.8367 535.00
91.1409 533.00
91.4452 485.00
91.7495 532.00
92.0537 627.00
92.358 551.00
92.6622 481.00
92.9665 471.00
93.2708 530.00
93.575 496.00
93.8793 458.00
94.1835 498.00
94.4878 469.00
94.7921 552.00
95.0963 578.00
95.4006 719.00
95.7048 660.00
96.0091 567.00
96.3134 513.00
96.6176 466.00
96.9219 507.00
97.2261 579.00
97.5304 559.00
97.8347 610.00
98.1389 612.00
98.4432 638.00
98.7474 581.00
99.0517 549.00
99.356 487.00
99.6602 496.00
99.9645 524.00
100.095 500.00