File: data/xrd_creation/results/Na_205.xy
9.903433 3041.00
10.2077 3178.00
10.512 3470.00
10.8162 2855.00
11.1205 2787.00
11.4247 2704.00
11.729 2751.00
12.0333 3451.00
12.3375 2529.00
12.6418 2386.00
12.946 2402.00
13.2503 2314.00
13.5546 2390.00
13.8588 2258.00
14.1631 2427.00
14.4673 2175.00
14.7716 2156.00
15.0759 2169.00
15.3801 2157.00
15.6844 2161.00
15.9886 2180.00
16.2929 2270.00
16.5972 2203.00
16.9014 2079.00
17.2057 2105.00
17.5099 2106.00
17.8142 2258.00
18.1185 2015.00
18.4227 1987.00
18.727 2035.00
19.0312 1862.00
19.3355 1888.00
19.6398 2480.00
19.944 3426.00
20.2483 1972.00
20.5525 2241.00
20.8568 3719.00
21.1611 2075.00
21.4653 1781.00
21.7696 1856.00
22.0738 1845.00
22.3781 1916.00
22.6824 1948.00
22.9866 2612.00
23.2909 3187.00
23.5951 2196.00
23.8994 2593.00
24.2037 4732.00
24.5079 2424.00
24.8122 2675.00
25.1164 1826.00
25.4207 1892.00
25.725 1799.00
26.0292 1858.00
26.3335 1953.00
26.6378 1740.00
26.942 1760.00
27.2463 1842.00
27.5505 1840.00
27.8548 2075.00
28.1591 2974.00
28.4633 9997.00
28.7676 2098.00
29.0718 1904.00
29.3761 1667.00
29.6804 1770.00
29.9846 1894.00
30.2889 2269.00
30.5931 2080.00
30.8974 1910.00
31.2017 2254.00
31.5059 5256.00
31.8102 7679.00
32.1144 1914.00
32.4187 1747.00
32.723 1587.00
33.0272 1668.00
33.3315 1656.00
33.6357 1817.00
33.94 3670.00
34.2443 8919.00
34.5485 4253.00
34.8528 1934.00
35.157 1587.00
35.4613 2225.00
35.7656 2014.00
36.0698 1688.00
36.3741 1628.00
36.6783 1568.00
36.9826 1492.00
37.2869 1521.00
37.5911 1482.00
37.8954 1422.00
38.1996 1430.00
38.5039 1400.00
38.8082 1881.00
39.1124 1454.00
39.4167 1495.00
39.7209 1553.00
40.0252 1450.00
40.3295 1508.00
40.6337 1582.00
40.938 2248.00
41.2422 1699.00
41.5465 2141.00
41.8508 1562.00
42.155 1590.00
42.4593 1433.00
42.7635 1303.00
43.0678 1435.00
43.3721 1488.00
43.6763 1488.00
43.9806 1366.00
44.2849 1306.00
44.5891 1365.00
44.8934 1513.00
45.1976 1780.00
45.5019 1499.00
45.8062 1963.00
46.1104 1476.00
46.4147 1586.00
46.7189 1546.00
47.0232 2509.00
47.3275 1862.00
47.6317 1399.00
47.936 1422.00
48.2402 1310.00
48.5445 1322.00
48.8488 1703.00
49.153 3150.00
49.4573 2807.00
49.7615 1644.00
50.0658 1603.00
50.3701 3466.00
50.6743 2014.00
50.9786 2020.00
51.2828 1516.00
51.5871 1670.00
51.8914 1406.00
52.1956 1361.00
52.4999 1290.00
52.8041 1349.00
53.1084 1627.00
53.4127 1426.00
53.7169 1365.00
54.0212 1404.00
54.3254 2318.00
54.6297 1492.00
54.934 1452.00
55.2382 1411.00
55.5425 2212.00
55.8467 2259.00
56.151 2050.00
56.4553 1376.00
56.7595 1129.00
57.0638 1243.00
57.368 1781.00
57.6723 1342.00
57.9766 1397.00
58.2808 1566.00
58.5851 1450.00
58.8893 1309.00
59.1936 1648.00
59.4979 1512.00
59.8021 1412.00
60.1064 2031.00
60.4106 1684.00
60.7149 1621.00
61.0192 2027.00
61.3234 1503.00
61.6277 1803.00
61.932 1602.00
62.2362 1921.00
62.5405 1307.00
62.8447 1323.00
63.149 1880.00
63.4533 1252.00
63.7575 1126.00
64.0618 1110.00
64.366 1284.00
64.6703 1316.00
64.9745 1238.00
65.2788 1291.00
65.5831 1305.00
65.8873 1633.00
66.1916 1410.00
66.4959 1207.00
66.8001 1127.00
67.1044 1071.00
67.4086 1075.00
67.7129 1054.00
68.0172 1080.00
68.3214 1099.00
68.6257 1043.00
68.9299 1034.00
69.2342 1116.00
69.5385 1050.00
69.8427 1092.00
70.147 1092.00
70.4512 1019.00
70.7555 1012.00
71.0598 1055.00
71.364 1491.00
71.6683 1402.00
71.9725 1168.00
72.2768 1134.00
72.5811 1093.00
72.8853 1071.00
73.1896 1054.00
73.4938 943.00
73.7981 937.00
74.1024 1003.00
74.4066 945.00
74.7109 994.00
75.0151 1166.00
75.3194 1258.00
75.6237 1083.00
75.9279 958.00
76.2322 979.00
76.5364 1032.00
76.8407 1056.00
77.145 1020.00
77.4492 1086.00
77.7535 1060.00
78.0577 966.00
78.362 965.00
78.6663 979.00
78.9705 1064.00
79.2748 1027.00
79.579 916.00
79.8833 958.00
80.1876 1004.00
80.4918 1000.00
80.7961 932.00
81.1003 925.00
81.4046 1005.00
81.7089 1129.00
82.0131 1094.00
82.3174 1008.00
82.6217 1071.00
82.9259 1079.00
83.2302 1123.00
83.5344 1137.00
83.8387 1049.00
84.143 1089.00
84.4472 1049.00
84.7515 1004.00
85.0557 1089.00
85.36 999.00
85.6643 910.00
85.9685 927.00
86.2728 985.00
86.577 1036.00
86.8813 1049.00
87.1856 916.00
87.4898 1020.00
87.7941 1039.00
88.0983 1028.00
88.4026 1170.00
88.7069 1198.00
89.0111 1048.00
89.3154 921.00
89.6196 995.00
89.9239 1083.00
90.2282 1131.00
90.5324 942.00
90.8367 985.00
91.1409 928.00
91.4452 983.00
91.7495 946.00
92.0537 923.00
92.358 937.00
92.6622 908.00
92.9665 901.00
93.2708 896.00
93.575 859.00
93.8793 948.00
94.1835 896.00
94.4878 894.00
94.7921 933.00
95.0963 1037.00
95.4006 1025.00
95.7048 979.00
96.0091 858.00
96.3134 1069.00
96.6176 1108.00
96.9219 1067.00
97.2261 1094.00
97.5304 894.00
97.8347 826.00
98.1389 959.00
98.4432 956.00
98.7474 929.00
99.0517 983.00
99.356 1005.00
99.6602 1080.00
99.9645 1048.00
100.095 936.00