File: data/xrd_creation/results/Na_29.xy
9.903433 2950.00
10.2077 2841.00
10.512 2778.00
10.8162 2656.00
11.1205 2562.00
11.4247 2465.00
11.729 2462.00
12.0333 2386.00
12.3375 2237.00
12.6418 2222.00
12.946 2135.00
13.2503 2168.00
13.5546 2134.00
13.8588 2136.00
14.1631 2106.00
14.4673 2035.00
14.7716 2043.00
15.0759 1997.00
15.3801 1839.00
15.6844 1957.00
15.9886 1990.00
16.2929 1979.00
16.5972 1926.00
16.9014 1878.00
17.2057 1826.00
17.5099 1862.00
17.8142 1848.00
18.1185 1911.00
18.4227 1819.00
18.727 1795.00
19.0312 1892.00
19.3355 1984.00
19.6398 1806.00
19.944 1849.00
20.2483 2534.00
20.5525 1894.00
20.8568 1812.00
21.1611 1741.00
21.4653 1705.00
21.7696 1677.00
22.0738 1691.00
22.3781 1643.00
22.6824 1639.00
22.9866 1754.00
23.2909 2995.00
23.5951 1713.00
23.8994 1709.00
24.2037 1953.00
24.5079 1734.00
24.8122 1613.00
25.1164 1568.00
25.4207 1447.00
25.725 1583.00
26.0292 1598.00
26.3335 1592.00
26.6378 1778.00
26.942 1551.00
27.2463 1480.00
27.5505 1537.00
27.8548 1632.00
28.1591 1589.00
28.4633 1657.00
28.7676 1723.00
29.0718 1751.00
29.3761 2294.00
29.6804 15152.00
29.9846 1992.00
30.2889 1625.00
30.5931 1736.00
30.8974 1603.00
31.2017 1622.00
31.5059 1756.00
31.8102 1784.00
32.1144 1725.00
32.4187 1926.00
32.723 2076.00
33.0272 2193.00
33.3315 2044.00
33.6357 1472.00
33.94 1381.00
34.2443 1318.00
34.5485 1262.00
34.8528 1301.00
35.157 1190.00
35.4613 1119.00
35.7656 1083.00
36.0698 1374.00
36.3741 1560.00
36.6783 1045.00
36.9826 1011.00
37.2869 1108.00
37.5911 1091.00
37.8954 884.00
38.1996 930.00
38.5039 951.00
38.8082 1095.00
39.1124 974.00
39.4167 1062.00
39.7209 2752.00
40.0252 978.00
40.3295 958.00
40.6337 873.00
40.938 907.00
41.2422 910.00
41.5465 875.00
41.8508 816.00
42.155 824.00
42.4593 826.00
42.7635 840.00
43.0678 867.00
43.3721 2524.00
43.6763 968.00
43.9806 890.00
44.2849 856.00
44.5891 775.00
44.8934 885.00
45.1976 843.00
45.5019 769.00
45.8062 770.00
46.1104 823.00
46.4147 848.00
46.7189 897.00
47.0232 888.00
47.3275 1586.00
47.6317 1933.00
47.936 1329.00
48.2402 845.00
48.5445 1115.00
48.8488 2093.00
49.153 840.00
49.4573 722.00
49.7615 704.00
50.0658 637.00
50.3701 663.00
50.6743 633.00
50.9786 690.00
51.2828 660.00
51.5871 706.00
51.8914 683.00
52.1956 680.00
52.4999 731.00
52.8041 673.00
53.1084 660.00
53.4127 653.00
53.7169 707.00
54.0212 661.00
54.3254 610.00
54.6297 658.00
54.934 637.00
55.2382 668.00
55.5425 652.00
55.8467 668.00
56.151 637.00
56.4553 635.00
56.7595 987.00
57.0638 712.00
57.368 746.00
57.6723 1424.00
57.9766 690.00
58.2808 720.00
58.5851 605.00
58.8893 608.00
59.1936 641.00
59.4979 715.00
59.8021 623.00
60.1064 624.00
60.4106 617.00
60.7149 715.00
61.0192 984.00
61.3234 821.00
61.6277 800.00
61.932 597.00
62.2362 589.00
62.5405 570.00
62.8447 583.00
63.149 649.00
63.4533 668.00
63.7575 570.00
64.0618 511.00
64.366 506.00
64.6703 642.00
64.9745 936.00
65.2788 615.00
65.5831 660.00
65.8873 810.00
66.1916 581.00
66.4959 511.00
66.8001 553.00
67.1044 556.00
67.4086 564.00
67.7129 566.00
68.0172 528.00
68.3214 466.00
68.6257 465.00
68.9299 467.00
69.2342 462.00
69.5385 507.00
69.8427 467.00
70.147 483.00
70.4512 623.00
70.7555 466.00
71.0598 420.00
71.364 418.00
71.6683 407.00
71.9725 401.00
72.2768 404.00
72.5811 409.00
72.8853 470.00
73.1896 547.00
73.4938 418.00
73.7981 461.00
74.1024 415.00
74.4066 407.00
74.7109 405.00
75.0151 405.00
75.3194 390.00
75.6237 400.00
75.9279 403.00
76.2322 487.00
76.5364 495.00
76.8407 393.00
77.145 415.00
77.4492 495.00
77.7535 449.00
78.0577 405.00
78.362 402.00
78.6663 370.00
78.9705 395.00
79.2748 400.00
79.579 366.00
79.8833 401.00
80.1876 369.00
80.4918 395.00
80.7961 367.00
81.1003 394.00
81.4046 422.00
81.7089 580.00
82.0131 456.00
82.3174 417.00
82.6217 397.00
82.9259 384.00
83.2302 356.00
83.5344 371.00
83.8387 559.00
84.143 582.00
84.4472 419.00
84.7515 428.00
85.0557 565.00
85.36 405.00
85.6643 349.00
85.9685 335.00
86.2728 373.00
86.577 395.00
86.8813 403.00
87.1856 342.00
87.4898 364.00
87.7941 368.00
88.0983 339.00
88.4026 348.00
88.7069 390.00
89.0111 353.00
89.3154 357.00
89.6196 361.00
89.9239 362.00
90.2282 292.00
90.5324 380.00
90.8367 357.00
91.1409 362.00
91.4452 352.00
91.7495 343.00
92.0537 345.00
92.358 425.00
92.6622 417.00
92.9665 366.00
93.2708 405.00
93.575 353.00
93.8793 375.00
94.1835 370.00
94.4878 348.00
94.7921 504.00
95.0963 636.00
95.4006 498.00
95.7048 419.00
96.0091 418.00
96.3134 494.00
96.6176 418.00
96.9219 333.00
97.2261 360.00
97.5304 334.00
97.8347 360.00
98.1389 397.00
98.4432 345.00
98.7474 356.00
99.0517 434.00
99.356 461.00
99.6602 452.00
99.9645 344.00
100.095 342.00