File: data/xrd_creation/results/Na_276.xy
9.903433 2719.00
10.2077 2609.00
10.512 2744.00
10.8162 2242.00
11.1205 2134.00
11.4247 2177.00
11.729 2068.00
12.0333 1940.00
12.3375 1825.00
12.6418 1864.00
12.946 1647.00
13.2503 1627.00
13.5546 1558.00
13.8588 1573.00
14.1631 1784.00
14.4673 1536.00
14.7716 1583.00
15.0759 1303.00
15.3801 1295.00
15.6844 1285.00
15.9886 1334.00
16.2929 1260.00
16.5972 1231.00
16.9014 1233.00
17.2057 1243.00
17.5099 1377.00
17.8142 1229.00
18.1185 1113.00
18.4227 1213.00
18.727 1131.00
19.0312 1039.00
19.3355 1633.00
19.6398 1475.00
19.944 1589.00
20.2483 1024.00
20.5525 1020.00
20.8568 978.00
21.1611 944.00
21.4653 881.00
21.7696 868.00
22.0738 1147.00
22.3781 1148.00
22.6824 1111.00
22.9866 1295.00
23.2909 817.00
23.5951 885.00
23.8994 1180.00
24.2037 1781.00
24.5079 1336.00
24.8122 839.00
25.1164 779.00
25.4207 777.00
25.725 1162.00
26.0292 766.00
26.3335 763.00
26.6378 749.00
26.942 809.00
27.2463 1488.00
27.5505 862.00
27.8548 837.00
28.1591 1033.00
28.4633 1358.00
28.7676 1110.00
29.0718 731.00
29.3761 757.00
29.6804 647.00
29.9846 661.00
30.2889 716.00
30.5931 984.00
30.8974 1201.00
31.2017 915.00
31.5059 876.00
31.8102 907.00
32.1144 1231.00
32.4187 1165.00
32.723 720.00
33.0272 665.00
33.3315 1278.00
33.6357 653.00
33.94 1138.00
34.2443 684.00
34.5485 1069.00
34.8528 558.00
35.157 1209.00
35.4613 522.00
35.7656 888.00
36.0698 541.00
36.3741 699.00
36.6783 791.00
36.9826 636.00
37.2869 612.00
37.5911 528.00
37.8954 675.00
38.1996 611.00
38.5039 572.00
38.8082 501.00
39.1124 518.00
39.4167 459.00
39.7209 446.00
40.0252 669.00
40.3295 502.00
40.6337 439.00
40.938 480.00
41.2422 656.00
41.5465 501.00
41.8508 466.00
42.155 521.00
42.4593 429.00
42.7635 485.00
43.0678 515.00
43.3721 435.00
43.6763 392.00
43.9806 515.00
44.2849 415.00
44.5891 413.00
44.8934 408.00
45.1976 374.00
45.5019 402.00
45.8062 440.00
46.1104 465.00
46.4147 421.00
46.7189 357.00
47.0232 405.00
47.3275 375.00
47.6317 441.00
47.936 407.00
48.2402 342.00
48.5445 407.00
48.8488 452.00
49.153 469.00
49.4573 368.00
49.7615 468.00
50.0658 382.00
50.3701 415.00
50.6743 446.00
50.9786 360.00
51.2828 382.00
51.5871 371.00
51.8914 353.00
52.1956 420.00
52.4999 369.00
52.8041 377.00
53.1084 375.00
53.4127 536.00
53.7169 520.00
54.0212 433.00
54.3254 349.00
54.6297 414.00
54.934 397.00
55.2382 371.00
55.5425 412.00
55.8467 344.00
56.151 316.00
56.4553 317.00
56.7595 336.00
57.0638 324.00
57.368 309.00
57.6723 337.00
57.9766 335.00
58.2808 456.00
58.5851 406.00
58.8893 306.00
59.1936 277.00
59.4979 310.00
59.8021 316.00
60.1064 309.00
60.4106 377.00
60.7149 384.00
61.0192 351.00
61.3234 348.00
61.6277 358.00
61.932 330.00
62.2362 351.00
62.5405 266.00
62.8447 296.00
63.149 342.00
63.4533 275.00
63.7575 310.00
64.0618 289.00
64.366 338.00
64.6703 290.00
64.9745 327.00
65.2788 308.00
65.5831 322.00
65.8873 329.00
66.1916 394.00
66.4959 297.00
66.8001 285.00
67.1044 293.00
67.4086 286.00
67.7129 293.00
68.0172 328.00
68.3214 274.00
68.6257 219.00
68.9299 297.00
69.2342 278.00
69.5385 258.00
69.8427 301.00
70.147 229.00
70.4512 273.00
70.7555 287.00
71.0598 272.00
71.364 277.00
71.6683 296.00
71.9725 290.00
72.2768 262.00
72.5811 300.00
72.8853 299.00
73.1896 272.00
73.4938 245.00
73.7981 244.00
74.1024 276.00
74.4066 264.00
74.7109 231.00
75.0151 248.00
75.3194 276.00
75.6237 256.00
75.9279 275.00
76.2322 220.00
76.5364 308.00
76.8407 256.00
77.145 257.00
77.4492 286.00
77.7535 248.00
78.0577 322.00
78.362 295.00
78.6663 282.00
78.9705 280.00
79.2748 266.00
79.579 259.00
79.8833 250.00
80.1876 264.00
80.4918 280.00
80.7961 280.00
81.1003 272.00
81.4046 262.00
81.7089 275.00
82.0131 284.00
82.3174 231.00
82.6217 256.00
82.9259 258.00
83.2302 273.00
83.5344 256.00
83.8387 328.00
84.143 236.00
84.4472 278.00
84.7515 237.00
85.0557 287.00
85.36 282.00
85.6643 272.00
85.9685 241.00
86.2728 269.00
86.577 276.00
86.8813 277.00
87.1856 233.00
87.4898 257.00
87.7941 233.00
88.0983 241.00
88.4026 236.00
88.7069 244.00
89.0111 226.00
89.3154 278.00
89.6196 280.00
89.9239 231.00
90.2282 242.00
90.5324 235.00
90.8367 238.00
91.1409 258.00
91.4452 248.00
91.7495 241.00
92.0537 249.00
92.358 245.00
92.6622 220.00
92.9665 230.00
93.2708 247.00
93.575 230.00
93.8793 261.00
94.1835 185.00
94.4878 259.00
94.7921 237.00
95.0963 241.00
95.4006 258.00
95.7048 204.00
96.0091 206.00
96.3134 224.00
96.6176 239.00
96.9219 223.00
97.2261 197.00
97.5304 248.00
97.8347 244.00
98.1389 179.00
98.4432 258.00
98.7474 192.00
99.0517 229.00
99.356 224.00
99.6602 197.00
99.9645 218.00
100.095 214.00