File: data/xrd_creation/results/Na_285.xy
9.903433 2623.00
10.2077 2447.00
10.512 2332.00
10.8162 2282.00
11.1205 2225.00
11.4247 2147.00
11.729 2112.00
12.0333 1887.00
12.3375 1916.00
12.6418 1818.00
12.946 1778.00
13.2503 1696.00
13.5546 1640.00
13.8588 1656.00
14.1631 1615.00
14.4673 1522.00
14.7716 1477.00
15.0759 1490.00
15.3801 1359.00
15.6844 1357.00
15.9886 1401.00
16.2929 1345.00
16.5972 1304.00
16.9014 1344.00
17.2057 1304.00
17.5099 1256.00
17.8142 1203.00
18.1185 1145.00
18.4227 1246.00
18.727 1145.00
19.0312 1145.00
19.3355 1156.00
19.6398 1090.00
19.944 1054.00
20.2483 1065.00
20.5525 1075.00
20.8568 1015.00
21.1611 1024.00
21.4653 1028.00
21.7696 1024.00
22.0738 944.00
22.3781 942.00
22.6824 983.00
22.9866 945.00
23.2909 929.00
23.5951 925.00
23.8994 851.00
24.2037 858.00
24.5079 843.00
24.8122 847.00
25.1164 860.00
25.4207 829.00
25.725 817.00
26.0292 747.00
26.3335 857.00
26.6378 826.00
26.942 778.00
27.2463 768.00
27.5505 776.00
27.8548 1286.00
28.1591 776.00
28.4633 734.00
28.7676 684.00
29.0718 731.00
29.3761 741.00
29.6804 735.00
29.9846 696.00
30.2889 690.00
30.5931 684.00
30.8974 660.00
31.2017 684.00
31.5059 725.00
31.8102 594.00
32.1144 614.00
32.4187 662.00
32.723 609.00
33.0272 588.00
33.3315 617.00
33.6357 599.00
33.94 537.00
34.2443 537.00
34.5485 540.00
34.8528 523.00
35.157 521.00
35.4613 565.00
35.7656 524.00
36.0698 502.00
36.3741 449.00
36.6783 446.00
36.9826 476.00
37.2869 467.00
37.5911 476.00
37.8954 444.00
38.1996 481.00
38.5039 458.00
38.8082 403.00
39.1124 420.00
39.4167 446.00
39.7209 422.00
40.0252 400.00
40.3295 435.00
40.6337 372.00
40.938 420.00
41.2422 430.00
41.5465 360.00
41.8508 366.00
42.155 433.00
42.4593 387.00
42.7635 382.00
43.0678 381.00
43.3721 363.00
43.6763 364.00
43.9806 342.00
44.2849 415.00
44.5891 389.00
44.8934 348.00
45.1976 367.00
45.5019 344.00
45.8062 341.00
46.1104 461.00
46.4147 369.00
46.7189 400.00
47.0232 323.00
47.3275 406.00
47.6317 337.00
47.936 361.00
48.2402 329.00
48.5445 345.00
48.8488 351.00
49.153 345.00
49.4573 332.00
49.7615 321.00
50.0658 340.00
50.3701 296.00
50.6743 338.00
50.9786 341.00
51.2828 333.00
51.5871 302.00
51.8914 301.00
52.1956 322.00
52.4999 326.00
52.8041 356.00
53.1084 298.00
53.4127 288.00
53.7169 318.00
54.0212 301.00
54.3254 343.00
54.6297 258.00
54.934 302.00
55.2382 360.00
55.5425 362.00
55.8467 303.00
56.151 316.00
56.4553 298.00
56.7595 300.00
57.0638 280.00
57.368 329.00
57.6723 322.00
57.9766 285.00
58.2808 308.00
58.5851 257.00
58.8893 263.00
59.1936 232.00
59.4979 330.00
59.8021 229.00
60.1064 246.00
60.4106 262.00
60.7149 270.00
61.0192 222.00
61.3234 263.00
61.6277 249.00
61.932 219.00
62.2362 263.00
62.5405 249.00
62.8447 256.00
63.149 242.00
63.4533 243.00
63.7575 234.00
64.0618 221.00
64.366 256.00
64.6703 230.00
64.9745 241.00
65.2788 228.00
65.5831 258.00
65.8873 233.00
66.1916 238.00
66.4959 250.00
66.8001 204.00
67.1044 226.00
67.4086 217.00
67.7129 236.00
68.0172 213.00
68.3214 247.00
68.6257 243.00
68.9299 204.00
69.2342 234.00
69.5385 229.00
69.8427 226.00
70.147 221.00
70.4512 238.00
70.7555 208.00
71.0598 236.00
71.364 235.00
71.6683 233.00
71.9725 229.00
72.2768 211.00
72.5811 236.00
72.8853 205.00
73.1896 234.00
73.4938 208.00
73.7981 237.00
74.1024 228.00
74.4066 278.00
74.7109 247.00
75.0151 206.00
75.3194 213.00
75.6237 222.00
75.9279 263.00
76.2322 240.00
76.5364 200.00
76.8407 257.00
77.145 228.00
77.4492 221.00
77.7535 249.00
78.0577 271.00
78.362 247.00
78.6663 258.00
78.9705 250.00
79.2748 234.00
79.579 262.00
79.8833 274.00
80.1876 242.00
80.4918 284.00
80.7961 237.00
81.1003 271.00
81.4046 263.00
81.7089 293.00
82.0131 230.00
82.3174 233.00
82.6217 218.00
82.9259 232.00
83.2302 244.00
83.5344 263.00
83.8387 247.00
84.143 245.00
84.4472 226.00
84.7515 225.00
85.0557 258.00
85.36 250.00
85.6643 248.00
85.9685 262.00
86.2728 217.00
86.577 233.00
86.8813 218.00
87.1856 214.00
87.4898 237.00
87.7941 235.00
88.0983 197.00
88.4026 220.00
88.7069 203.00
89.0111 193.00
89.3154 208.00
89.6196 217.00
89.9239 208.00
90.2282 211.00
90.5324 216.00
90.8367 190.00
91.1409 178.00
91.4452 216.00
91.7495 181.00
92.0537 217.00
92.358 226.00
92.6622 192.00
92.9665 189.00
93.2708 193.00
93.575 228.00
93.8793 200.00
94.1835 224.00
94.4878 215.00
94.7921 181.00
95.0963 217.00
95.4006 216.00
95.7048 174.00
96.0091 193.00
96.3134 213.00
96.6176 197.00
96.9219 234.00
97.2261 214.00
97.5304 205.00
97.8347 207.00
98.1389 183.00
98.4432 196.00
98.7474 199.00
99.0517 215.00
99.356 224.00
99.6602 197.00
99.9645 199.00
100.095 182.00