File: data/xrd_creation/results/Na_273.xy
9.903433 4051.00
10.2077 4010.00
10.512 3913.00
10.8162 3894.00
11.1205 3759.00
11.4247 3729.00
11.729 3768.00
12.0333 3712.00
12.3375 3760.00
12.6418 3845.00
12.946 4217.00
13.2503 4026.00
13.5546 3822.00
13.8588 3643.00
14.1631 3754.00
14.4673 3746.00
14.7716 3692.00
15.0759 3784.00
15.3801 3816.00
15.6844 3724.00
15.9886 3776.00
16.2929 3694.00
16.5972 3753.00
16.9014 3839.00
17.2057 3805.00
17.5099 3822.00
17.8142 3750.00
18.1185 3859.00
18.4227 3783.00
18.727 3686.00
19.0312 3787.00
19.3355 3824.00
19.6398 3726.00
19.944 3742.00
20.2483 4052.00
20.5525 3867.00
20.8568 4806.00
21.1611 7318.00
21.4653 3907.00
21.7696 3998.00
22.0738 3846.00
22.3781 3839.00
22.6824 3843.00
22.9866 3823.00
23.2909 3829.00
23.5951 4004.00
23.8994 4598.00
24.2037 4418.00
24.5079 4549.00
24.8122 3814.00
25.1164 3735.00
25.4207 3830.00
25.725 3751.00
26.0292 3915.00
26.3335 3668.00
26.6378 3666.00
26.942 3744.00
27.2463 3753.00
27.5505 3667.00
27.8548 3774.00
28.1591 3849.00
28.4633 3862.00
28.7676 3627.00
29.0718 3684.00
29.3761 3828.00
29.6804 3861.00
29.9846 3740.00
30.2889 3728.00
30.5931 3757.00
30.8974 3722.00
31.2017 3867.00
31.5059 3672.00
31.8102 3769.00
32.1144 4146.00
32.4187 4330.00
32.723 3665.00
33.0272 4976.00
33.3315 5072.00
33.6357 4121.00
33.94 3753.00
34.2443 4288.00
34.5485 16970.00
34.8528 6101.00
35.157 3852.00
35.4613 3898.00
35.7656 4178.00
36.0698 4358.00
36.3741 3756.00
36.6783 3645.00
36.9826 3583.00
37.2869 3620.00
37.5911 3635.00
37.8954 3690.00
38.1996 3771.00
38.5039 3953.00
38.8082 3623.00
39.1124 3623.00
39.4167 3724.00
39.7209 3700.00
40.0252 3748.00
40.3295 3582.00
40.6337 3814.00
40.938 3791.00
41.2422 4051.00
41.5465 3762.00
41.8508 3747.00
42.155 3533.00
42.4593 3788.00
42.7635 3774.00
43.0678 3667.00
43.3721 3669.00
43.6763 3608.00
43.9806 3637.00
44.2849 3590.00
44.5891 3626.00
44.8934 3686.00
45.1976 3516.00
45.5019 3455.00
45.8062 3476.00
46.1104 3611.00
46.4147 3511.00
46.7189 3629.00
47.0232 3651.00
47.3275 3638.00
47.6317 3575.00
47.936 3624.00
48.2402 3951.00
48.5445 3620.00
48.8488 4135.00
49.153 3788.00
49.4573 5485.00
49.7615 4778.00
50.0658 3670.00
50.3701 3588.00
50.6743 3456.00
50.9786 3559.00
51.2828 3534.00
51.5871 3472.00
51.8914 3541.00
52.1956 3555.00
52.4999 3483.00
52.8041 3592.00
53.1084 3802.00
53.4127 3614.00
53.7169 3570.00
54.0212 3629.00
54.3254 4683.00
54.6297 3644.00
54.934 3687.00
55.2382 3417.00
55.5425 3554.00
55.8467 3511.00
56.151 3606.00
56.4553 3725.00
56.7595 3541.00
57.0638 3519.00
57.368 3542.00
57.6723 3769.00
57.9766 3620.00
58.2808 3511.00
58.5851 3517.00
58.8893 3437.00
59.1936 3545.00
59.4979 3574.00
59.8021 3512.00
60.1064 3515.00
60.4106 3612.00
60.7149 3595.00
61.0192 3820.00
61.3234 3975.00
61.6277 5485.00
61.932 3862.00
62.2362 3611.00
62.5405 3833.00
62.8447 4075.00
63.149 3475.00
63.4533 3544.00
63.7575 3618.00
64.0618 3663.00
64.366 3983.00
64.6703 3558.00
64.9745 3647.00
65.2788 3452.00
65.5831 3758.00
65.8873 3544.00
66.1916 3360.00
66.4959 3617.00
66.8001 3379.00
67.1044 3530.00
67.4086 3369.00
67.7129 3447.00
68.0172 3457.00
68.3214 3348.00
68.6257 3449.00
68.9299 3445.00
69.2342 3590.00
69.5385 3432.00
69.8427 3670.00
70.147 3515.00
70.4512 3503.00
70.7555 3379.00
71.0598 3483.00
71.364 3386.00
71.6683 3402.00
71.9725 3522.00
72.2768 3731.00
72.5811 3691.00
72.8853 3467.00
73.1896 3534.00
73.4938 3398.00
73.7981 3428.00
74.1024 3456.00
74.4066 3427.00
74.7109 3476.00
75.0151 3422.00
75.3194 3454.00
75.6237 3589.00
75.9279 3583.00
76.2322 3584.00
76.5364 3484.00
76.8407 3377.00
77.145 3364.00
77.4492 3485.00
77.7535 3367.00
78.0577 3298.00
78.362 3407.00
78.6663 3428.00
78.9705 3386.00
79.2748 3334.00
79.579 3353.00
79.8833 3412.00
80.1876 3385.00
80.4918 3420.00
80.7961 3444.00
81.1003 3504.00
81.4046 3371.00
81.7089 3391.00
82.0131 3415.00
82.3174 3343.00
82.6217 3681.00
82.9259 3686.00
83.2302 3512.00
83.5344 3355.00
83.8387 3398.00
84.143 3432.00
84.4472 3472.00
84.7515 3368.00
85.0557 3555.00
85.36 3598.00
85.6643 3480.00
85.9685 3473.00
86.2728 3404.00
86.577 3468.00
86.8813 3475.00
87.1856 3406.00
87.4898 3432.00
87.7941 3464.00
88.0983 3497.00
88.4026 3359.00
88.7069 3437.00
89.0111 3380.00
89.3154 3366.00
89.6196 3418.00
89.9239 3396.00
90.2282 3408.00
90.5324 3431.00
90.8367 3368.00
91.1409 3436.00
91.4452 3444.00
91.7495 3401.00
92.0537 3376.00
92.358 3463.00
92.6622 3475.00
92.9665 3482.00
93.2708 3301.00
93.575 3294.00
93.8793 3578.00
94.1835 3476.00
94.4878 3373.00
94.7921 3341.00
95.0963 3373.00
95.4006 3454.00
95.7048 3497.00
96.0091 3461.00
96.3134 3414.00
96.6176 3466.00
96.9219 3336.00
97.2261 3453.00
97.5304 3399.00
97.8347 3460.00
98.1389 3448.00
98.4432 3373.00
98.7474 3427.00
99.0517 3326.00
99.356 3441.00
99.6602 3315.00
99.9645 3423.00
100.095 3275.00