File: data/xrd_creation/results/Na_284.xy
9.903433 2740.00
10.2077 2724.00
10.512 2559.00
10.8162 2584.00
11.1205 2412.00
11.4247 2406.00
11.729 2300.00
12.0333 2244.00
12.3375 2257.00
12.6418 2051.00
12.946 2243.00
13.2503 3005.00
13.5546 2035.00
13.8588 2481.00
14.1631 2027.00
14.4673 2041.00
14.7716 1827.00
15.0759 1893.00
15.3801 1932.00
15.6844 2353.00
15.9886 3563.00
16.2929 2095.00
16.5972 1715.00
16.9014 1766.00
17.2057 1689.00
17.5099 1606.00
17.8142 1691.00
18.1185 1596.00
18.4227 1604.00
18.727 1529.00
19.0312 1477.00
19.3355 1858.00
19.6398 1651.00
19.944 1557.00
20.2483 1687.00
20.5525 1495.00
20.8568 1813.00
21.1611 2816.00
21.4653 1453.00
21.7696 1597.00
22.0738 1376.00
22.3781 1363.00
22.6824 1751.00
22.9866 2294.00
23.2909 1574.00
23.5951 1371.00
23.8994 1248.00
24.2037 1339.00
24.5079 1353.00
24.8122 1238.00
25.1164 1155.00
25.4207 1260.00
25.725 1611.00
26.0292 1270.00
26.3335 1416.00
26.6378 1192.00
26.942 1249.00
27.2463 1520.00
27.5505 2896.00
27.8548 2115.00
28.1591 2510.00
28.4633 2911.00
28.7676 1463.00
29.0718 1428.00
29.3761 4304.00
29.6804 2902.00
29.9846 1202.00
30.2889 1244.00
30.5931 1233.00
30.8974 2400.00
31.2017 2219.00
31.5059 1357.00
31.8102 1496.00
32.1144 2288.00
32.4187 2095.00
32.723 1231.00
33.0272 1060.00
33.3315 1236.00
33.6357 1958.00
33.94 1472.00
34.2443 1264.00
34.5485 3828.00
34.8528 1233.00
35.157 1111.00
35.4613 1047.00
35.7656 904.00
36.0698 934.00
36.3741 1134.00
36.6783 963.00
36.9826 857.00
37.2869 850.00
37.5911 821.00
37.8954 851.00
38.1996 1005.00
38.5039 869.00
38.8082 836.00
39.1124 1047.00
39.4167 1268.00
39.7209 2847.00
40.0252 1871.00
40.3295 1083.00
40.6337 975.00
40.938 1771.00
41.2422 932.00
41.5465 922.00
41.8508 921.00
42.155 769.00
42.4593 1134.00
42.7635 969.00
43.0678 786.00
43.3721 759.00
43.6763 747.00
43.9806 1108.00
44.2849 1316.00
44.5891 1043.00
44.8934 903.00
45.1976 805.00
45.5019 893.00
45.8062 966.00
46.1104 843.00
46.4147 903.00
46.7189 857.00
47.0232 914.00
47.3275 1103.00
47.6317 971.00
47.936 835.00
48.2402 919.00
48.5445 1342.00
48.8488 1797.00
49.153 1544.00
49.4573 1371.00
49.7615 767.00
50.0658 903.00
50.3701 883.00
50.6743 833.00
50.9786 1580.00
51.2828 897.00
51.5871 656.00
51.8914 921.00
52.1956 844.00
52.4999 768.00
52.8041 668.00
53.1084 666.00
53.4127 711.00
53.7169 1213.00
54.0212 1622.00
54.3254 788.00
54.6297 644.00
54.934 610.00
55.2382 644.00
55.5425 893.00
55.8467 815.00
56.151 770.00
56.4553 720.00
56.7595 681.00
57.0638 632.00
57.368 590.00
57.6723 532.00
57.9766 682.00
58.2808 645.00
58.5851 593.00
58.8893 579.00
59.1936 646.00
59.4979 569.00
59.8021 479.00
60.1064 567.00
60.4106 604.00
60.7149 919.00
61.0192 697.00
61.3234 579.00
61.6277 690.00
61.932 511.00
62.2362 507.00
62.5405 433.00
62.8447 506.00
63.149 557.00
63.4533 577.00
63.7575 509.00
64.0618 696.00
64.366 818.00
64.6703 610.00
64.9745 516.00
65.2788 617.00
65.5831 867.00
65.8873 619.00
66.1916 530.00
66.4959 473.00
66.8001 470.00
67.1044 479.00
67.4086 494.00
67.7129 443.00
68.0172 443.00
68.3214 432.00
68.6257 430.00
68.9299 446.00
69.2342 438.00
69.5385 456.00
69.8427 619.00
70.147 738.00
70.4512 644.00
70.7555 540.00
71.0598 519.00
71.364 460.00
71.6683 497.00
71.9725 526.00
72.2768 609.00
72.5811 553.00
72.8853 500.00
73.1896 516.00
73.4938 465.00
73.7981 444.00
74.1024 429.00
74.4066 398.00
74.7109 454.00
75.0151 445.00
75.3194 420.00
75.6237 431.00
75.9279 465.00
76.2322 499.00
76.5364 524.00
76.8407 561.00
77.145 596.00
77.4492 626.00
77.7535 743.00
78.0577 716.00
78.362 589.00
78.6663 511.00
78.9705 514.00
79.2748 491.00
79.579 435.00
79.8833 390.00
80.1876 413.00
80.4918 429.00
80.7961 401.00
81.1003 376.00
81.4046 388.00
81.7089 436.00
82.0131 513.00
82.3174 636.00
82.6217 578.00
82.9259 482.00
83.2302 426.00
83.5344 418.00
83.8387 367.00
84.143 418.00
84.4472 400.00
84.7515 467.00
85.0557 442.00
85.36 496.00
85.6643 531.00
85.9685 566.00
86.2728 565.00
86.577 457.00
86.8813 420.00
87.1856 353.00
87.4898 363.00
87.7941 421.00
88.0983 489.00
88.4026 513.00
88.7069 516.00
89.0111 517.00
89.3154 449.00
89.6196 454.00
89.9239 425.00
90.2282 424.00
90.5324 449.00
90.8367 416.00
91.1409 401.00
91.4452 413.00
91.7495 381.00
92.0537 418.00
92.358 391.00
92.6622 410.00
92.9665 426.00
93.2708 392.00
93.575 365.00
93.8793 370.00
94.1835 403.00
94.4878 377.00
94.7921 339.00
95.0963 380.00
95.4006 409.00
95.7048 442.00
96.0091 491.00
96.3134 467.00
96.6176 409.00
96.9219 452.00
97.2261 439.00
97.5304 431.00
97.8347 407.00
98.1389 436.00
98.4432 435.00
98.7474 397.00
99.0517 405.00
99.356 377.00
99.6602 352.00
99.9645 330.00
100.095 370.00