File: data/xrd_creation/results/Na_36.xy
9.903433 2656.00
10.2077 2525.00
10.512 2388.00
10.8162 2265.00
11.1205 2210.00
11.4247 2076.00
11.729 2062.00
12.0333 2027.00
12.3375 1883.00
12.6418 1855.00
12.946 1735.00
13.2503 1642.00
13.5546 1676.00
13.8588 1622.00
14.1631 1614.00
14.4673 1528.00
14.7716 1505.00
15.0759 1393.00
15.3801 1351.00
15.6844 1402.00
15.9886 1334.00
16.2929 1351.00
16.5972 1255.00
16.9014 1302.00
17.2057 1264.00
17.5099 1192.00
17.8142 1204.00
18.1185 1192.00
18.4227 1109.00
18.727 1133.00
19.0312 1153.00
19.3355 1061.00
19.6398 1080.00
19.944 973.00
20.2483 1091.00
20.5525 984.00
20.8568 867.00
21.1611 936.00
21.4653 908.00
21.7696 921.00
22.0738 874.00
22.3781 883.00
22.6824 840.00
22.9866 846.00
23.2909 798.00
23.5951 735.00
23.8994 787.00
24.2037 832.00
24.5079 798.00
24.8122 781.00
25.1164 738.00
25.4207 703.00
25.725 795.00
26.0292 772.00
26.3335 647.00
26.6378 679.00
26.942 679.00
27.2463 742.00
27.5505 676.00
27.8548 683.00
28.1591 618.00
28.4633 688.00
28.7676 838.00
29.0718 2126.00
29.3761 690.00
29.6804 664.00
29.9846 680.00
30.2889 612.00
30.5931 570.00
30.8974 536.00
31.2017 618.00
31.5059 1202.00
31.8102 613.00
32.1144 555.00
32.4187 535.00
32.723 578.00
33.0272 511.00
33.3315 566.00
33.6357 1082.00
33.94 550.00
34.2443 490.00
34.5485 450.00
34.8528 473.00
35.157 503.00
35.4613 511.00
35.7656 562.00
36.0698 463.00
36.3741 459.00
36.6783 447.00
36.9826 417.00
37.2869 453.00
37.5911 477.00
37.8954 429.00
38.1996 430.00
38.5039 438.00
38.8082 358.00
39.1124 410.00
39.4167 412.00
39.7209 490.00
40.0252 408.00
40.3295 400.00
40.6337 378.00
40.938 354.00
41.2422 398.00
41.5465 358.00
41.8508 372.00
42.155 376.00
42.4593 347.00
42.7635 352.00
43.0678 358.00
43.3721 481.00
43.6763 384.00
43.9806 352.00
44.2849 303.00
44.5891 316.00
44.8934 332.00
45.1976 386.00
45.5019 413.00
45.8062 370.00
46.1104 355.00
46.4147 330.00
46.7189 377.00
47.0232 376.00
47.3275 341.00
47.6317 316.00
47.936 321.00
48.2402 409.00
48.5445 570.00
48.8488 332.00
49.153 330.00
49.4573 317.00
49.7615 343.00
50.0658 349.00
50.3701 321.00
50.6743 324.00
50.9786 297.00
51.2828 295.00
51.5871 296.00
51.8914 328.00
52.1956 278.00
52.4999 314.00
52.8041 284.00
53.1084 347.00
53.4127 286.00
53.7169 281.00
54.0212 288.00
54.3254 257.00
54.6297 299.00
54.934 269.00
55.2382 281.00
55.5425 302.00
55.8467 248.00
56.151 298.00
56.4553 328.00
56.7595 269.00
57.0638 241.00
57.368 379.00
57.6723 403.00
57.9766 262.00
58.2808 237.00
58.5851 258.00
58.8893 303.00
59.1936 243.00
59.4979 234.00
59.8021 225.00
60.1064 234.00
60.4106 295.00
60.7149 227.00
61.0192 233.00
61.3234 231.00
61.6277 243.00
61.932 236.00
62.2362 250.00
62.5405 256.00
62.8447 205.00
63.149 212.00
63.4533 210.00
63.7575 241.00
64.0618 235.00
64.366 270.00
64.6703 227.00
64.9745 213.00
65.2788 231.00
65.5831 207.00
65.8873 200.00
66.1916 242.00
66.4959 230.00
66.8001 206.00
67.1044 263.00
67.4086 227.00
67.7129 235.00
68.0172 273.00
68.3214 229.00
68.6257 221.00
68.9299 233.00
69.2342 198.00
69.5385 225.00
69.8427 214.00
70.147 199.00
70.4512 197.00
70.7555 217.00
71.0598 264.00
71.364 196.00
71.6683 222.00
71.9725 218.00
72.2768 248.00
72.5811 223.00
72.8853 215.00
73.1896 250.00
73.4938 260.00
73.7981 225.00
74.1024 227.00
74.4066 223.00
74.7109 250.00
75.0151 275.00
75.3194 285.00
75.6237 262.00
75.9279 234.00
76.2322 219.00
76.5364 229.00
76.8407 234.00
77.145 268.00
77.4492 285.00
77.7535 204.00
78.0577 261.00
78.362 287.00
78.6663 293.00
78.9705 268.00
79.2748 247.00
79.579 240.00
79.8833 266.00
80.1876 216.00
80.4918 279.00
80.7961 287.00
81.1003 259.00
81.4046 260.00
81.7089 265.00
82.0131 249.00
82.3174 268.00
82.6217 267.00
82.9259 281.00
83.2302 226.00
83.5344 266.00
83.8387 284.00
84.143 256.00
84.4472 266.00
84.7515 260.00
85.0557 235.00
85.36 251.00
85.6643 241.00
85.9685 228.00
86.2728 228.00
86.577 232.00
86.8813 228.00
87.1856 238.00
87.4898 244.00
87.7941 208.00
88.0983 238.00
88.4026 217.00
88.7069 227.00
89.0111 229.00
89.3154 223.00
89.6196 228.00
89.9239 207.00
90.2282 223.00
90.5324 229.00
90.8367 226.00
91.1409 240.00
91.4452 185.00
91.7495 234.00
92.0537 237.00
92.358 219.00
92.6622 219.00
92.9665 251.00
93.2708 215.00
93.575 214.00
93.8793 227.00
94.1835 207.00
94.4878 214.00
94.7921 227.00
95.0963 213.00
95.4006 223.00
95.7048 239.00
96.0091 220.00
96.3134 214.00
96.6176 236.00
96.9219 190.00
97.2261 231.00
97.5304 215.00
97.8347 231.00
98.1389 243.00
98.4432 223.00
98.7474 194.00
99.0517 215.00
99.356 232.00
99.6602 203.00
99.9645 198.00
100.095 206.00