File: data/xrd_creation/results/Na_306.xy
9.903433 2889.00
10.2077 2921.00
10.512 3248.00
10.8162 2728.00
11.1205 2730.00
11.4247 2805.00
11.729 2710.00
12.0333 3674.00
12.3375 2764.00
12.6418 2411.00
12.946 2431.00
13.2503 2387.00
13.5546 2375.00
13.8588 2413.00
14.1631 2783.00
14.4673 2242.00
14.7716 2105.00
15.0759 2235.00
15.3801 2175.00
15.6844 2114.00
15.9886 2246.00
16.2929 2161.00
16.5972 2210.00
16.9014 2101.00
17.2057 2044.00
17.5099 2073.00
17.8142 2457.00
18.1185 2101.00
18.4227 1996.00
18.727 1914.00
19.0312 1994.00
19.3355 1998.00
19.6398 2614.00
19.944 3792.00
20.2483 2149.00
20.5525 2111.00
20.8568 3726.00
21.1611 2699.00
21.4653 1914.00
21.7696 1976.00
22.0738 1933.00
22.3781 2050.00
22.6824 2080.00
22.9866 2740.00
23.2909 4954.00
23.5951 3119.00
23.8994 2259.00
24.2037 5087.00
24.5079 2604.00
24.8122 3476.00
25.1164 1898.00
25.4207 2055.00
25.725 2058.00
26.0292 2053.00
26.3335 1963.00
26.6378 1897.00
26.942 1854.00
27.2463 1989.00
27.5505 1899.00
27.8548 2034.00
28.1591 2726.00
28.4633 10678.00
28.7676 2244.00
29.0718 1961.00
29.3761 1849.00
29.6804 1923.00
29.9846 1924.00
30.2889 2575.00
30.5931 2365.00
30.8974 2262.00
31.2017 2409.00
31.5059 4416.00
31.8102 12158.00
32.1144 2058.00
32.4187 1935.00
32.723 1758.00
33.0272 1737.00
33.3315 1816.00
33.6357 1838.00
33.94 2824.00
34.2443 10521.00
34.5485 6283.00
34.8528 2278.00
35.157 1796.00
35.4613 2036.00
35.7656 2209.00
36.0698 1764.00
36.3741 1762.00
36.6783 1726.00
36.9826 1636.00
37.2869 1705.00
37.5911 1542.00
37.8954 1568.00
38.1996 1514.00
38.5039 1591.00
38.8082 2055.00
39.1124 1583.00
39.4167 1589.00
39.7209 1652.00
40.0252 1573.00
40.3295 1756.00
40.6337 1658.00
40.938 2181.00
41.2422 1885.00
41.5465 2317.00
41.8508 1886.00
42.155 1980.00
42.4593 1695.00
42.7635 1458.00
43.0678 1551.00
43.3721 1676.00
43.6763 1679.00
43.9806 1604.00
44.2849 1440.00
44.5891 1575.00
44.8934 1682.00
45.1976 2204.00
45.5019 1484.00
45.8062 2039.00
46.1104 1587.00
46.4147 1880.00
46.7189 1708.00
47.0232 2888.00
47.3275 2668.00
47.6317 1592.00
47.936 1608.00
48.2402 1557.00
48.5445 1433.00
48.8488 1605.00
49.153 3207.00
49.4573 2573.00
49.7615 1799.00
50.0658 1624.00
50.3701 3918.00
50.6743 2225.00
50.9786 2404.00
51.2828 1707.00
51.5871 2006.00
51.8914 1571.00
52.1956 1725.00
52.4999 1444.00
52.8041 1399.00
53.1084 1827.00
53.4127 1792.00
53.7169 1589.00
54.0212 1504.00
54.3254 2305.00
54.6297 1820.00
54.934 1563.00
55.2382 1561.00
55.5425 2112.00
55.8467 2552.00
56.151 2218.00
56.4553 1517.00
56.7595 1359.00
57.0638 1412.00
57.368 1795.00
57.6723 1599.00
57.9766 1390.00
58.2808 1717.00
58.5851 1620.00
58.8893 1515.00
59.1936 1856.00
59.4979 2039.00
59.8021 1562.00
60.1064 2106.00
60.4106 1865.00
60.7149 1734.00
61.0192 2250.00
61.3234 1706.00
61.6277 1991.00
61.932 1627.00
62.2362 2330.00
62.5405 1655.00
62.8447 1391.00
63.149 2200.00
63.4533 1442.00
63.7575 1326.00
64.0618 1284.00
64.366 1507.00
64.6703 1533.00
64.9745 1325.00
65.2788 1532.00
65.5831 1521.00
65.8873 1768.00
66.1916 1682.00
66.4959 1437.00
66.8001 1294.00
67.1044 1299.00
67.4086 1220.00
67.7129 1230.00
68.0172 1203.00
68.3214 1259.00
68.6257 1119.00
68.9299 1159.00
69.2342 1371.00
69.5385 1274.00
69.8427 1350.00
70.147 1245.00
70.4512 1202.00
70.7555 1145.00
71.0598 1128.00
71.364 1554.00
71.6683 1609.00
71.9725 1332.00
72.2768 1334.00
72.5811 1314.00
72.8853 1255.00
73.1896 1237.00
73.4938 1144.00
73.7981 1151.00
74.1024 1207.00
74.4066 1152.00
74.7109 1226.00
75.0151 1363.00
75.3194 1574.00
75.6237 1223.00
75.9279 1095.00
76.2322 1153.00
76.5364 1189.00
76.8407 1311.00
77.145 1135.00
77.4492 1198.00
77.7535 1193.00
78.0577 1065.00
78.362 1148.00
78.6663 1098.00
78.9705 1166.00
79.2748 1219.00
79.579 1106.00
79.8833 1124.00
80.1876 1221.00
80.4918 1195.00
80.7961 1141.00
81.1003 1095.00
81.4046 1121.00
81.7089 1285.00
82.0131 1264.00
82.3174 1195.00
82.6217 1201.00
82.9259 1176.00
83.2302 1207.00
83.5344 1325.00
83.8387 1184.00
84.143 1254.00
84.4472 1186.00
84.7515 1091.00
85.0557 1086.00
85.36 1141.00
85.6643 1102.00
85.9685 1073.00
86.2728 1174.00
86.577 1144.00
86.8813 1149.00
87.1856 1092.00
87.4898 1142.00
87.7941 1183.00
88.0983 1130.00
88.4026 1284.00
88.7069 1471.00
89.0111 1165.00
89.3154 1045.00
89.6196 1170.00
89.9239 1275.00
90.2282 1254.00
90.5324 1138.00
90.8367 1084.00
91.1409 1096.00
91.4452 1177.00
91.7495 1069.00
92.0537 1093.00
92.358 1131.00
92.6622 1086.00
92.9665 1093.00
93.2708 1078.00
93.575 1031.00
93.8793 1137.00
94.1835 1066.00
94.4878 1065.00
94.7921 1130.00
95.0963 1175.00
95.4006 1240.00
95.7048 1117.00
96.0091 1073.00
96.3134 1165.00
96.6176 1276.00
96.9219 1233.00
97.2261 1264.00
97.5304 1102.00
97.8347 1074.00
98.1389 1144.00
98.4432 1130.00
98.7474 1085.00
99.0517 1176.00
99.356 1159.00
99.6602 1356.00
99.9645 1220.00
100.095 1156.00