File: data/xrd_creation/results/Na_307.xy
9.903433 2466.00
10.2077 2407.00
10.512 2297.00
10.8162 2406.00
11.1205 2180.00
11.4247 2301.00
11.729 2726.00
12.0333 5278.00
12.3375 2205.00
12.6418 2062.00
12.946 1832.00
13.2503 1862.00
13.5546 1824.00
13.8588 1738.00
14.1631 1685.00
14.4673 1658.00
14.7716 1568.00
15.0759 1527.00
15.3801 1584.00
15.6844 1563.00
15.9886 1464.00
16.2929 1501.00
16.5972 1437.00
16.9014 1468.00
17.2057 1445.00
17.5099 1496.00
17.8142 1399.00
18.1185 1367.00
18.4227 1428.00
18.727 1922.00
19.0312 1321.00
19.3355 1424.00
19.6398 1286.00
19.944 1304.00
20.2483 1547.00
20.5525 1825.00
20.8568 3083.00
21.1611 1477.00
21.4653 2149.00
21.7696 2528.00
22.0738 1992.00
22.3781 1264.00
22.6824 1216.00
22.9866 1271.00
23.2909 1408.00
23.5951 1219.00
23.8994 1591.00
24.2037 1898.00
24.5079 1726.00
24.8122 2348.00
25.1164 3780.00
25.4207 1083.00
25.725 1040.00
26.0292 1002.00
26.3335 1012.00
26.6378 1309.00
26.942 1056.00
27.2463 1368.00
27.5505 2465.00
27.8548 1805.00
28.1591 1493.00
28.4633 1304.00
28.7676 1153.00
29.0718 1025.00
29.3761 981.00
29.6804 1008.00
29.9846 1581.00
30.2889 1907.00
30.5931 1355.00
30.8974 1596.00
31.2017 1513.00
31.5059 1668.00
31.8102 2016.00
32.1144 2525.00
32.4187 3854.00
32.723 2534.00
33.0272 2376.00
33.3315 2340.00
33.6357 1183.00
33.94 1383.00
34.2443 1132.00
34.5485 943.00
34.8528 964.00
35.157 954.00
35.4613 893.00
35.7656 903.00
36.0698 1300.00
36.3741 1381.00
36.6783 2462.00
36.9826 1517.00
37.2869 1227.00
37.5911 1349.00
37.8954 1533.00
38.1996 879.00
38.5039 911.00
38.8082 1137.00
39.1124 816.00
39.4167 883.00
39.7209 798.00
40.0252 876.00
40.3295 1203.00
40.6337 940.00
40.938 909.00
41.2422 847.00
41.5465 931.00
41.8508 833.00
42.155 880.00
42.4593 964.00
42.7635 895.00
43.0678 808.00
43.3721 871.00
43.6763 1043.00
43.9806 1076.00
44.2849 1089.00
44.5891 1138.00
44.8934 968.00
45.1976 912.00
45.5019 938.00
45.8062 1224.00
46.1104 1113.00
46.4147 906.00
46.7189 779.00
47.0232 923.00
47.3275 820.00
47.6317 976.00
47.936 752.00
48.2402 798.00
48.5445 1118.00
48.8488 1567.00
49.153 1521.00
49.4573 1229.00
49.7615 1066.00
50.0658 1107.00
50.3701 1198.00
50.6743 1031.00
50.9786 977.00
51.2828 1043.00
51.5871 791.00
51.8914 802.00
52.1956 1105.00
52.4999 964.00
52.8041 942.00
53.1084 975.00
53.4127 1050.00
53.7169 1395.00
54.0212 1239.00
54.3254 1227.00
54.6297 1529.00
54.934 1841.00
55.2382 1291.00
55.5425 1284.00
55.8467 1304.00
56.151 1566.00
56.4553 1913.00
56.7595 1909.00
57.0638 1220.00
57.368 930.00
57.6723 1044.00
57.9766 1232.00
58.2808 1119.00
58.5851 1043.00
58.8893 1055.00
59.1936 1302.00
59.4979 1307.00
59.8021 1034.00
60.1064 955.00
60.4106 1161.00
60.7149 1029.00
61.0192 1022.00
61.3234 981.00
61.6277 1035.00
61.932 1231.00
62.2362 1094.00
62.5405 1084.00
62.8447 901.00
63.149 902.00
63.4533 802.00
63.7575 805.00
64.0618 811.00
64.366 863.00
64.6703 889.00
64.9745 908.00
65.2788 839.00
65.5831 891.00
65.8873 816.00
66.1916 870.00
66.4959 869.00
66.8001 920.00
67.1044 900.00
67.4086 941.00
67.7129 900.00
68.0172 872.00
68.3214 866.00
68.6257 944.00
68.9299 1007.00
69.2342 907.00
69.5385 937.00
69.8427 1031.00
70.147 1088.00
70.4512 995.00
70.7555 989.00
71.0598 878.00
71.364 856.00
71.6683 829.00
71.9725 790.00
72.2768 802.00
72.5811 952.00
72.8853 951.00
73.1896 985.00
73.4938 867.00
73.7981 939.00
74.1024 906.00
74.4066 767.00
74.7109 831.00
75.0151 844.00
75.3194 748.00
75.6237 788.00
75.9279 795.00
76.2322 775.00
76.5364 812.00
76.8407 802.00
77.145 804.00
77.4492 731.00
77.7535 810.00
78.0577 797.00
78.362 773.00
78.6663 781.00
78.9705 766.00
79.2748 850.00
79.579 798.00
79.8833 895.00
80.1876 892.00
80.4918 971.00
80.7961 918.00
81.1003 814.00
81.4046 817.00
81.7089 789.00
82.0131 777.00
82.3174 799.00
82.6217 867.00
82.9259 910.00
83.2302 810.00
83.5344 838.00
83.8387 866.00
84.143 862.00
84.4472 883.00
84.7515 1030.00
85.0557 1070.00
85.36 1014.00
85.6643 937.00
85.9685 861.00
86.2728 872.00
86.577 852.00
86.8813 879.00
87.1856 943.00
87.4898 1006.00
87.7941 1010.00
88.0983 921.00
88.4026 959.00
88.7069 937.00
89.0111 902.00
89.3154 869.00
89.6196 889.00
89.9239 927.00
90.2282 919.00
90.5324 888.00
90.8367 953.00
91.1409 871.00
91.4452 882.00
91.7495 836.00
92.0537 793.00
92.358 837.00
92.6622 827.00
92.9665 761.00
93.2708 867.00
93.575 845.00
93.8793 849.00
94.1835 882.00
94.4878 913.00
94.7921 893.00
95.0963 862.00
95.4006 891.00
95.7048 902.00
96.0091 872.00
96.3134 817.00
96.6176 824.00
96.9219 836.00
97.2261 820.00
97.5304 854.00
97.8347 882.00
98.1389 882.00
98.4432 879.00
98.7474 818.00
99.0517 776.00
99.356 889.00
99.6602 856.00
99.9645 872.00
100.095 896.00