File: data/xrd_creation/results/Na_304.xy
9.903433 2647.00
10.2077 2651.00
10.512 2584.00
10.8162 2524.00
11.1205 2516.00
11.4247 2837.00
11.729 6976.00
12.0333 2156.00
12.3375 2002.00
12.6418 1936.00
12.946 1972.00
13.2503 1938.00
13.5546 1769.00
13.8588 1780.00
14.1631 1832.00
14.4673 2170.00
14.7716 1658.00
15.0759 1718.00
15.3801 1692.00
15.6844 1709.00
15.9886 1586.00
16.2929 1544.00
16.5972 1560.00
16.9014 1765.00
17.2057 1717.00
17.5099 1637.00
17.8142 1517.00
18.1185 1499.00
18.4227 2732.00
18.727 1400.00
19.0312 1436.00
19.3355 1359.00
19.6398 1357.00
19.944 1460.00
20.2483 1840.00
20.5525 1808.00
20.8568 1394.00
21.1611 2485.00
21.4653 2525.00
21.7696 1395.00
22.0738 1328.00
22.3781 1359.00
22.6824 1241.00
22.9866 1322.00
23.2909 1176.00
23.5951 1791.00
23.8994 1775.00
24.2037 1841.00
24.5079 1785.00
24.8122 1828.00
25.1164 1172.00
25.4207 1217.00
25.725 1158.00
26.0292 1112.00
26.3335 1234.00
26.6378 1468.00
26.942 1225.00
27.2463 2032.00
27.5505 1938.00
27.8548 1573.00
28.1591 1305.00
28.4633 1150.00
28.7676 1164.00
29.0718 1626.00
29.3761 1441.00
29.6804 2126.00
29.9846 1823.00
30.2889 1562.00
30.5931 1531.00
30.8974 1220.00
31.2017 1475.00
31.5059 2489.00
31.8102 1509.00
32.1144 3793.00
32.4187 1980.00
32.723 1467.00
33.0272 1249.00
33.3315 1290.00
33.6357 1158.00
33.94 975.00
34.2443 1002.00
34.5485 936.00
34.8528 1053.00
35.157 895.00
35.4613 921.00
35.7656 1292.00
36.0698 934.00
36.3741 1888.00
36.6783 1434.00
36.9826 1365.00
37.2869 1181.00
37.5911 948.00
37.8954 854.00
38.1996 843.00
38.5039 751.00
38.8082 869.00
39.1124 825.00
39.4167 814.00
39.7209 753.00
40.0252 966.00
40.3295 935.00
40.6337 902.00
40.938 838.00
41.2422 713.00
41.5465 767.00
41.8508 716.00
42.155 857.00
42.4593 765.00
42.7635 705.00
43.0678 730.00
43.3721 924.00
43.6763 806.00
43.9806 899.00
44.2849 881.00
44.5891 914.00
44.8934 807.00
45.1976 830.00
45.5019 895.00
45.8062 868.00
46.1104 730.00
46.4147 777.00
46.7189 704.00
47.0232 725.00
47.3275 1036.00
47.6317 689.00
47.936 714.00
48.2402 781.00
48.5445 1511.00
48.8488 990.00
49.153 971.00
49.4573 825.00
49.7615 796.00
50.0658 852.00
50.3701 877.00
50.6743 868.00
50.9786 1084.00
51.2828 803.00
51.5871 712.00
51.8914 845.00
52.1956 813.00
52.4999 865.00
52.8041 807.00
53.1084 1043.00
53.4127 999.00
53.7169 1187.00
54.0212 771.00
54.3254 767.00
54.6297 1084.00
54.934 1152.00
55.2382 1004.00
55.5425 1030.00
55.8467 1064.00
56.151 1241.00
56.4553 977.00
56.7595 829.00
57.0638 743.00
57.368 776.00
57.6723 837.00
57.9766 691.00
58.2808 807.00
58.5851 682.00
58.8893 784.00
59.1936 848.00
59.4979 859.00
59.8021 1018.00
60.1064 837.00
60.4106 756.00
60.7149 794.00
61.0192 708.00
61.3234 732.00
61.6277 870.00
61.932 861.00
62.2362 806.00
62.5405 673.00
62.8447 702.00
63.149 629.00
63.4533 600.00
63.7575 642.00
64.0618 713.00
64.366 607.00
64.6703 656.00
64.9745 618.00
65.2788 544.00
65.5831 559.00
65.8873 583.00
66.1916 617.00
66.4959 579.00
66.8001 612.00
67.1044 636.00
67.4086 688.00
67.7129 632.00
68.0172 652.00
68.3214 608.00
68.6257 695.00
68.9299 686.00
69.2342 578.00
69.5385 572.00
69.8427 734.00
70.147 691.00
70.4512 631.00
70.7555 602.00
71.0598 557.00
71.364 560.00
71.6683 586.00
71.9725 609.00
72.2768 608.00
72.5811 675.00
72.8853 633.00
73.1896 628.00
73.4938 594.00
73.7981 567.00
74.1024 535.00
74.4066 523.00
74.7109 551.00
75.0151 578.00
75.3194 463.00
75.6237 563.00
75.9279 526.00
76.2322 578.00
76.5364 538.00
76.8407 562.00
77.145 565.00
77.4492 610.00
77.7535 662.00
78.0577 573.00
78.362 538.00
78.6663 536.00
78.9705 559.00
79.2748 510.00
79.579 534.00
79.8833 549.00
80.1876 608.00
80.4918 563.00
80.7961 531.00
81.1003 514.00
81.4046 505.00
81.7089 506.00
82.0131 547.00
82.3174 568.00
82.6217 589.00
82.9259 632.00
83.2302 636.00
83.5344 583.00
83.8387 574.00
84.143 552.00
84.4472 544.00
84.7515 642.00
85.0557 648.00
85.36 631.00
85.6643 630.00
85.9685 608.00
86.2728 610.00
86.577 535.00
86.8813 522.00
87.1856 533.00
87.4898 598.00
87.7941 612.00
88.0983 544.00
88.4026 516.00
88.7069 557.00
89.0111 511.00
89.3154 562.00
89.6196 544.00
89.9239 537.00
90.2282 574.00
90.5324 509.00
90.8367 563.00
91.1409 537.00
91.4452 531.00
91.7495 517.00
92.0537 543.00
92.358 504.00
92.6622 525.00
92.9665 517.00
93.2708 503.00
93.575 486.00
93.8793 536.00
94.1835 450.00
94.4878 479.00
94.7921 470.00
95.0963 545.00
95.4006 496.00
95.7048 480.00
96.0091 526.00
96.3134 504.00
96.6176 518.00
96.9219 527.00
97.2261 415.00
97.5304 518.00
97.8347 512.00
98.1389 517.00
98.4432 572.00
98.7474 494.00
99.0517 505.00
99.356 468.00
99.6602 498.00
99.9645 467.00
100.095 487.00