File: data/xrd_creation/results/Na_301.xy
9.903433 2824.00
10.2077 2689.00
10.512 2622.00
10.8162 2571.00
11.1205 2501.00
11.4247 2415.00
11.729 2246.00
12.0333 2202.00
12.3375 2274.00
12.6418 2197.00
12.946 2160.00
13.2503 2083.00
13.5546 2015.00
13.8588 2049.00
14.1631 1968.00
14.4673 1960.00
14.7716 1967.00
15.0759 1914.00
15.3801 1879.00
15.6844 1862.00
15.9886 1832.00
16.2929 1839.00
16.5972 1890.00
16.9014 1719.00
17.2057 1880.00
17.5099 1758.00
17.8142 1822.00
18.1185 1760.00
18.4227 1761.00
18.727 1646.00
19.0312 1790.00
19.3355 1858.00
19.6398 1745.00
19.944 1715.00
20.2483 1782.00
20.5525 2448.00
20.8568 3016.00
21.1611 1751.00
21.4653 1729.00
21.7696 1689.00
22.0738 1806.00
22.3781 2137.00
22.6824 9140.00
22.9866 3502.00
23.2909 2007.00
23.5951 1747.00
23.8994 1694.00
24.2037 1711.00
24.5079 1617.00
24.8122 1710.00
25.1164 1667.00
25.4207 1798.00
25.725 1644.00
26.0292 1621.00
26.3335 1701.00
26.6378 1676.00
26.942 1609.00
27.2463 1620.00
27.5505 1568.00
27.8548 1595.00
28.1591 1542.00
28.4633 1592.00
28.7676 1578.00
29.0718 1539.00
29.3761 1499.00
29.6804 1593.00
29.9846 1474.00
30.2889 1559.00
30.5931 1533.00
30.8974 1575.00
31.2017 1556.00
31.5059 1664.00
31.8102 1879.00
32.1144 5594.00
32.4187 13313.00
32.723 2303.00
33.0272 1659.00
33.3315 1685.00
33.6357 1831.00
33.94 2535.00
34.2443 3501.00
34.5485 1583.00
34.8528 1386.00
35.157 1399.00
35.4613 1372.00
35.7656 1354.00
36.0698 1353.00
36.3741 1374.00
36.6783 1361.00
36.9826 1278.00
37.2869 1242.00
37.5911 1188.00
37.8954 1291.00
38.1996 1311.00
38.5039 1292.00
38.8082 1191.00
39.1124 1102.00
39.4167 1169.00
39.7209 1274.00
40.0252 1368.00
40.3295 1339.00
40.6337 1129.00
40.938 1209.00
41.2422 1143.00
41.5465 1210.00
41.8508 1124.00
42.155 1168.00
42.4593 1060.00
42.7635 1149.00
43.0678 1081.00
43.3721 1213.00
43.6763 1118.00
43.9806 1074.00
44.2849 1089.00
44.5891 1082.00
44.8934 1025.00
45.1976 1034.00
45.5019 1110.00
45.8062 1113.00
46.1104 1554.00
46.4147 4065.00
46.7189 3582.00
47.0232 1309.00
47.3275 1540.00
47.6317 1205.00
47.936 1104.00
48.2402 998.00
48.5445 1058.00
48.8488 1121.00
49.153 1245.00
49.4573 1119.00
49.7615 1068.00
50.0658 1096.00
50.3701 990.00
50.6743 1007.00
50.9786 1121.00
51.2828 1021.00
51.5871 1055.00
51.8914 1681.00
52.1956 2240.00
52.4999 3892.00
52.8041 1517.00
53.1084 1035.00
53.4127 1012.00
53.7169 1094.00
54.0212 1053.00
54.3254 964.00
54.6297 992.00
54.934 1003.00
55.2382 1002.00
55.5425 1015.00
55.8467 992.00
56.151 1039.00
56.4553 1015.00
56.7595 962.00
57.0638 1113.00
57.368 1636.00
57.6723 2224.00
57.9766 3910.00
58.2808 1584.00
58.5851 1006.00
58.8893 961.00
59.1936 1042.00
59.4979 1174.00
59.8021 957.00
60.1064 924.00
60.4106 1000.00
60.7149 948.00
61.0192 1041.00
61.3234 1190.00
61.6277 1003.00
61.932 863.00
62.2362 907.00
62.5405 879.00
62.8447 817.00
63.149 860.00
63.4533 916.00
63.7575 863.00
64.0618 873.00
64.366 889.00
64.6703 863.00
64.9745 830.00
65.2788 809.00
65.5831 814.00
65.8873 836.00
66.1916 823.00
66.4959 869.00
66.8001 787.00
67.1044 937.00
67.4086 1140.00
67.7129 1081.00
68.0172 2183.00
68.3214 1132.00
68.6257 807.00
68.9299 803.00
69.2342 815.00
69.5385 731.00
69.8427 771.00
70.147 766.00
70.4512 743.00
70.7555 744.00
71.0598 803.00
71.364 774.00
71.6683 760.00
71.9725 955.00
72.2768 1033.00
72.5811 1224.00
72.8853 1504.00
73.1896 932.00
73.4938 690.00
73.7981 711.00
74.1024 710.00
74.4066 729.00
74.7109 725.00
75.0151 775.00
75.3194 713.00
75.6237 725.00
75.9279 781.00
76.2322 801.00
76.5364 824.00
76.8407 1026.00
77.145 1219.00
77.4492 1208.00
77.7535 1129.00
78.0577 726.00
78.362 704.00
78.6663 706.00
78.9705 635.00
79.2748 741.00
79.579 722.00
79.8833 747.00
80.1876 718.00
80.4918 688.00
80.7961 657.00
81.1003 691.00
81.4046 715.00
81.7089 866.00
82.0131 878.00
82.3174 795.00
82.6217 724.00
82.9259 606.00
83.2302 694.00
83.5344 679.00
83.8387 670.00
84.143 707.00
84.4472 673.00
84.7515 658.00
85.0557 713.00
85.36 613.00
85.6643 682.00
85.9685 783.00
86.2728 690.00
86.577 840.00
86.8813 838.00
87.1856 608.00
87.4898 631.00
87.7941 625.00
88.0983 648.00
88.4026 616.00
88.7069 627.00
89.0111 645.00
89.3154 660.00
89.6196 650.00
89.9239 727.00
90.2282 714.00
90.5324 755.00
90.8367 818.00
91.1409 861.00
91.4452 783.00
91.7495 656.00
92.0537 671.00
92.358 646.00
92.6622 655.00
92.9665 668.00
93.2708 640.00
93.575 673.00
93.8793 658.00
94.1835 655.00
94.4878 740.00
94.7921 835.00
95.0963 934.00
95.4006 1249.00
95.7048 1283.00
96.0091 868.00
96.3134 701.00
96.6176 639.00
96.9219 629.00
97.2261 676.00
97.5304 605.00
97.8347 576.00
98.1389 609.00
98.4432 577.00
98.7474 584.00
99.0517 591.00
99.356 602.00
99.6602 535.00
99.9645 615.00
100.095 635.00