File: data/xrd_creation/results/Na_30.xy
9.903433 2632.00
10.2077 2608.00
10.512 2306.00
10.8162 2242.00
11.1205 2126.00
11.4247 2082.00
11.729 1943.00
12.0333 1988.00
12.3375 1864.00
12.6418 1769.00
12.946 1661.00
13.2503 1684.00
13.5546 1624.00
13.8588 1531.00
14.1631 1465.00
14.4673 1411.00
14.7716 1329.00
15.0759 1376.00
15.3801 1353.00
15.6844 1330.00
15.9886 1375.00
16.2929 1287.00
16.5972 1242.00
16.9014 1255.00
17.2057 1146.00
17.5099 1175.00
17.8142 1128.00
18.1185 1148.00
18.4227 1050.00
18.727 1077.00
19.0312 1058.00
19.3355 1039.00
19.6398 1015.00
19.944 973.00
20.2483 948.00
20.5525 911.00
20.8568 853.00
21.1611 945.00
21.4653 925.00
21.7696 905.00
22.0738 936.00
22.3781 803.00
22.6824 855.00
22.9866 832.00
23.2909 817.00
23.5951 737.00
23.8994 763.00
24.2037 754.00
24.5079 794.00
24.8122 694.00
25.1164 761.00
25.4207 736.00
25.725 738.00
26.0292 772.00
26.3335 952.00
26.6378 763.00
26.942 685.00
27.2463 694.00
27.5505 729.00
27.8548 648.00
28.1591 705.00
28.4633 760.00
28.7676 1014.00
29.0718 742.00
29.3761 652.00
29.6804 643.00
29.9846 662.00
30.2889 633.00
30.5931 638.00
30.8974 609.00
31.2017 579.00
31.5059 598.00
31.8102 589.00
32.1144 525.00
32.4187 537.00
32.723 654.00
33.0272 586.00
33.3315 577.00
33.6357 786.00
33.94 563.00
34.2443 496.00
34.5485 488.00
34.8528 448.00
35.157 493.00
35.4613 499.00
35.7656 452.00
36.0698 448.00
36.3741 429.00
36.6783 446.00
36.9826 475.00
37.2869 419.00
37.5911 445.00
37.8954 460.00
38.1996 401.00
38.5039 432.00
38.8082 439.00
39.1124 389.00
39.4167 436.00
39.7209 419.00
40.0252 350.00
40.3295 353.00
40.6337 346.00
40.938 398.00
41.2422 344.00
41.5465 363.00
41.8508 390.00
42.155 379.00
42.4593 373.00
42.7635 419.00
43.0678 356.00
43.3721 367.00
43.6763 333.00
43.9806 372.00
44.2849 353.00
44.5891 347.00
44.8934 315.00
45.1976 361.00
45.5019 343.00
45.8062 314.00
46.1104 345.00
46.4147 311.00
46.7189 301.00
47.0232 354.00
47.3275 322.00
47.6317 318.00
47.936 361.00
48.2402 430.00
48.5445 312.00
48.8488 319.00
49.153 284.00
49.4573 292.00
49.7615 257.00
50.0658 325.00
50.3701 312.00
50.6743 296.00
50.9786 344.00
51.2828 307.00
51.5871 454.00
51.8914 313.00
52.1956 304.00
52.4999 279.00
52.8041 285.00
53.1084 292.00
53.4127 258.00
53.7169 282.00
54.0212 280.00
54.3254 294.00
54.6297 314.00
54.934 280.00
55.2382 271.00
55.5425 272.00
55.8467 266.00
56.151 256.00
56.4553 269.00
56.7595 256.00
57.0638 297.00
57.368 314.00
57.6723 266.00
57.9766 228.00
58.2808 225.00
58.5851 237.00
58.8893 205.00
59.1936 215.00
59.4979 206.00
59.8021 225.00
60.1064 272.00
60.4106 230.00
60.7149 219.00
61.0192 257.00
61.3234 217.00
61.6277 228.00
61.932 225.00
62.2362 239.00
62.5405 221.00
62.8447 226.00
63.149 197.00
63.4533 212.00
63.7575 227.00
64.0618 204.00
64.366 210.00
64.6703 205.00
64.9745 261.00
65.2788 221.00
65.5831 231.00
65.8873 244.00
66.1916 212.00
66.4959 190.00
66.8001 202.00
67.1044 224.00
67.4086 215.00
67.7129 218.00
68.0172 231.00
68.3214 197.00
68.6257 186.00
68.9299 215.00
69.2342 211.00
69.5385 210.00
69.8427 243.00
70.147 201.00
70.4512 214.00
70.7555 205.00
71.0598 193.00
71.364 190.00
71.6683 197.00
71.9725 224.00
72.2768 225.00
72.5811 209.00
72.8853 206.00
73.1896 212.00
73.4938 228.00
73.7981 227.00
74.1024 213.00
74.4066 220.00
74.7109 190.00
75.0151 208.00
75.3194 217.00
75.6237 233.00
75.9279 206.00
76.2322 232.00
76.5364 219.00
76.8407 233.00
77.145 259.00
77.4492 232.00
77.7535 262.00
78.0577 274.00
78.362 231.00
78.6663 227.00
78.9705 223.00
79.2748 247.00
79.579 240.00
79.8833 245.00
80.1876 234.00
80.4918 286.00
80.7961 233.00
81.1003 261.00
81.4046 225.00
81.7089 249.00
82.0131 234.00
82.3174 244.00
82.6217 264.00
82.9259 240.00
83.2302 246.00
83.5344 231.00
83.8387 231.00
84.143 202.00
84.4472 230.00
84.7515 226.00
85.0557 246.00
85.36 204.00
85.6643 209.00
85.9685 172.00
86.2728 245.00
86.577 213.00
86.8813 207.00
87.1856 192.00
87.4898 185.00
87.7941 211.00
88.0983 205.00
88.4026 186.00
88.7069 199.00
89.0111 186.00
89.3154 191.00
89.6196 229.00
89.9239 211.00
90.2282 213.00
90.5324 176.00
90.8367 211.00
91.1409 210.00
91.4452 193.00
91.7495 176.00
92.0537 182.00
92.358 193.00
92.6622 222.00
92.9665 186.00
93.2708 203.00
93.575 197.00
93.8793 190.00
94.1835 205.00
94.4878 206.00
94.7921 168.00
95.0963 179.00
95.4006 192.00
95.7048 168.00
96.0091 176.00
96.3134 188.00
96.6176 206.00
96.9219 194.00
97.2261 204.00
97.5304 225.00
97.8347 195.00
98.1389 205.00
98.4432 207.00
98.7474 183.00
99.0517 202.00
99.356 161.00
99.6602 172.00
99.9645 203.00
100.095 213.00