File: data/xrd_creation/results/Na_37.xy
9.903433 2661.00
10.2077 2617.00
10.512 2551.00
10.8162 2483.00
11.1205 2391.00
11.4247 2354.00
11.729 2173.00
12.0333 2121.00
12.3375 2054.00
12.6418 2049.00
12.946 2007.00
13.2503 1833.00
13.5546 1833.00
13.8588 1857.00
14.1631 1701.00
14.4673 1797.00
14.7716 1712.00
15.0759 1784.00
15.3801 1736.00
15.6844 1614.00
15.9886 1565.00
16.2929 1590.00
16.5972 1572.00
16.9014 1570.00
17.2057 1465.00
17.5099 1541.00
17.8142 1382.00
18.1185 1395.00
18.4227 1316.00
18.727 1484.00
19.0312 1457.00
19.3355 1344.00
19.6398 1342.00
19.944 1651.00
20.2483 2810.00
20.5525 1244.00
20.8568 1220.00
21.1611 1179.00
21.4653 1119.00
21.7696 1126.00
22.0738 1093.00
22.3781 1145.00
22.6824 1117.00
22.9866 1058.00
23.2909 1139.00
23.5951 1023.00
23.8994 1046.00
24.2037 976.00
24.5079 951.00
24.8122 957.00
25.1164 959.00
25.4207 943.00
25.725 1036.00
26.0292 1142.00
26.3335 2102.00
26.6378 8791.00
26.942 4040.00
27.2463 1224.00
27.5505 986.00
27.8548 975.00
28.1591 884.00
28.4633 828.00
28.7676 814.00
29.0718 783.00
29.3761 796.00
29.6804 821.00
29.9846 698.00
30.2889 747.00
30.5931 773.00
30.8974 727.00
31.2017 741.00
31.5059 733.00
31.8102 728.00
32.1144 727.00
32.4187 772.00
32.723 1396.00
33.0272 1640.00
33.3315 2467.00
33.6357 1674.00
33.94 7492.00
34.2443 3415.00
34.5485 947.00
34.8528 763.00
35.157 717.00
35.4613 658.00
35.7656 629.00
36.0698 657.00
36.3741 624.00
36.6783 626.00
36.9826 710.00
37.2869 742.00
37.5911 746.00
37.8954 1437.00
38.1996 2590.00
38.5039 1005.00
38.8082 839.00
39.1124 1070.00
39.4167 658.00
39.7209 510.00
40.0252 493.00
40.3295 484.00
40.6337 453.00
40.938 459.00
41.2422 442.00
41.5465 439.00
41.8508 444.00
42.155 447.00
42.4593 442.00
42.7635 663.00
43.0678 498.00
43.3721 448.00
43.6763 584.00
43.9806 551.00
44.2849 415.00
44.5891 425.00
44.8934 531.00
45.1976 467.00
45.5019 448.00
45.8062 393.00
46.1104 417.00
46.4147 391.00
46.7189 413.00
47.0232 427.00
47.3275 730.00
47.6317 623.00
47.936 428.00
48.2402 389.00
48.5445 364.00
48.8488 405.00
49.153 415.00
49.4573 392.00
49.7615 401.00
50.0658 383.00
50.3701 429.00
50.6743 415.00
50.9786 426.00
51.2828 551.00
51.5871 1339.00
51.8914 7359.00
52.1956 2297.00
52.4999 714.00
52.8041 405.00
53.1084 418.00
53.4127 379.00
53.7169 403.00
54.0212 439.00
54.3254 492.00
54.6297 782.00
54.934 2068.00
55.2382 671.00
55.5425 440.00
55.8467 396.00
56.151 445.00
56.4553 367.00
56.7595 404.00
57.0638 371.00
57.368 408.00
57.6723 494.00
57.9766 1114.00
58.2808 544.00
58.5851 346.00
58.8893 431.00
59.1936 616.00
59.4979 540.00
59.8021 452.00
60.1064 336.00
60.4106 366.00
60.7149 320.00
61.0192 357.00
61.3234 386.00
61.6277 479.00
61.932 1550.00
62.2362 1129.00
62.5405 455.00
62.8447 479.00
63.149 467.00
63.4533 349.00
63.7575 333.00
64.0618 372.00
64.366 402.00
64.6703 936.00
64.9745 1686.00
65.2788 737.00
65.5831 637.00
65.8873 1033.00
66.1916 2064.00
66.4959 575.00
66.8001 333.00
67.1044 309.00
67.4086 301.00
67.7129 284.00
68.0172 262.00
68.3214 270.00
68.6257 279.00
68.9299 286.00
69.2342 271.00
69.5385 309.00
69.8427 352.00
70.147 357.00
70.4512 291.00
70.7555 265.00
71.0598 386.00
71.364 1017.00
71.6683 589.00
71.9725 309.00
72.2768 260.00
72.5811 277.00
72.8853 290.00
73.1896 329.00
73.4938 275.00
73.7981 277.00
74.1024 261.00
74.4066 240.00
74.7109 286.00
75.0151 230.00
75.3194 290.00
75.6237 283.00
75.9279 271.00
76.2322 267.00
76.5364 287.00
76.8407 237.00
77.145 272.00
77.4492 207.00
77.7535 239.00
78.0577 292.00
78.362 337.00
78.6663 878.00
78.9705 1206.00
79.2748 547.00
79.579 347.00
79.8833 290.00
80.1876 268.00
80.4918 259.00
80.7961 294.00
81.1003 408.00
81.4046 508.00
81.7089 314.00
82.0131 265.00
82.3174 286.00
82.6217 291.00
82.9259 281.00
83.2302 295.00
83.5344 425.00
83.8387 1099.00
84.143 671.00
84.4472 334.00
84.7515 327.00
85.0557 351.00
85.36 261.00
85.6643 256.00
85.9685 245.00
86.2728 236.00
86.577 303.00
86.8813 303.00
87.1856 459.00
87.4898 509.00
87.7941 284.00
88.0983 259.00
88.4026 233.00
88.7069 312.00
89.0111 281.00
89.3154 304.00
89.6196 456.00
89.9239 1208.00
90.2282 749.00
90.5324 404.00
90.8367 760.00
91.1409 973.00
91.4452 509.00
91.7495 313.00
92.0537 288.00
92.358 289.00
92.6622 299.00
92.9665 297.00
93.2708 603.00
93.575 540.00
93.8793 322.00
94.1835 261.00
94.4878 245.00
94.7921 217.00
95.0963 257.00
95.4006 244.00
95.7048 281.00
96.0091 562.00
96.3134 481.00
96.6176 277.00
96.9219 240.00
97.2261 232.00
97.5304 209.00
97.8347 246.00
98.1389 262.00
98.4432 275.00
98.7474 284.00
99.0517 268.00
99.356 220.00
99.6602 213.00
99.9645 230.00
100.095 250.00