File: data/xrd_creation/results/Na_305.xy
9.903433 2805.00
10.2077 2821.00
10.512 3729.00
10.8162 2640.00
11.1205 2856.00
11.4247 2978.00
11.729 3170.00
12.0333 5632.00
12.3375 2623.00
12.6418 2413.00
12.946 2789.00
13.2503 2371.00
13.5546 2280.00
13.8588 2604.00
14.1631 2499.00
14.4673 2030.00
14.7716 1972.00
15.0759 1907.00
15.3801 2003.00
15.6844 1897.00
15.9886 1927.00
16.2929 1896.00
16.5972 2073.00
16.9014 1831.00
17.2057 1810.00
17.5099 1857.00
17.8142 2473.00
18.1185 1723.00
18.4227 1736.00
18.727 1735.00
19.0312 1665.00
19.3355 2046.00
19.6398 5369.00
19.944 4345.00
20.2483 1706.00
20.5525 1643.00
20.8568 2098.00
21.1611 1714.00
21.4653 1550.00
21.7696 1543.00
22.0738 1644.00
22.3781 1660.00
22.6824 1788.00
22.9866 4426.00
23.2909 3100.00
23.5951 1632.00
23.8994 2099.00
24.2037 3798.00
24.5079 4231.00
24.8122 2573.00
25.1164 1747.00
25.4207 1606.00
25.725 1549.00
26.0292 1719.00
26.3335 2274.00
26.6378 1486.00
26.942 1601.00
27.2463 1779.00
27.5505 1582.00
27.8548 2846.00
28.1591 1940.00
28.4633 4782.00
28.7676 8148.00
29.0718 1916.00
29.3761 1556.00
29.6804 1708.00
29.9846 1844.00
30.2889 3496.00
30.5931 2430.00
30.8974 1883.00
31.2017 5288.00
31.5059 4098.00
31.8102 5142.00
32.1144 5332.00
32.4187 1747.00
32.723 1506.00
33.0272 1397.00
33.3315 1424.00
33.6357 1539.00
33.94 3329.00
34.2443 9126.00
34.5485 4474.00
34.8528 4406.00
35.157 1645.00
35.4613 1517.00
35.7656 4497.00
36.0698 1702.00
36.3741 3504.00
36.6783 1516.00
36.9826 1272.00
37.2869 1199.00
37.5911 1300.00
37.8954 1218.00
38.1996 1075.00
38.5039 1166.00
38.8082 1235.00
39.1124 2415.00
39.4167 1317.00
39.7209 1387.00
40.0252 1400.00
40.3295 1429.00
40.6337 1418.00
40.938 1399.00
41.2422 2951.00
41.5465 2447.00
41.8508 2247.00
42.155 1792.00
42.4593 1556.00
42.7635 1231.00
43.0678 1182.00
43.3721 1525.00
43.6763 1265.00
43.9806 1141.00
44.2849 1173.00
44.5891 1549.00
44.8934 1205.00
45.1976 1353.00
45.5019 1640.00
45.8062 1389.00
46.1104 2362.00
46.4147 1904.00
46.7189 2096.00
47.0232 2953.00
47.3275 1284.00
47.6317 1192.00
47.936 1240.00
48.2402 1231.00
48.5445 1198.00
48.8488 1575.00
49.153 2197.00
49.4573 1680.00
49.7615 2832.00
50.0658 1828.00
50.3701 1459.00
50.6743 4961.00
50.9786 2402.00
51.2828 2872.00
51.5871 1507.00
51.8914 1674.00
52.1956 1205.00
52.4999 1217.00
52.8041 1275.00
53.1084 2864.00
53.4127 1401.00
53.7169 1395.00
54.0212 1266.00
54.3254 1281.00
54.6297 2464.00
54.934 2357.00
55.2382 1472.00
55.5425 1391.00
55.8467 2044.00
56.151 3108.00
56.4553 2188.00
56.7595 1505.00
57.0638 1200.00
57.368 1143.00
57.6723 1519.00
57.9766 1823.00
58.2808 1288.00
58.5851 2039.00
58.8893 2068.00
59.1936 2415.00
59.4979 1362.00
59.8021 1116.00
60.1064 1249.00
60.4106 2266.00
60.7149 2749.00
61.0192 2362.00
61.3234 1711.00
61.6277 1387.00
61.932 1757.00
62.2362 1978.00
62.5405 2269.00
62.8447 1654.00
63.149 1371.00
63.4533 1962.00
63.7575 1639.00
64.0618 1068.00
64.366 1079.00
64.6703 1283.00
64.9745 1662.00
65.2788 1355.00
65.5831 1136.00
65.8873 1607.00
66.1916 1897.00
66.4959 2220.00
66.8001 1484.00
67.1044 1070.00
67.4086 1062.00
67.7129 1041.00
68.0172 1064.00
68.3214 1142.00
68.6257 953.00
68.9299 1019.00
69.2342 1067.00
69.5385 1373.00
69.8427 1303.00
70.147 983.00
70.4512 1056.00
70.7555 1008.00
71.0598 1080.00
71.364 1195.00
71.6683 1471.00
71.9725 1847.00
72.2768 1247.00
72.5811 1116.00
72.8853 1406.00
73.1896 1301.00
73.4938 1305.00
73.7981 1005.00
74.1024 969.00
74.4066 952.00
74.7109 937.00
75.0151 1101.00
75.3194 1112.00
75.6237 1287.00
75.9279 1497.00
76.2322 1262.00
76.5364 1065.00
76.8407 1152.00
77.145 1253.00
77.4492 1154.00
77.7535 1005.00
78.0577 1089.00
78.362 1049.00
78.6663 1016.00
78.9705 1052.00
79.2748 992.00
79.579 1235.00
79.8833 1505.00
80.1876 1263.00
80.4918 1007.00
80.7961 954.00
81.1003 1003.00
81.4046 1159.00
81.7089 1129.00
82.0131 1192.00
82.3174 1323.00
82.6217 1158.00
82.9259 1131.00
83.2302 1102.00
83.5344 1191.00
83.8387 1244.00
84.143 1326.00
84.4472 1131.00
84.7515 1286.00
85.0557 1307.00
85.36 1157.00
85.6643 1223.00
85.9685 1281.00
86.2728 1122.00
86.577 1162.00
86.8813 1240.00
87.1856 1204.00
87.4898 949.00
87.7941 986.00
88.0983 1083.00
88.4026 1137.00
88.7069 1121.00
89.0111 1297.00
89.3154 1375.00
89.6196 1371.00
89.9239 1134.00
90.2282 1104.00
90.5324 1297.00
90.8367 1330.00
91.1409 1079.00
91.4452 1091.00
91.7495 1024.00
92.0537 961.00
92.358 1126.00
92.6622 981.00
92.9665 1035.00
93.2708 927.00
93.575 930.00
93.8793 879.00
94.1835 999.00
94.4878 1053.00
94.7921 1145.00
95.0963 1043.00
95.4006 1040.00
95.7048 1212.00
96.0091 1323.00
96.3134 1101.00
96.6176 1032.00
96.9219 1114.00
97.2261 1162.00
97.5304 1352.00
97.8347 1375.00
98.1389 1183.00
98.4432 1052.00
98.7474 1093.00
99.0517 1129.00
99.356 1116.00
99.6602 1409.00
99.9645 1161.00
100.095 1215.00