File: data/xrd_creation/results/Na_32.xy
9.903433 2470.00
10.2077 2489.00
10.512 2319.00
10.8162 2293.00
11.1205 2215.00
11.4247 2070.00
11.729 1900.00
12.0333 1991.00
12.3375 1813.00
12.6418 1818.00
12.946 1564.00
13.2503 1551.00
13.5546 1522.00
13.8588 1473.00
14.1631 1448.00
14.4673 1339.00
14.7716 1399.00
15.0759 1345.00
15.3801 1290.00
15.6844 1275.00
15.9886 1245.00
16.2929 1243.00
16.5972 1197.00
16.9014 1129.00
17.2057 1163.00
17.5099 1156.00
17.8142 1109.00
18.1185 1094.00
18.4227 1011.00
18.727 1010.00
19.0312 972.00
19.3355 967.00
19.6398 916.00
19.944 927.00
20.2483 900.00
20.5525 917.00
20.8568 860.00
21.1611 820.00
21.4653 819.00
21.7696 822.00
22.0738 827.00
22.3781 835.00
22.6824 778.00
22.9866 732.00
23.2909 723.00
23.5951 752.00
23.8994 761.00
24.2037 729.00
24.5079 726.00
24.8122 720.00
25.1164 687.00
25.4207 712.00
25.725 626.00
26.0292 648.00
26.3335 569.00
26.6378 669.00
26.942 608.00
27.2463 607.00
27.5505 574.00
27.8548 617.00
28.1591 615.00
28.4633 618.00
28.7676 576.00
29.0718 557.00
29.3761 568.00
29.6804 522.00
29.9846 592.00
30.2889 523.00
30.5931 493.00
30.8974 533.00
31.2017 519.00
31.5059 497.00
31.8102 495.00
32.1144 489.00
32.4187 474.00
32.723 491.00
33.0272 456.00
33.3315 405.00
33.6357 479.00
33.94 435.00
34.2443 408.00
34.5485 403.00
34.8528 416.00
35.157 430.00
35.4613 440.00
35.7656 417.00
36.0698 449.00
36.3741 366.00
36.6783 387.00
36.9826 352.00
37.2869 383.00
37.5911 385.00
37.8954 337.00
38.1996 399.00
38.5039 370.00
38.8082 304.00
39.1124 338.00
39.4167 359.00
39.7209 351.00
40.0252 314.00
40.3295 327.00
40.6337 346.00
40.938 306.00
41.2422 320.00
41.5465 333.00
41.8508 352.00
42.155 294.00
42.4593 301.00
42.7635 280.00
43.0678 323.00
43.3721 286.00
43.6763 305.00
43.9806 297.00
44.2849 265.00
44.5891 282.00
44.8934 290.00
45.1976 261.00
45.5019 258.00
45.8062 276.00
46.1104 313.00
46.4147 266.00
46.7189 274.00
47.0232 280.00
47.3275 263.00
47.6317 299.00
47.936 287.00
48.2402 271.00
48.5445 248.00
48.8488 277.00
49.153 244.00
49.4573 271.00
49.7615 271.00
50.0658 292.00
50.3701 262.00
50.6743 247.00
50.9786 275.00
51.2828 263.00
51.5871 220.00
51.8914 245.00
52.1956 224.00
52.4999 271.00
52.8041 215.00
53.1084 206.00
53.4127 202.00
53.7169 207.00
54.0212 227.00
54.3254 249.00
54.6297 260.00
54.934 214.00
55.2382 203.00
55.5425 210.00
55.8467 227.00
56.151 218.00
56.4553 208.00
56.7595 200.00
57.0638 201.00
57.368 198.00
57.6723 206.00
57.9766 179.00
58.2808 202.00
58.5851 219.00
58.8893 170.00
59.1936 197.00
59.4979 217.00
59.8021 190.00
60.1064 202.00
60.4106 213.00
60.7149 203.00
61.0192 196.00
61.3234 186.00
61.6277 210.00
61.932 177.00
62.2362 167.00
62.5405 184.00
62.8447 172.00
63.149 194.00
63.4533 183.00
63.7575 192.00
64.0618 199.00
64.366 175.00
64.6703 198.00
64.9745 174.00
65.2788 183.00
65.5831 177.00
65.8873 162.00
66.1916 175.00
66.4959 187.00
66.8001 218.00
67.1044 187.00
67.4086 172.00
67.7129 176.00
68.0172 174.00
68.3214 193.00
68.6257 204.00
68.9299 175.00
69.2342 189.00
69.5385 181.00
69.8427 191.00
70.147 204.00
70.4512 178.00
70.7555 187.00
71.0598 198.00
71.364 171.00
71.6683 177.00
71.9725 185.00
72.2768 159.00
72.5811 156.00
72.8853 187.00
73.1896 185.00
73.4938 182.00
73.7981 182.00
74.1024 186.00
74.4066 197.00
74.7109 182.00
75.0151 188.00
75.3194 194.00
75.6237 203.00
75.9279 168.00
76.2322 185.00
76.5364 226.00
76.8407 194.00
77.145 181.00
77.4492 201.00
77.7535 208.00
78.0577 213.00
78.362 206.00
78.6663 219.00
78.9705 224.00
79.2748 212.00
79.579 208.00
79.8833 229.00
80.1876 221.00
80.4918 231.00
80.7961 224.00
81.1003 215.00
81.4046 203.00
81.7089 209.00
82.0131 191.00
82.3174 226.00
82.6217 196.00
82.9259 227.00
83.2302 209.00
83.5344 207.00
83.8387 209.00
84.143 208.00
84.4472 194.00
84.7515 239.00
85.0557 188.00
85.36 192.00
85.6643 190.00
85.9685 201.00
86.2728 163.00
86.577 181.00
86.8813 197.00
87.1856 176.00
87.4898 182.00
87.7941 182.00
88.0983 194.00
88.4026 200.00
88.7069 194.00
89.0111 186.00
89.3154 186.00
89.6196 174.00
89.9239 155.00
90.2282 169.00
90.5324 161.00
90.8367 179.00
91.1409 176.00
91.4452 172.00
91.7495 168.00
92.0537 182.00
92.358 183.00
92.6622 162.00
92.9665 162.00
93.2708 185.00
93.575 170.00
93.8793 165.00
94.1835 163.00
94.4878 183.00
94.7921 151.00
95.0963 163.00
95.4006 181.00
95.7048 156.00
96.0091 185.00
96.3134 189.00
96.6176 195.00
96.9219 171.00
97.2261 172.00
97.5304 190.00
97.8347 185.00
98.1389 184.00
98.4432 155.00
98.7474 181.00
99.0517 172.00
99.356 166.00
99.6602 182.00
99.9645 143.00
100.095 181.00