File: data/xrd_creation/results/Na_35.xy
9.903433 2561.00
10.2077 2408.00
10.512 2368.00
10.8162 2243.00
11.1205 2261.00
11.4247 2060.00
11.729 1984.00
12.0333 1902.00
12.3375 1901.00
12.6418 1775.00
12.946 1674.00
13.2503 1601.00
13.5546 1512.00
13.8588 1477.00
14.1631 1518.00
14.4673 1455.00
14.7716 1377.00
15.0759 1371.00
15.3801 1346.00
15.6844 1351.00
15.9886 1302.00
16.2929 1192.00
16.5972 1241.00
16.9014 1216.00
17.2057 1193.00
17.5099 1228.00
17.8142 1111.00
18.1185 1108.00
18.4227 1052.00
18.727 1103.00
19.0312 944.00
19.3355 1021.00
19.6398 952.00
19.944 931.00
20.2483 935.00
20.5525 930.00
20.8568 845.00
21.1611 829.00
21.4653 858.00
21.7696 866.00
22.0738 878.00
22.3781 867.00
22.6824 803.00
22.9866 772.00
23.2909 802.00
23.5951 767.00
23.8994 738.00
24.2037 700.00
24.5079 770.00
24.8122 765.00
25.1164 757.00
25.4207 681.00
25.725 735.00
26.0292 679.00
26.3335 632.00
26.6378 648.00
26.942 586.00
27.2463 699.00
27.5505 616.00
27.8548 624.00
28.1591 679.00
28.4633 644.00
28.7676 606.00
29.0718 643.00
29.3761 601.00
29.6804 596.00
29.9846 585.00
30.2889 579.00
30.5931 591.00
30.8974 514.00
31.2017 570.00
31.5059 604.00
31.8102 558.00
32.1144 529.00
32.4187 510.00
32.723 543.00
33.0272 500.00
33.3315 476.00
33.6357 458.00
33.94 507.00
34.2443 464.00
34.5485 435.00
34.8528 425.00
35.157 456.00
35.4613 406.00
35.7656 385.00
36.0698 427.00
36.3741 415.00
36.6783 429.00
36.9826 424.00
37.2869 418.00
37.5911 408.00
37.8954 400.00
38.1996 368.00
38.5039 325.00
38.8082 351.00
39.1124 364.00
39.4167 338.00
39.7209 329.00
40.0252 395.00
40.3295 357.00
40.6337 340.00
40.938 364.00
41.2422 359.00
41.5465 347.00
41.8508 337.00
42.155 330.00
42.4593 317.00
42.7635 310.00
43.0678 314.00
43.3721 313.00
43.6763 286.00
43.9806 323.00
44.2849 304.00
44.5891 282.00
44.8934 309.00
45.1976 296.00
45.5019 340.00
45.8062 303.00
46.1104 303.00
46.4147 312.00
46.7189 311.00
47.0232 279.00
47.3275 292.00
47.6317 275.00
47.936 303.00
48.2402 302.00
48.5445 357.00
48.8488 323.00
49.153 303.00
49.4573 276.00
49.7615 262.00
50.0658 269.00
50.3701 286.00
50.6743 246.00
50.9786 241.00
51.2828 260.00
51.5871 265.00
51.8914 242.00
52.1956 267.00
52.4999 261.00
52.8041 261.00
53.1084 236.00
53.4127 223.00
53.7169 237.00
54.0212 256.00
54.3254 246.00
54.6297 238.00
54.934 262.00
55.2382 257.00
55.5425 202.00
55.8467 248.00
56.151 241.00
56.4553 237.00
56.7595 226.00
57.0638 221.00
57.368 272.00
57.6723 248.00
57.9766 241.00
58.2808 203.00
58.5851 198.00
58.8893 239.00
59.1936 249.00
59.4979 194.00
59.8021 213.00
60.1064 208.00
60.4106 201.00
60.7149 262.00
61.0192 195.00
61.3234 186.00
61.6277 179.00
61.932 175.00
62.2362 192.00
62.5405 184.00
62.8447 194.00
63.149 208.00
63.4533 195.00
63.7575 217.00
64.0618 206.00
64.366 182.00
64.6703 172.00
64.9745 205.00
65.2788 178.00
65.5831 167.00
65.8873 199.00
66.1916 195.00
66.4959 168.00
66.8001 196.00
67.1044 193.00
67.4086 177.00
67.7129 195.00
68.0172 185.00
68.3214 184.00
68.6257 209.00
68.9299 220.00
69.2342 168.00
69.5385 186.00
69.8427 202.00
70.147 202.00
70.4512 219.00
70.7555 185.00
71.0598 214.00
71.364 215.00
71.6683 228.00
71.9725 212.00
72.2768 187.00
72.5811 180.00
72.8853 184.00
73.1896 207.00
73.4938 186.00
73.7981 211.00
74.1024 206.00
74.4066 205.00
74.7109 205.00
75.0151 194.00
75.3194 204.00
75.6237 224.00
75.9279 199.00
76.2322 186.00
76.5364 217.00
76.8407 221.00
77.145 231.00
77.4492 198.00
77.7535 186.00
78.0577 209.00
78.362 208.00
78.6663 221.00
78.9705 227.00
79.2748 210.00
79.579 216.00
79.8833 231.00
80.1876 214.00
80.4918 232.00
80.7961 218.00
81.1003 209.00
81.4046 242.00
81.7089 290.00
82.0131 226.00
82.3174 204.00
82.6217 231.00
82.9259 216.00
83.2302 222.00
83.5344 226.00
83.8387 198.00
84.143 202.00
84.4472 218.00
84.7515 260.00
85.0557 220.00
85.36 207.00
85.6643 209.00
85.9685 192.00
86.2728 209.00
86.577 227.00
86.8813 203.00
87.1856 196.00
87.4898 225.00
87.7941 225.00
88.0983 199.00
88.4026 172.00
88.7069 202.00
89.0111 189.00
89.3154 211.00
89.6196 193.00
89.9239 193.00
90.2282 223.00
90.5324 211.00
90.8367 191.00
91.1409 207.00
91.4452 187.00
91.7495 205.00
92.0537 195.00
92.358 199.00
92.6622 188.00
92.9665 178.00
93.2708 176.00
93.575 205.00
93.8793 211.00
94.1835 179.00
94.4878 184.00
94.7921 195.00
95.0963 182.00
95.4006 199.00
95.7048 204.00
96.0091 186.00
96.3134 191.00
96.6176 174.00
96.9219 174.00
97.2261 185.00
97.5304 217.00
97.8347 162.00
98.1389 183.00
98.4432 205.00
98.7474 210.00
99.0517 187.00
99.356 166.00
99.6602 171.00
99.9645 162.00
100.095 188.00