File: data/xrd_creation/results/Na_302.xy
9.903433 2736.00
10.2077 2846.00
10.512 2653.00
10.8162 2620.00
11.1205 2440.00
11.4247 2423.00
11.729 2293.00
12.0333 2330.00
12.3375 2274.00
12.6418 2176.00
12.946 2181.00
13.2503 2114.00
13.5546 2105.00
13.8588 2091.00
14.1631 2060.00
14.4673 2073.00
14.7716 2041.00
15.0759 2075.00
15.3801 1996.00
15.6844 2019.00
15.9886 1962.00
16.2929 1914.00
16.5972 2158.00
16.9014 2069.00
17.2057 2043.00
17.5099 2159.00
17.8142 2111.00
18.1185 2166.00
18.4227 2131.00
18.727 2293.00
19.0312 2339.00
19.3355 2288.00
19.6398 2404.00
19.944 2606.00
20.2483 2567.00
20.5525 2761.00
20.8568 2649.00
21.1611 2819.00
21.4653 2938.00
21.7696 2822.00
22.0738 2794.00
22.3781 2780.00
22.6824 2722.00
22.9866 2679.00
23.2909 2529.00
23.5951 2565.00
23.8994 2552.00
24.2037 2445.00
24.5079 2533.00
24.8122 2434.00
25.1164 2441.00
25.4207 2329.00
25.725 2382.00
26.0292 2389.00
26.3335 2447.00
26.6378 2484.00
26.942 2400.00
27.2463 2374.00
27.5505 2416.00
27.8548 2429.00
28.1591 2424.00
28.4633 2426.00
28.7676 2462.00
29.0718 2505.00
29.3761 2501.00
29.6804 2442.00
29.9846 2503.00
30.2889 2542.00
30.5931 2457.00
30.8974 2376.00
31.2017 2438.00
31.5059 2458.00
31.8102 2443.00
32.1144 2372.00
32.4187 2326.00
32.723 2288.00
33.0272 2365.00
33.3315 2297.00
33.6357 2213.00
33.94 2121.00
34.2443 2135.00
34.5485 2045.00
34.8528 2027.00
35.157 1869.00
35.4613 1919.00
35.7656 1861.00
36.0698 1814.00
36.3741 1819.00
36.6783 1708.00
36.9826 1689.00
37.2869 1574.00
37.5911 1532.00
37.8954 1520.00
38.1996 1504.00
38.5039 1480.00
38.8082 1438.00
39.1124 1430.00
39.4167 1422.00
39.7209 1417.00
40.0252 1363.00
40.3295 1439.00
40.6337 1374.00
40.938 1258.00
41.2422 1274.00
41.5465 1335.00
41.8508 1405.00
42.155 1292.00
42.4593 1276.00
42.7635 1239.00
43.0678 1300.00
43.3721 1325.00
43.6763 1310.00
43.9806 1269.00
44.2849 1314.00
44.5891 1310.00
44.8934 1248.00
45.1976 1272.00
45.5019 1250.00
45.8062 1202.00
46.1104 1235.00
46.4147 1278.00
46.7189 1193.00
47.0232 1221.00
47.3275 1244.00
47.6317 1308.00
47.936 1263.00
48.2402 1268.00
48.5445 1167.00
48.8488 1172.00
49.153 1188.00
49.4573 1132.00
49.7615 1242.00
50.0658 1111.00
50.3701 1181.00
50.6743 1169.00
50.9786 1175.00
51.2828 1212.00
51.5871 1158.00
51.8914 1186.00
52.1956 1197.00
52.4999 1107.00
52.8041 1104.00
53.1084 1082.00
53.4127 1127.00
53.7169 1116.00
54.0212 1062.00
54.3254 1114.00
54.6297 1186.00
54.934 1108.00
55.2382 1146.00
55.5425 1107.00
55.8467 1129.00
56.151 1113.00
56.4553 1092.00
56.7595 1079.00
57.0638 1153.00
57.368 1154.00
57.6723 1210.00
57.9766 1100.00
58.2808 1131.00
58.5851 1194.00
58.8893 1100.00
59.1936 1121.00
59.4979 1124.00
59.8021 1121.00
60.1064 1163.00
60.4106 1073.00
60.7149 1135.00
61.0192 1121.00
61.3234 1098.00
61.6277 1169.00
61.932 1144.00
62.2362 1115.00
62.5405 1093.00
62.8447 1078.00
63.149 1135.00
63.4533 1148.00
63.7575 1042.00
64.0618 1154.00
64.366 1110.00
64.6703 1124.00
64.9745 1089.00
65.2788 1042.00
65.5831 1135.00
65.8873 1069.00
66.1916 1027.00
66.4959 1066.00
66.8001 1071.00
67.1044 1007.00
67.4086 1032.00
67.7129 1022.00
68.0172 1053.00
68.3214 966.00
68.6257 1031.00
68.9299 966.00
69.2342 951.00
69.5385 949.00
69.8427 959.00
70.147 979.00
70.4512 901.00
70.7555 987.00
71.0598 959.00
71.364 982.00
71.6683 904.00
71.9725 920.00
72.2768 943.00
72.5811 908.00
72.8853 925.00
73.1896 957.00
73.4938 914.00
73.7981 836.00
74.1024 878.00
74.4066 870.00
74.7109 873.00
75.0151 802.00
75.3194 790.00
75.6237 889.00
75.9279 861.00
76.2322 878.00
76.5364 804.00
76.8407 807.00
77.145 818.00
77.4492 804.00
77.7535 791.00
78.0577 820.00
78.362 810.00
78.6663 810.00
78.9705 787.00
79.2748 797.00
79.579 778.00
79.8833 736.00
80.1876 721.00
80.4918 754.00
80.7961 733.00
81.1003 713.00
81.4046 734.00
81.7089 765.00
82.0131 743.00
82.3174 713.00
82.6217 721.00
82.9259 694.00
83.2302 717.00
83.5344 745.00
83.8387 678.00
84.143 738.00
84.4472 691.00
84.7515 698.00
85.0557 745.00
85.36 696.00
85.6643 647.00
85.9685 688.00
86.2728 706.00
86.577 672.00
86.8813 717.00
87.1856 644.00
87.4898 733.00
87.7941 723.00
88.0983 665.00
88.4026 689.00
88.7069 622.00
89.0111 694.00
89.3154 657.00
89.6196 645.00
89.9239 671.00
90.2282 640.00
90.5324 694.00
90.8367 723.00
91.1409 664.00
91.4452 689.00
91.7495 663.00
92.0537 661.00
92.358 695.00
92.6622 637.00
92.9665 675.00
93.2708 718.00
93.575 708.00
93.8793 654.00
94.1835 681.00
94.4878 664.00
94.7921 689.00
95.0963 653.00
95.4006 636.00
95.7048 672.00
96.0091 648.00
96.3134 634.00
96.6176 653.00
96.9219 631.00
97.2261 710.00
97.5304 648.00
97.8347 649.00
98.1389 621.00
98.4432 654.00
98.7474 652.00
99.0517 661.00
99.356 610.00
99.6602 664.00
99.9645 678.00
100.095 653.00