File: data/xrd_creation/results/Na_308.xy
9.903433 2850.00
10.2077 2873.00
10.512 3706.00
10.8162 2760.00
11.1205 2870.00
11.4247 2661.00
11.729 3023.00
12.0333 5535.00
12.3375 2661.00
12.6418 2319.00
12.946 2710.00
13.2503 2358.00
13.5546 2158.00
13.8588 2524.00
14.1631 2792.00
14.4673 1998.00
14.7716 1931.00
15.0759 1960.00
15.3801 1947.00
15.6844 1879.00
15.9886 1866.00
16.2929 1889.00
16.5972 2147.00
16.9014 1767.00
17.2057 1798.00
17.5099 1898.00
17.8142 2425.00
18.1185 1700.00
18.4227 1657.00
18.727 1691.00
19.0312 1749.00
19.3355 1981.00
19.6398 5301.00
19.944 3971.00
20.2483 1772.00
20.5525 1755.00
20.8568 2070.00
21.1611 1590.00
21.4653 1612.00
21.7696 1620.00
22.0738 1694.00
22.3781 1716.00
22.6824 1928.00
22.9866 4626.00
23.2909 2940.00
23.5951 1706.00
23.8994 2294.00
24.2037 3236.00
24.5079 4283.00
24.8122 2743.00
25.1164 1765.00
25.4207 1669.00
25.725 1554.00
26.0292 1836.00
26.3335 2145.00
26.6378 1443.00
26.942 1629.00
27.2463 1758.00
27.5505 1656.00
27.8548 2810.00
28.1591 2064.00
28.4633 5050.00
28.7676 8583.00
29.0718 2113.00
29.3761 1636.00
29.6804 1728.00
29.9846 1906.00
30.2889 3904.00
30.5931 2407.00
30.8974 2045.00
31.2017 5444.00
31.5059 4149.00
31.8102 5856.00
32.1144 5727.00
32.4187 1912.00
32.723 1542.00
33.0272 1516.00
33.3315 1459.00
33.6357 1654.00
33.94 3968.00
34.2443 9254.00
34.5485 4257.00
34.8528 4266.00
35.157 1852.00
35.4613 1547.00
35.7656 4540.00
36.0698 1773.00
36.3741 3279.00
36.6783 1505.00
36.9826 1278.00
37.2869 1232.00
37.5911 1283.00
37.8954 1217.00
38.1996 1231.00
38.5039 1215.00
38.8082 1276.00
39.1124 2494.00
39.4167 1414.00
39.7209 1407.00
40.0252 1458.00
40.3295 1367.00
40.6337 1340.00
40.938 1412.00
41.2422 2942.00
41.5465 2480.00
41.8508 2092.00
42.155 1835.00
42.4593 1436.00
42.7635 1185.00
43.0678 1161.00
43.3721 1602.00
43.6763 1307.00
43.9806 1188.00
44.2849 1206.00
44.5891 1595.00
44.8934 1227.00
45.1976 1338.00
45.5019 1664.00
45.8062 1527.00
46.1104 2410.00
46.4147 1861.00
46.7189 2185.00
47.0232 2843.00
47.3275 1253.00
47.6317 1241.00
47.936 1236.00
48.2402 1170.00
48.5445 1205.00
48.8488 1736.00
49.153 2061.00
49.4573 1657.00
49.7615 2995.00
50.0658 2000.00
50.3701 1569.00
50.6743 4603.00
50.9786 2635.00
51.2828 2765.00
51.5871 1569.00
51.8914 1761.00
52.1956 1327.00
52.4999 1236.00
52.8041 1225.00
53.1084 2646.00
53.4127 1471.00
53.7169 1427.00
54.0212 1297.00
54.3254 1303.00
54.6297 2649.00
54.934 2468.00
55.2382 1600.00
55.5425 1338.00
55.8467 2097.00
56.151 2958.00
56.4553 2148.00
56.7595 1779.00
57.0638 1228.00
57.368 1209.00
57.6723 1574.00
57.9766 1817.00
58.2808 1308.00
58.5851 2074.00
58.8893 1985.00
59.1936 2477.00
59.4979 1387.00
59.8021 1238.00
60.1064 1250.00
60.4106 2291.00
60.7149 2793.00
61.0192 2218.00
61.3234 1723.00
61.6277 1321.00
61.932 1860.00
62.2362 1921.00
62.5405 2321.00
62.8447 1716.00
63.149 1292.00
63.4533 2042.00
63.7575 1681.00
64.0618 1171.00
64.366 1130.00
64.6703 1315.00
64.9745 1753.00
65.2788 1259.00
65.5831 1107.00
65.8873 1639.00
66.1916 1909.00
66.4959 2251.00
66.8001 1373.00
67.1044 1070.00
67.4086 1007.00
67.7129 998.00
68.0172 1101.00
68.3214 1076.00
68.6257 1026.00
68.9299 1036.00
69.2342 1018.00
69.5385 1418.00
69.8427 1332.00
70.147 1021.00
70.4512 1094.00
70.7555 1009.00
71.0598 1051.00
71.364 1256.00
71.6683 1472.00
71.9725 1809.00
72.2768 1289.00
72.5811 1173.00
72.8853 1357.00
73.1896 1312.00
73.4938 1187.00
73.7981 1026.00
74.1024 973.00
74.4066 978.00
74.7109 997.00
75.0151 1060.00
75.3194 1175.00
75.6237 1183.00
75.9279 1481.00
76.2322 1238.00
76.5364 1062.00
76.8407 1170.00
77.145 1182.00
77.4492 1080.00
77.7535 1062.00
78.0577 1131.00
78.362 1102.00
78.6663 1099.00
78.9705 1032.00
79.2748 1061.00
79.579 1244.00
79.8833 1594.00
80.1876 1226.00
80.4918 1023.00
80.7961 921.00
81.1003 1036.00
81.4046 1158.00
81.7089 1117.00
82.0131 1164.00
82.3174 1355.00
82.6217 1168.00
82.9259 1118.00
83.2302 1095.00
83.5344 1152.00
83.8387 1300.00
84.143 1236.00
84.4472 1122.00
84.7515 1392.00
85.0557 1288.00
85.36 1129.00
85.6643 1186.00
85.9685 1232.00
86.2728 1157.00
86.577 1232.00
86.8813 1295.00
87.1856 1113.00
87.4898 985.00
87.7941 1025.00
88.0983 1113.00
88.4026 1214.00
88.7069 1153.00
89.0111 1281.00
89.3154 1437.00
89.6196 1352.00
89.9239 1161.00
90.2282 1177.00
90.5324 1266.00
90.8367 1267.00
91.1409 1135.00
91.4452 1017.00
91.7495 1023.00
92.0537 1041.00
92.358 1084.00
92.6622 1106.00
92.9665 1040.00
93.2708 1013.00
93.575 947.00
93.8793 985.00
94.1835 960.00
94.4878 1091.00
94.7921 1217.00
95.0963 1073.00
95.4006 1049.00
95.7048 1198.00
96.0091 1311.00
96.3134 1136.00
96.6176 1150.00
96.9219 1097.00
97.2261 1193.00
97.5304 1448.00
97.8347 1339.00
98.1389 1144.00
98.4432 1107.00
98.7474 1020.00
99.0517 1167.00
99.356 1299.00
99.6602 1304.00
99.9645 1269.00
100.095 1266.00