File: data/xrd_creation/results/Na_33.xy
9.903433 2639.00
10.2077 2533.00
10.512 2385.00
10.8162 2263.00
11.1205 2170.00
11.4247 2077.00
11.729 1960.00
12.0333 1952.00
12.3375 1754.00
12.6418 1729.00
12.946 1684.00
13.2503 1599.00
13.5546 1579.00
13.8588 1485.00
14.1631 1421.00
14.4673 1475.00
14.7716 1366.00
15.0759 1385.00
15.3801 1308.00
15.6844 1286.00
15.9886 1282.00
16.2929 1279.00
16.5972 1209.00
16.9014 1115.00
17.2057 1213.00
17.5099 1155.00
17.8142 1036.00
18.1185 1114.00
18.4227 1053.00
18.727 1020.00
19.0312 1105.00
19.3355 1020.00
19.6398 959.00
19.944 918.00
20.2483 958.00
20.5525 955.00
20.8568 919.00
21.1611 874.00
21.4653 845.00
21.7696 884.00
22.0738 861.00
22.3781 798.00
22.6824 837.00
22.9866 787.00
23.2909 780.00
23.5951 822.00
23.8994 821.00
24.2037 780.00
24.5079 740.00
24.8122 681.00
25.1164 729.00
25.4207 770.00
25.725 779.00
26.0292 699.00
26.3335 652.00
26.6378 686.00
26.942 627.00
27.2463 672.00
27.5505 651.00
27.8548 629.00
28.1591 651.00
28.4633 591.00
28.7676 596.00
29.0718 587.00
29.3761 613.00
29.6804 591.00
29.9846 568.00
30.2889 585.00
30.5931 536.00
30.8974 515.00
31.2017 539.00
31.5059 572.00
31.8102 496.00
32.1144 516.00
32.4187 534.00
32.723 578.00
33.0272 476.00
33.3315 627.00
33.6357 537.00
33.94 446.00
34.2443 408.00
34.5485 419.00
34.8528 423.00
35.157 463.00
35.4613 426.00
35.7656 396.00
36.0698 424.00
36.3741 383.00
36.6783 444.00
36.9826 405.00
37.2869 391.00
37.5911 369.00
37.8954 335.00
38.1996 388.00
38.5039 320.00
38.8082 420.00
39.1124 372.00
39.4167 398.00
39.7209 355.00
40.0252 373.00
40.3295 309.00
40.6337 375.00
40.938 357.00
41.2422 295.00
41.5465 366.00
41.8508 299.00
42.155 333.00
42.4593 322.00
42.7635 333.00
43.0678 332.00
43.3721 356.00
43.6763 325.00
43.9806 353.00
44.2849 303.00
44.5891 241.00
44.8934 293.00
45.1976 284.00
45.5019 286.00
45.8062 291.00
46.1104 279.00
46.4147 298.00
46.7189 297.00
47.0232 286.00
47.3275 266.00
47.6317 319.00
47.936 270.00
48.2402 270.00
48.5445 311.00
48.8488 258.00
49.153 287.00
49.4573 296.00
49.7615 275.00
50.0658 275.00
50.3701 269.00
50.6743 262.00
50.9786 275.00
51.2828 235.00
51.5871 245.00
51.8914 271.00
52.1956 303.00
52.4999 257.00
52.8041 258.00
53.1084 238.00
53.4127 276.00
53.7169 283.00
54.0212 250.00
54.3254 270.00
54.6297 258.00
54.934 264.00
55.2382 272.00
55.5425 240.00
55.8467 277.00
56.151 225.00
56.4553 226.00
56.7595 220.00
57.0638 214.00
57.368 221.00
57.6723 201.00
57.9766 221.00
58.2808 213.00
58.5851 233.00
58.8893 208.00
59.1936 199.00
59.4979 207.00
59.8021 185.00
60.1064 195.00
60.4106 234.00
60.7149 212.00
61.0192 194.00
61.3234 187.00
61.6277 185.00
61.932 221.00
62.2362 216.00
62.5405 197.00
62.8447 222.00
63.149 219.00
63.4533 215.00
63.7575 213.00
64.0618 193.00
64.366 196.00
64.6703 208.00
64.9745 203.00
65.2788 209.00
65.5831 192.00
65.8873 203.00
66.1916 204.00
66.4959 172.00
66.8001 216.00
67.1044 189.00
67.4086 193.00
67.7129 178.00
68.0172 167.00
68.3214 204.00
68.6257 184.00
68.9299 190.00
69.2342 192.00
69.5385 194.00
69.8427 189.00
70.147 230.00
70.4512 208.00
70.7555 202.00
71.0598 193.00
71.364 189.00
71.6683 207.00
71.9725 204.00
72.2768 205.00
72.5811 221.00
72.8853 207.00
73.1896 216.00
73.4938 210.00
73.7981 203.00
74.1024 157.00
74.4066 205.00
74.7109 211.00
75.0151 200.00
75.3194 230.00
75.6237 185.00
75.9279 214.00
76.2322 207.00
76.5364 197.00
76.8407 190.00
77.145 213.00
77.4492 239.00
77.7535 187.00
78.0577 209.00
78.362 197.00
78.6663 214.00
78.9705 207.00
79.2748 194.00
79.579 247.00
79.8833 221.00
80.1876 231.00
80.4918 244.00
80.7961 231.00
81.1003 208.00
81.4046 243.00
81.7089 224.00
82.0131 221.00
82.3174 230.00
82.6217 222.00
82.9259 273.00
83.2302 205.00
83.5344 216.00
83.8387 220.00
84.143 229.00
84.4472 234.00
84.7515 205.00
85.0557 229.00
85.36 204.00
85.6643 245.00
85.9685 206.00
86.2728 227.00
86.577 216.00
86.8813 224.00
87.1856 201.00
87.4898 212.00
87.7941 206.00
88.0983 198.00
88.4026 185.00
88.7069 225.00
89.0111 202.00
89.3154 178.00
89.6196 200.00
89.9239 197.00
90.2282 201.00
90.5324 161.00
90.8367 207.00
91.1409 212.00
91.4452 176.00
91.7495 205.00
92.0537 181.00
92.358 184.00
92.6622 186.00
92.9665 204.00
93.2708 198.00
93.575 169.00
93.8793 207.00
94.1835 193.00
94.4878 195.00
94.7921 170.00
95.0963 182.00
95.4006 174.00
95.7048 194.00
96.0091 187.00
96.3134 195.00
96.6176 204.00
96.9219 178.00
97.2261 190.00
97.5304 186.00
97.8347 184.00
98.1389 181.00
98.4432 169.00
98.7474 194.00
99.0517 199.00
99.356 182.00
99.6602 174.00
99.9645 181.00
100.095 192.00