File: data/xrd_creation/results/Na_303.xy
9.903433 3336.00
10.2077 3361.00
10.512 3354.00
10.8162 3241.00
11.1205 3171.00
11.4247 3086.00
11.729 3205.00
12.0333 3078.00
12.3375 3020.00
12.6418 3018.00
12.946 3106.00
13.2503 3123.00
13.5546 3038.00
13.8588 2966.00
14.1631 2993.00
14.4673 2969.00
14.7716 3004.00
15.0759 2861.00
15.3801 2980.00
15.6844 2966.00
15.9886 3010.00
16.2929 3026.00
16.5972 2855.00
16.9014 3008.00
17.2057 2964.00
17.5099 2840.00
17.8142 2904.00
18.1185 3009.00
18.4227 2787.00
18.727 2947.00
19.0312 2832.00
19.3355 2937.00
19.6398 2991.00
19.944 2966.00
20.2483 3024.00
20.5525 2996.00
20.8568 4441.00
21.1611 4259.00
21.4653 3118.00
21.7696 3065.00
22.0738 3100.00
22.3781 2985.00
22.6824 2919.00
22.9866 2890.00
23.2909 2817.00
23.5951 3145.00
23.8994 3275.00
24.2037 3304.00
24.5079 3221.00
24.8122 3034.00
25.1164 2793.00
25.4207 2810.00
25.725 2828.00
26.0292 2831.00
26.3335 2834.00
26.6378 2864.00
26.942 2821.00
27.2463 2800.00
27.5505 2833.00
27.8548 2821.00
28.1591 2754.00
28.4633 2797.00
28.7676 2752.00
29.0718 2829.00
29.3761 2806.00
29.6804 2963.00
29.9846 2877.00
30.2889 2739.00
30.5931 2714.00
30.8974 2770.00
31.2017 2892.00
31.5059 2781.00
31.8102 3081.00
32.1144 2972.00
32.4187 2940.00
32.723 2913.00
33.0272 3216.00
33.3315 4172.00
33.6357 2955.00
33.94 2877.00
34.2443 3635.00
34.5485 9197.00
34.8528 3758.00
35.157 2975.00
35.4613 2933.00
35.7656 3570.00
36.0698 3046.00
36.3741 2789.00
36.6783 2755.00
36.9826 2769.00
37.2869 2777.00
37.5911 2679.00
37.8954 2849.00
38.1996 2879.00
38.5039 2793.00
38.8082 2704.00
39.1124 2773.00
39.4167 2808.00
39.7209 2726.00
40.0252 2826.00
40.3295 2806.00
40.6337 2882.00
40.938 2895.00
41.2422 3046.00
41.5465 2840.00
41.8508 2855.00
42.155 2690.00
42.4593 3064.00
42.7635 2873.00
43.0678 2735.00
43.3721 2852.00
43.6763 2792.00
43.9806 2723.00
44.2849 2742.00
44.5891 2671.00
44.8934 2698.00
45.1976 2748.00
45.5019 2698.00
45.8062 2728.00
46.1104 2801.00
46.4147 2701.00
46.7189 2749.00
47.0232 2757.00
47.3275 2656.00
47.6317 2735.00
47.936 2786.00
48.2402 3085.00
48.5445 2779.00
48.8488 2870.00
49.153 2848.00
49.4573 4136.00
49.7615 3459.00
50.0658 2856.00
50.3701 2742.00
50.6743 2792.00
50.9786 2699.00
51.2828 2721.00
51.5871 2686.00
51.8914 2753.00
52.1956 2755.00
52.4999 2760.00
52.8041 2773.00
53.1084 2758.00
53.4127 2732.00
53.7169 2796.00
54.0212 2800.00
54.3254 3586.00
54.6297 2757.00
54.934 2797.00
55.2382 2757.00
55.5425 2689.00
55.8467 2826.00
56.151 2754.00
56.4553 2789.00
56.7595 2688.00
57.0638 2790.00
57.368 2854.00
57.6723 2971.00
57.9766 2767.00
58.2808 2753.00
58.5851 2658.00
58.8893 2715.00
59.1936 2565.00
59.4979 2757.00
59.8021 2756.00
60.1064 2693.00
60.4106 2730.00
60.7149 2751.00
61.0192 2981.00
61.3234 3162.00
61.6277 3726.00
61.932 2926.00
62.2362 2809.00
62.5405 3102.00
62.8447 2926.00
63.149 2836.00
63.4533 2807.00
63.7575 2847.00
64.0618 2922.00
64.366 3061.00
64.6703 2775.00
64.9745 2678.00
65.2788 2706.00
65.5831 2895.00
65.8873 2764.00
66.1916 2646.00
66.4959 2775.00
66.8001 2691.00
67.1044 2723.00
67.4086 2788.00
67.7129 2708.00
68.0172 2854.00
68.3214 2862.00
68.6257 2824.00
68.9299 2741.00
69.2342 2684.00
69.5385 2635.00
69.8427 2819.00
70.147 2697.00
70.4512 2613.00
70.7555 2731.00
71.0598 2666.00
71.364 2673.00
71.6683 2777.00
71.9725 2751.00
72.2768 3283.00
72.5811 2943.00
72.8853 2769.00
73.1896 2774.00
73.4938 2799.00
73.7981 2625.00
74.1024 2708.00
74.4066 2722.00
74.7109 2785.00
75.0151 2800.00
75.3194 2664.00
75.6237 2829.00
75.9279 2693.00
76.2322 2817.00
76.5364 2775.00
76.8407 2704.00
77.145 2856.00
77.4492 2782.00
77.7535 2742.00
78.0577 2667.00
78.362 2745.00
78.6663 2764.00
78.9705 2732.00
79.2748 2815.00
79.579 2688.00
79.8833 2770.00
80.1876 2710.00
80.4918 2777.00
80.7961 2772.00
81.1003 2774.00
81.4046 2709.00
81.7089 2801.00
82.0131 2763.00
82.3174 2823.00
82.6217 2845.00
82.9259 2699.00
83.2302 2790.00
83.5344 2746.00
83.8387 2777.00
84.143 2791.00
84.4472 2798.00
84.7515 2779.00
85.0557 2888.00
85.36 2930.00
85.6643 2757.00
85.9685 2755.00
86.2728 2712.00
86.577 2737.00
86.8813 2823.00
87.1856 2712.00
87.4898 2692.00
87.7941 2819.00
88.0983 2752.00
88.4026 2753.00
88.7069 3035.00
89.0111 2787.00
89.3154 2760.00
89.6196 2781.00
89.9239 2804.00
90.2282 2722.00
90.5324 2791.00
90.8367 2730.00
91.1409 2852.00
91.4452 2773.00
91.7495 2841.00
92.0537 2827.00
92.358 2846.00
92.6622 2786.00
92.9665 2852.00
93.2708 2843.00
93.575 2765.00
93.8793 2925.00
94.1835 2882.00
94.4878 2756.00
94.7921 2794.00
95.0963 2758.00
95.4006 2727.00
95.7048 2835.00
96.0091 2854.00
96.3134 2819.00
96.6176 2718.00
96.9219 2799.00
97.2261 2718.00
97.5304 2686.00
97.8347 2803.00
98.1389 2777.00
98.4432 2792.00
98.7474 2805.00
99.0517 2802.00
99.356 2740.00
99.6602 2842.00
99.9645 2813.00
100.095 2908.00