File: data/xrd_creation/results/Na_31.xy
9.903433 2776.00
10.2077 2472.00
10.512 2339.00
10.8162 2380.00
11.1205 2188.00
11.4247 2092.00
11.729 2058.00
12.0333 1899.00
12.3375 1820.00
12.6418 1786.00
12.946 1683.00
13.2503 1590.00
13.5546 1636.00
13.8588 1494.00
14.1631 1524.00
14.4673 1505.00
14.7716 1414.00
15.0759 1414.00
15.3801 1419.00
15.6844 1320.00
15.9886 1290.00
16.2929 1236.00
16.5972 1303.00
16.9014 1155.00
17.2057 1246.00
17.5099 1223.00
17.8142 1127.00
18.1185 1090.00
18.4227 1129.00
18.727 1037.00
19.0312 1051.00
19.3355 1038.00
19.6398 1069.00
19.944 989.00
20.2483 955.00
20.5525 945.00
20.8568 975.00
21.1611 973.00
21.4653 893.00
21.7696 860.00
22.0738 863.00
22.3781 879.00
22.6824 846.00
22.9866 830.00
23.2909 874.00
23.5951 806.00
23.8994 756.00
24.2037 795.00
24.5079 812.00
24.8122 777.00
25.1164 764.00
25.4207 768.00
25.725 767.00
26.0292 742.00
26.3335 994.00
26.6378 687.00
26.942 677.00
27.2463 686.00
27.5505 779.00
27.8548 683.00
28.1591 706.00
28.4633 713.00
28.7676 939.00
29.0718 728.00
29.3761 646.00
29.6804 625.00
29.9846 661.00
30.2889 640.00
30.5931 560.00
30.8974 511.00
31.2017 574.00
31.5059 604.00
31.8102 580.00
32.1144 567.00
32.4187 555.00
32.723 586.00
33.0272 542.00
33.3315 614.00
33.6357 807.00
33.94 530.00
34.2443 496.00
34.5485 473.00
34.8528 460.00
35.157 490.00
35.4613 468.00
35.7656 470.00
36.0698 484.00
36.3741 432.00
36.6783 468.00
36.9826 463.00
37.2869 443.00
37.5911 412.00
37.8954 482.00
38.1996 433.00
38.5039 402.00
38.8082 397.00
39.1124 375.00
39.4167 371.00
39.7209 401.00
40.0252 401.00
40.3295 353.00
40.6337 406.00
40.938 391.00
41.2422 333.00
41.5465 347.00
41.8508 371.00
42.155 328.00
42.4593 350.00
42.7635 377.00
43.0678 375.00
43.3721 337.00
43.6763 334.00
43.9806 355.00
44.2849 339.00
44.5891 295.00
44.8934 329.00
45.1976 337.00
45.5019 336.00
45.8062 351.00
46.1104 303.00
46.4147 319.00
46.7189 316.00
47.0232 303.00
47.3275 317.00
47.6317 325.00
47.936 324.00
48.2402 397.00
48.5445 309.00
48.8488 303.00
49.153 311.00
49.4573 328.00
49.7615 307.00
50.0658 288.00
50.3701 319.00
50.6743 290.00
50.9786 311.00
51.2828 319.00
51.5871 416.00
51.8914 341.00
52.1956 310.00
52.4999 263.00
52.8041 264.00
53.1084 250.00
53.4127 274.00
53.7169 234.00
54.0212 291.00
54.3254 290.00
54.6297 332.00
54.934 284.00
55.2382 247.00
55.5425 264.00
55.8467 282.00
56.151 271.00
56.4553 245.00
56.7595 270.00
57.0638 289.00
57.368 296.00
57.6723 268.00
57.9766 231.00
58.2808 222.00
58.5851 209.00
58.8893 229.00
59.1936 228.00
59.4979 258.00
59.8021 242.00
60.1064 246.00
60.4106 224.00
60.7149 237.00
61.0192 231.00
61.3234 214.00
61.6277 239.00
61.932 264.00
62.2362 236.00
62.5405 232.00
62.8447 230.00
63.149 229.00
63.4533 202.00
63.7575 226.00
64.0618 185.00
64.366 214.00
64.6703 233.00
64.9745 213.00
65.2788 209.00
65.5831 185.00
65.8873 230.00
66.1916 248.00
66.4959 204.00
66.8001 207.00
67.1044 227.00
67.4086 197.00
67.7129 169.00
68.0172 208.00
68.3214 184.00
68.6257 191.00
68.9299 201.00
69.2342 192.00
69.5385 227.00
69.8427 214.00
70.147 204.00
70.4512 218.00
70.7555 218.00
71.0598 227.00
71.364 225.00
71.6683 247.00
71.9725 193.00
72.2768 217.00
72.5811 214.00
72.8853 206.00
73.1896 189.00
73.4938 213.00
73.7981 224.00
74.1024 212.00
74.4066 230.00
74.7109 209.00
75.0151 208.00
75.3194 206.00
75.6237 180.00
75.9279 246.00
76.2322 264.00
76.5364 227.00
76.8407 198.00
77.145 259.00
77.4492 257.00
77.7535 258.00
78.0577 260.00
78.362 242.00
78.6663 282.00
78.9705 244.00
79.2748 246.00
79.579 225.00
79.8833 275.00
80.1876 249.00
80.4918 294.00
80.7961 235.00
81.1003 270.00
81.4046 236.00
81.7089 242.00
82.0131 223.00
82.3174 223.00
82.6217 230.00
82.9259 264.00
83.2302 222.00
83.5344 222.00
83.8387 232.00
84.143 198.00
84.4472 231.00
84.7515 225.00
85.0557 194.00
85.36 208.00
85.6643 217.00
85.9685 192.00
86.2728 217.00
86.577 213.00
86.8813 184.00
87.1856 197.00
87.4898 186.00
87.7941 193.00
88.0983 180.00
88.4026 218.00
88.7069 210.00
89.0111 204.00
89.3154 186.00
89.6196 189.00
89.9239 219.00
90.2282 199.00
90.5324 171.00
90.8367 217.00
91.1409 191.00
91.4452 207.00
91.7495 175.00
92.0537 199.00
92.358 179.00
92.6622 178.00
92.9665 193.00
93.2708 189.00
93.575 221.00
93.8793 175.00
94.1835 203.00
94.4878 171.00
94.7921 218.00
95.0963 193.00
95.4006 161.00
95.7048 172.00
96.0091 185.00
96.3134 172.00
96.6176 199.00
96.9219 179.00
97.2261 172.00
97.5304 179.00
97.8347 177.00
98.1389 197.00
98.4432 190.00
98.7474 203.00
99.0517 181.00
99.356 191.00
99.6602 175.00
99.9645 199.00
100.095 181.00