File: data/xrd_creation/results/Na_310.xy
9.903433 3005.00
10.2077 2909.00
10.512 2908.00
10.8162 2827.00
11.1205 2726.00
11.4247 2789.00
11.729 2785.00
12.0333 2691.00
12.3375 2593.00
12.6418 2564.00
12.946 2693.00
13.2503 2676.00
13.5546 2516.00
13.8588 2614.00
14.1631 2520.00
14.4673 2491.00
14.7716 2571.00
15.0759 2505.00
15.3801 2602.00
15.6844 2476.00
15.9886 2530.00
16.2929 2590.00
16.5972 2567.00
16.9014 2683.00
17.2057 2690.00
17.5099 2637.00
17.8142 2667.00
18.1185 2693.00
18.4227 2751.00
18.727 2742.00
19.0312 2835.00
19.3355 2798.00
19.6398 2860.00
19.944 2914.00
20.2483 3048.00
20.5525 3157.00
20.8568 3100.00
21.1611 3036.00
21.4653 3181.00
21.7696 3147.00
22.0738 3072.00
22.3781 3019.00
22.6824 2980.00
22.9866 2906.00
23.2909 2917.00
23.5951 2764.00
23.8994 2882.00
24.2037 2827.00
24.5079 2836.00
24.8122 2790.00
25.1164 2857.00
25.4207 2801.00
25.725 2860.00
26.0292 2850.00
26.3335 2983.00
26.6378 2839.00
26.942 2914.00
27.2463 2952.00
27.5505 2965.00
27.8548 3029.00
28.1591 2928.00
28.4633 3000.00
28.7676 2987.00
29.0718 2984.00
29.3761 3020.00
29.6804 3056.00
29.9846 3091.00
30.2889 3075.00
30.5931 2989.00
30.8974 2956.00
31.2017 2928.00
31.5059 3019.00
31.8102 2814.00
32.1144 2770.00
32.4187 2598.00
32.723 2652.00
33.0272 2584.00
33.3315 2519.00
33.6357 2494.00
33.94 2504.00
34.2443 2337.00
34.5485 2338.00
34.8528 2206.00
35.157 2149.00
35.4613 2159.00
35.7656 2122.00
36.0698 2008.00
36.3741 2014.00
36.6783 1990.00
36.9826 1975.00
37.2869 2029.00
37.5911 1930.00
37.8954 1902.00
38.1996 1860.00
38.5039 1832.00
38.8082 1827.00
39.1124 1880.00
39.4167 1806.00
39.7209 1797.00
40.0252 1755.00
40.3295 1803.00
40.6337 1806.00
40.938 1736.00
41.2422 1755.00
41.5465 1749.00
41.8508 1831.00
42.155 1733.00
42.4593 1786.00
42.7635 1707.00
43.0678 1769.00
43.3721 1734.00
43.6763 1725.00
43.9806 1771.00
44.2849 1769.00
44.5891 1823.00
44.8934 1745.00
45.1976 1788.00
45.5019 1842.00
45.8062 1708.00
46.1104 1816.00
46.4147 1756.00
46.7189 1756.00
47.0232 1744.00
47.3275 1669.00
47.6317 1786.00
47.936 1804.00
48.2402 1764.00
48.5445 1697.00
48.8488 1820.00
49.153 1709.00
49.4573 1748.00
49.7615 1667.00
50.0658 1717.00
50.3701 1738.00
50.6743 1821.00
50.9786 1802.00
51.2828 1773.00
51.5871 1786.00
51.8914 1749.00
52.1956 1706.00
52.4999 1722.00
52.8041 1780.00
53.1084 1745.00
53.4127 1656.00
53.7169 1691.00
54.0212 1701.00
54.3254 1699.00
54.6297 1612.00
54.934 1664.00
55.2382 1705.00
55.5425 1679.00
55.8467 1634.00
56.151 1667.00
56.4553 1697.00
56.7595 1615.00
57.0638 1616.00
57.368 1605.00
57.6723 1507.00
57.9766 1626.00
58.2808 1600.00
58.5851 1590.00
58.8893 1585.00
59.1936 1582.00
59.4979 1667.00
59.8021 1616.00
60.1064 1668.00
60.4106 1591.00
60.7149 1573.00
61.0192 1571.00
61.3234 1535.00
61.6277 1482.00
61.932 1581.00
62.2362 1544.00
62.5405 1512.00
62.8447 1560.00
63.149 1509.00
63.4533 1553.00
63.7575 1540.00
64.0618 1519.00
64.366 1566.00
64.6703 1472.00
64.9745 1501.00
65.2788 1514.00
65.5831 1440.00
65.8873 1536.00
66.1916 1447.00
66.4959 1425.00
66.8001 1524.00
67.1044 1379.00
67.4086 1338.00
67.7129 1382.00
68.0172 1489.00
68.3214 1394.00
68.6257 1424.00
68.9299 1460.00
69.2342 1348.00
69.5385 1310.00
69.8427 1282.00
70.147 1317.00
70.4512 1345.00
70.7555 1372.00
71.0598 1326.00
71.364 1381.00
71.6683 1338.00
71.9725 1270.00
72.2768 1322.00
72.5811 1354.00
72.8853 1319.00
73.1896 1294.00
73.4938 1275.00
73.7981 1237.00
74.1024 1318.00
74.4066 1306.00
74.7109 1300.00
75.0151 1261.00
75.3194 1273.00
75.6237 1238.00
75.9279 1323.00
76.2322 1269.00
76.5364 1289.00
76.8407 1264.00
77.145 1309.00
77.4492 1262.00
77.7535 1199.00
78.0577 1264.00
78.362 1274.00
78.6663 1256.00
78.9705 1229.00
79.2748 1218.00
79.579 1225.00
79.8833 1290.00
80.1876 1184.00
80.4918 1192.00
80.7961 1259.00
81.1003 1216.00
81.4046 1163.00
81.7089 1280.00
82.0131 1189.00
82.3174 1194.00
82.6217 1148.00
82.9259 1130.00
83.2302 1153.00
83.5344 1150.00
83.8387 1180.00
84.143 1193.00
84.4472 1159.00
84.7515 1241.00
85.0557 1156.00
85.36 1176.00
85.6643 1166.00
85.9685 1187.00
86.2728 1174.00
86.577 1148.00
86.8813 1132.00
87.1856 1151.00
87.4898 1147.00
87.7941 1141.00
88.0983 1169.00
88.4026 1090.00
88.7069 1112.00
89.0111 1120.00
89.3154 1153.00
89.6196 1202.00
89.9239 1097.00
90.2282 1088.00
90.5324 1145.00
90.8367 1149.00
91.1409 1184.00
91.4452 1027.00
91.7495 1061.00
92.0537 1079.00
92.358 1163.00
92.6622 1089.00
92.9665 1082.00
93.2708 1141.00
93.575 1092.00
93.8793 1144.00
94.1835 1134.00
94.4878 1065.00
94.7921 1128.00
95.0963 1145.00
95.4006 1151.00
95.7048 1099.00
96.0091 1088.00
96.3134 1161.00
96.6176 1066.00
96.9219 1203.00
97.2261 1075.00
97.5304 1059.00
97.8347 1106.00
98.1389 1132.00
98.4432 1112.00
98.7474 1048.00
99.0517 1086.00
99.356 1054.00
99.6602 1115.00
99.9645 1098.00
100.095 1083.00