File: data/xrd_creation/results/Na_300.xy
9.903433 3274.00
10.2077 2771.00
10.512 2835.00
10.8162 2498.00
11.1205 2495.00
11.4247 2340.00
11.729 2298.00
12.0333 2207.00
12.3375 2199.00
12.6418 2080.00
12.946 2036.00
13.2503 2066.00
13.5546 2102.00
13.8588 2102.00
14.1631 1996.00
14.4673 1912.00
14.7716 1760.00
15.0759 1941.00
15.3801 1953.00
15.6844 2300.00
15.9886 3701.00
16.2929 1891.00
16.5972 1701.00
16.9014 1674.00
17.2057 1659.00
17.5099 1651.00
17.8142 1578.00
18.1185 1542.00
18.4227 1569.00
18.727 1529.00
19.0312 1498.00
19.3355 1968.00
19.6398 1467.00
19.944 1376.00
20.2483 1561.00
20.5525 1503.00
20.8568 1825.00
21.1611 1987.00
21.4653 1446.00
21.7696 1548.00
22.0738 1282.00
22.3781 1278.00
22.6824 1230.00
22.9866 1235.00
23.2909 1473.00
23.5951 1238.00
23.8994 1200.00
24.2037 1713.00
24.5079 1178.00
24.8122 1238.00
25.1164 1071.00
25.4207 1173.00
25.725 1268.00
26.0292 1115.00
26.3335 1138.00
26.6378 1086.00
26.942 1158.00
27.2463 1504.00
27.5505 8012.00
27.8548 6794.00
28.1591 2438.00
28.4633 2221.00
28.7676 1135.00
29.0718 1090.00
29.3761 1254.00
29.6804 1081.00
29.9846 1026.00
30.2889 1838.00
30.5931 1460.00
30.8974 1075.00
31.2017 1231.00
31.5059 1150.00
31.8102 1538.00
32.1144 2473.00
32.4187 1594.00
32.723 988.00
33.0272 1065.00
33.3315 1599.00
33.6357 1452.00
33.94 1109.00
34.2443 1318.00
34.5485 4603.00
34.8528 1131.00
35.157 964.00
35.4613 930.00
35.7656 1052.00
36.0698 973.00
36.3741 1019.00
36.6783 918.00
36.9826 854.00
37.2869 797.00
37.5911 752.00
37.8954 863.00
38.1996 822.00
38.5039 820.00
38.8082 860.00
39.1124 956.00
39.4167 1052.00
39.7209 2038.00
40.0252 1543.00
40.3295 946.00
40.6337 761.00
40.938 792.00
41.2422 727.00
41.5465 731.00
41.8508 787.00
42.155 669.00
42.4593 1283.00
42.7635 923.00
43.0678 886.00
43.3721 725.00
43.6763 654.00
43.9806 753.00
44.2849 812.00
44.5891 610.00
44.8934 2208.00
45.1976 798.00
45.5019 780.00
45.8062 1785.00
46.1104 685.00
46.4147 1390.00
46.7189 754.00
47.0232 856.00
47.3275 1245.00
47.6317 804.00
47.936 753.00
48.2402 835.00
48.5445 1239.00
48.8488 1778.00
49.153 1604.00
49.4573 1691.00
49.7615 762.00
50.0658 751.00
50.3701 742.00
50.6743 854.00
50.9786 547.00
51.2828 526.00
51.5871 527.00
51.8914 534.00
52.1956 751.00
52.4999 1527.00
52.8041 801.00
53.1084 568.00
53.4127 551.00
53.7169 649.00
54.0212 717.00
54.3254 940.00
54.6297 873.00
54.934 705.00
55.2382 611.00
55.5425 1298.00
55.8467 835.00
56.151 957.00
56.4553 845.00
56.7595 651.00
57.0638 613.00
57.368 666.00
57.6723 498.00
57.9766 560.00
58.2808 543.00
58.5851 527.00
58.8893 585.00
59.1936 699.00
59.4979 578.00
59.8021 515.00
60.1064 516.00
60.4106 644.00
60.7149 497.00
61.0192 458.00
61.3234 931.00
61.6277 670.00
61.932 466.00
62.2362 466.00
62.5405 489.00
62.8447 509.00
63.149 441.00
63.4533 702.00
63.7575 514.00
64.0618 543.00
64.366 796.00
64.6703 616.00
64.9745 502.00
65.2788 436.00
65.5831 585.00
65.8873 470.00
66.1916 455.00
66.4959 434.00
66.8001 514.00
67.1044 429.00
67.4086 379.00
67.7129 450.00
68.0172 399.00
68.3214 374.00
68.6257 359.00
68.9299 425.00
69.2342 427.00
69.5385 463.00
69.8427 561.00
70.147 610.00
70.4512 444.00
70.7555 482.00
71.0598 417.00
71.364 460.00
71.6683 458.00
71.9725 581.00
72.2768 701.00
72.5811 507.00
72.8853 558.00
73.1896 561.00
73.4938 607.00
73.7981 417.00
74.1024 361.00
74.4066 456.00
74.7109 332.00
75.0151 404.00
75.3194 465.00
75.6237 512.00
75.9279 546.00
76.2322 553.00
76.5364 563.00
76.8407 496.00
77.145 547.00
77.4492 660.00
77.7535 645.00
78.0577 667.00
78.362 482.00
78.6663 480.00
78.9705 492.00
79.2748 421.00
79.579 403.00
79.8833 353.00
80.1876 349.00
80.4918 367.00
80.7961 370.00
81.1003 366.00
81.4046 396.00
81.7089 392.00
82.0131 464.00
82.3174 547.00
82.6217 524.00
82.9259 420.00
83.2302 456.00
83.5344 405.00
83.8387 401.00
84.143 442.00
84.4472 376.00
84.7515 373.00
85.0557 437.00
85.36 462.00
85.6643 452.00
85.9685 440.00
86.2728 435.00
86.577 546.00
86.8813 575.00
87.1856 410.00
87.4898 385.00
87.7941 380.00
88.0983 358.00
88.4026 359.00
88.7069 435.00
89.0111 411.00
89.3154 440.00
89.6196 425.00
89.9239 351.00
90.2282 514.00
90.5324 489.00
90.8367 521.00
91.1409 401.00
91.4452 440.00
91.7495 427.00
92.0537 375.00
92.358 379.00
92.6622 383.00
92.9665 367.00
93.2708 340.00
93.575 353.00
93.8793 334.00
94.1835 319.00
94.4878 417.00
94.7921 350.00
95.0963 385.00
95.4006 395.00
95.7048 437.00
96.0091 460.00
96.3134 423.00
96.6176 401.00
96.9219 377.00
97.2261 397.00
97.5304 354.00
97.8347 365.00
98.1389 322.00
98.4432 314.00
98.7474 335.00
99.0517 363.00
99.356 374.00
99.6602 350.00
99.9645 355.00
100.095 347.00