File: data/xrd_creation/results/Na_39.xy
9.903433 2590.00
10.2077 2471.00
10.512 2409.00
10.8162 2247.00
11.1205 2092.00
11.4247 2038.00
11.729 1926.00
12.0333 1911.00
12.3375 1875.00
12.6418 1762.00
12.946 1716.00
13.2503 1552.00
13.5546 1587.00
13.8588 1469.00
14.1631 1462.00
14.4673 1434.00
14.7716 1402.00
15.0759 1296.00
15.3801 1293.00
15.6844 1236.00
15.9886 1295.00
16.2929 1226.00
16.5972 1221.00
16.9014 1173.00
17.2057 1119.00
17.5099 1123.00
17.8142 1034.00
18.1185 1034.00
18.4227 1073.00
18.727 1043.00
19.0312 1027.00
19.3355 962.00
19.6398 869.00
19.944 914.00
20.2483 919.00
20.5525 843.00
20.8568 880.00
21.1611 883.00
21.4653 900.00
21.7696 840.00
22.0738 786.00
22.3781 776.00
22.6824 850.00
22.9866 812.00
23.2909 820.00
23.5951 759.00
23.8994 742.00
24.2037 709.00
24.5079 712.00
24.8122 677.00
25.1164 713.00
25.4207 664.00
25.725 632.00
26.0292 728.00
26.3335 656.00
26.6378 665.00
26.942 658.00
27.2463 694.00
27.5505 647.00
27.8548 628.00
28.1591 679.00
28.4633 631.00
28.7676 597.00
29.0718 698.00
29.3761 570.00
29.6804 550.00
29.9846 680.00
30.2889 539.00
30.5931 518.00
30.8974 513.00
31.2017 500.00
31.5059 536.00
31.8102 478.00
32.1144 537.00
32.4187 481.00
32.723 511.00
33.0272 510.00
33.3315 494.00
33.6357 521.00
33.94 460.00
34.2443 437.00
34.5485 404.00
34.8528 452.00
35.157 424.00
35.4613 408.00
35.7656 389.00
36.0698 398.00
36.3741 408.00
36.6783 413.00
36.9826 399.00
37.2869 386.00
37.5911 401.00
37.8954 346.00
38.1996 366.00
38.5039 382.00
38.8082 331.00
39.1124 327.00
39.4167 339.00
39.7209 351.00
40.0252 342.00
40.3295 357.00
40.6337 318.00
40.938 291.00
41.2422 324.00
41.5465 327.00
41.8508 380.00
42.155 311.00
42.4593 321.00
42.7635 287.00
43.0678 345.00
43.3721 291.00
43.6763 326.00
43.9806 329.00
44.2849 304.00
44.5891 289.00
44.8934 270.00
45.1976 285.00
45.5019 320.00
45.8062 259.00
46.1104 323.00
46.4147 304.00
46.7189 278.00
47.0232 278.00
47.3275 314.00
47.6317 272.00
47.936 279.00
48.2402 295.00
48.5445 309.00
48.8488 309.00
49.153 289.00
49.4573 269.00
49.7615 297.00
50.0658 271.00
50.3701 277.00
50.6743 266.00
50.9786 272.00
51.2828 240.00
51.5871 293.00
51.8914 273.00
52.1956 245.00
52.4999 289.00
52.8041 244.00
53.1084 227.00
53.4127 229.00
53.7169 259.00
54.0212 243.00
54.3254 227.00
54.6297 263.00
54.934 247.00
55.2382 247.00
55.5425 228.00
55.8467 209.00
56.151 239.00
56.4553 205.00
56.7595 230.00
57.0638 246.00
57.368 241.00
57.6723 221.00
57.9766 270.00
58.2808 218.00
58.5851 221.00
58.8893 221.00
59.1936 224.00
59.4979 243.00
59.8021 222.00
60.1064 220.00
60.4106 181.00
60.7149 224.00
61.0192 217.00
61.3234 202.00
61.6277 192.00
61.932 184.00
62.2362 198.00
62.5405 213.00
62.8447 192.00
63.149 201.00
63.4533 208.00
63.7575 201.00
64.0618 203.00
64.366 205.00
64.6703 173.00
64.9745 176.00
65.2788 194.00
65.5831 200.00
65.8873 192.00
66.1916 182.00
66.4959 182.00
66.8001 204.00
67.1044 199.00
67.4086 197.00
67.7129 200.00
68.0172 161.00
68.3214 205.00
68.6257 193.00
68.9299 192.00
69.2342 194.00
69.5385 209.00
69.8427 184.00
70.147 185.00
70.4512 194.00
70.7555 188.00
71.0598 201.00
71.364 186.00
71.6683 199.00
71.9725 190.00
72.2768 199.00
72.5811 178.00
72.8853 187.00
73.1896 184.00
73.4938 194.00
73.7981 195.00
74.1024 214.00
74.4066 195.00
74.7109 211.00
75.0151 203.00
75.3194 200.00
75.6237 206.00
75.9279 209.00
76.2322 223.00
76.5364 223.00
76.8407 213.00
77.145 210.00
77.4492 198.00
77.7535 223.00
78.0577 225.00
78.362 227.00
78.6663 219.00
78.9705 230.00
79.2748 208.00
79.579 211.00
79.8833 249.00
80.1876 238.00
80.4918 224.00
80.7961 264.00
81.1003 217.00
81.4046 212.00
81.7089 235.00
82.0131 249.00
82.3174 203.00
82.6217 218.00
82.9259 222.00
83.2302 241.00
83.5344 236.00
83.8387 244.00
84.143 242.00
84.4472 262.00
84.7515 210.00
85.0557 187.00
85.36 208.00
85.6643 173.00
85.9685 216.00
86.2728 186.00
86.577 209.00
86.8813 206.00
87.1856 211.00
87.4898 193.00
87.7941 186.00
88.0983 187.00
88.4026 193.00
88.7069 208.00
89.0111 219.00
89.3154 199.00
89.6196 183.00
89.9239 204.00
90.2282 210.00
90.5324 200.00
90.8367 204.00
91.1409 194.00
91.4452 202.00
91.7495 177.00
92.0537 179.00
92.358 204.00
92.6622 175.00
92.9665 183.00
93.2708 177.00
93.575 205.00
93.8793 178.00
94.1835 181.00
94.4878 179.00
94.7921 186.00
95.0963 195.00
95.4006 176.00
95.7048 190.00
96.0091 185.00
96.3134 185.00
96.6176 200.00
96.9219 169.00
97.2261 189.00
97.5304 181.00
97.8347 222.00
98.1389 172.00
98.4432 196.00
98.7474 176.00
99.0517 198.00
99.356 195.00
99.6602 168.00
99.9645 186.00
100.095 184.00