File: data/xrd_creation/results/Na_34.xy
9.903433 3285.00
10.2077 3184.00
10.512 2963.00
10.8162 2965.00
11.1205 2959.00
11.4247 2784.00
11.729 2681.00
12.0333 2815.00
12.3375 2666.00
12.6418 2642.00
12.946 2562.00
13.2503 2466.00
13.5546 2495.00
13.8588 2407.00
14.1631 2448.00
14.4673 2452.00
14.7716 2376.00
15.0759 2256.00
15.3801 2297.00
15.6844 2288.00
15.9886 2316.00
16.2929 2226.00
16.5972 2122.00
16.9014 2270.00
17.2057 2185.00
17.5099 2165.00
17.8142 2098.00
18.1185 2125.00
18.4227 2127.00
18.727 2065.00
19.0312 2055.00
19.3355 2003.00
19.6398 1994.00
19.944 2081.00
20.2483 1963.00
20.5525 1981.00
20.8568 1898.00
21.1611 1972.00
21.4653 1902.00
21.7696 1938.00
22.0738 1968.00
22.3781 2093.00
22.6824 2026.00
22.9866 2289.00
23.2909 2123.00
23.5951 2384.00
23.8994 2825.00
24.2037 2459.00
24.5079 2600.00
24.8122 2931.00
25.1164 3109.00
25.4207 3435.00
25.725 3592.00
26.0292 4247.00
26.3335 5075.00
26.6378 2958.00
26.942 2511.00
27.2463 2368.00
27.5505 2514.00
27.8548 4720.00
28.1591 1929.00
28.4633 1835.00
28.7676 1737.00
29.0718 1839.00
29.3761 1901.00
29.6804 1800.00
29.9846 2896.00
30.2889 11063.00
30.5931 3198.00
30.8974 1916.00
31.2017 1914.00
31.5059 1774.00
31.8102 1865.00
32.1144 1834.00
32.4187 1650.00
32.723 1643.00
33.0272 2400.00
33.3315 3897.00
33.6357 1620.00
33.94 2083.00
34.2443 3798.00
34.5485 6121.00
34.8528 5111.00
35.157 3527.00
35.4613 10468.00
35.7656 1770.00
36.0698 1552.00
36.3741 1374.00
36.6783 1521.00
36.9826 1882.00
37.2869 1616.00
37.5911 1984.00
37.8954 4221.00
38.1996 14740.00
38.5039 2992.00
38.8082 2187.00
39.1124 1544.00
39.4167 1538.00
39.7209 1674.00
40.0252 5458.00
40.3295 4935.00
40.6337 1487.00
40.938 1680.00
41.2422 4209.00
41.5465 5293.00
41.8508 3810.00
42.155 1570.00
42.4593 1768.00
42.7635 1928.00
43.0678 1759.00
43.3721 1703.00
43.6763 1514.00
43.9806 1471.00
44.2849 1623.00
44.5891 2371.00
44.8934 1998.00
45.1976 1361.00
45.5019 1333.00
45.8062 1255.00
46.1104 1300.00
46.4147 2417.00
46.7189 4304.00
47.0232 1807.00
47.3275 1984.00
47.6317 1237.00
47.936 1345.00
48.2402 2693.00
48.5445 4075.00
48.8488 1149.00
49.153 1059.00
49.4573 1419.00
49.7615 1089.00
50.0658 1002.00
50.3701 958.00
50.6743 1090.00
50.9786 1429.00
51.2828 1172.00
51.5871 1009.00
51.8914 913.00
52.1956 971.00
52.4999 1066.00
52.8041 1231.00
53.1084 1165.00
53.4127 1546.00
53.7169 2742.00
54.0212 1558.00
54.3254 1159.00
54.6297 1986.00
54.934 2138.00
55.2382 1053.00
55.5425 1377.00
55.8467 1070.00
56.151 1103.00
56.4553 1852.00
56.7595 1166.00
57.0638 1198.00
57.368 1301.00
57.6723 852.00
57.9766 928.00
58.2808 1108.00
58.5851 1669.00
58.8893 1532.00
59.1936 1805.00
59.4979 1021.00
59.8021 864.00
60.1064 754.00
60.4106 912.00
60.7149 1398.00
61.0192 1170.00
61.3234 746.00
61.6277 764.00
61.932 1115.00
62.2362 1352.00
62.5405 1246.00
62.8447 2032.00
63.149 946.00
63.4533 766.00
63.7575 961.00
64.0618 1416.00
64.366 892.00
64.6703 676.00
64.9745 727.00
65.2788 727.00
65.5831 678.00
65.8873 699.00
66.1916 715.00
66.4959 638.00
66.8001 585.00
67.1044 652.00
67.4086 953.00
67.7129 1037.00
68.0172 709.00
68.3214 635.00
68.6257 556.00
68.9299 606.00
69.2342 582.00
69.5385 643.00
69.8427 669.00
70.147 846.00
70.4512 624.00
70.7555 545.00
71.0598 567.00
71.364 578.00
71.6683 652.00
71.9725 833.00
72.2768 886.00
72.5811 764.00
72.8853 560.00
73.1896 684.00
73.4938 867.00
73.7981 729.00
74.1024 603.00
74.4066 701.00
74.7109 1072.00
75.0151 637.00
75.3194 520.00
75.6237 608.00
75.9279 594.00
76.2322 666.00
76.5364 650.00
76.8407 587.00
77.145 533.00
77.4492 576.00
77.7535 629.00
78.0577 711.00
78.362 674.00
78.6663 616.00
78.9705 696.00
79.2748 775.00
79.579 857.00
79.8833 820.00
80.1876 987.00
80.4918 1370.00
80.7961 941.00
81.1003 627.00
81.4046 581.00
81.7089 646.00
82.0131 649.00
82.3174 632.00
82.6217 653.00
82.9259 632.00
83.2302 588.00
83.5344 766.00
83.8387 670.00
84.143 631.00
84.4472 653.00
84.7515 634.00
85.0557 679.00
85.36 627.00
85.6643 617.00
85.9685 617.00
86.2728 634.00
86.577 556.00
86.8813 533.00
87.1856 535.00
87.4898 588.00
87.7941 644.00
88.0983 568.00
88.4026 564.00
88.7069 495.00
89.0111 531.00
89.3154 659.00
89.6196 663.00
89.9239 649.00
90.2282 668.00
90.5324 607.00
90.8367 539.00
91.1409 561.00
91.4452 600.00
91.7495 568.00
92.0537 560.00
92.358 487.00
92.6622 469.00
92.9665 535.00
93.2708 779.00
93.575 718.00
93.8793 748.00
94.1835 674.00
94.4878 520.00
94.7921 543.00
95.0963 534.00
95.4006 592.00
95.7048 600.00
96.0091 543.00
96.3134 568.00
96.6176 521.00
96.9219 530.00
97.2261 493.00
97.5304 524.00
97.8347 480.00
98.1389 550.00
98.4432 585.00
98.7474 577.00
99.0517 633.00
99.356 798.00
99.6602 619.00
99.9645 524.00
100.095 552.00