File: data/xrd_creation/results/Na_38.xy
9.903433 2766.00
10.2077 2619.00
10.512 2497.00
10.8162 2420.00
11.1205 2327.00
11.4247 2201.00
11.729 2120.00
12.0333 1976.00
12.3375 2015.00
12.6418 1980.00
12.946 1992.00
13.2503 1927.00
13.5546 1816.00
13.8588 1696.00
14.1631 1718.00
14.4673 1694.00
14.7716 1658.00
15.0759 1533.00
15.3801 1516.00
15.6844 1536.00
15.9886 1488.00
16.2929 1499.00
16.5972 1494.00
16.9014 1413.00
17.2057 1379.00
17.5099 1388.00
17.8142 1407.00
18.1185 1290.00
18.4227 1344.00
18.727 1244.00
19.0312 1328.00
19.3355 1494.00
19.6398 1871.00
19.944 2579.00
20.2483 2845.00
20.5525 1783.00
20.8568 1657.00
21.1611 2591.00
21.4653 2577.00
21.7696 1838.00
22.0738 1279.00
22.3781 1356.00
22.6824 1456.00
22.9866 1594.00
23.2909 2043.00
23.5951 1543.00
23.8994 1392.00
24.2037 1165.00
24.5079 1153.00
24.8122 1003.00
25.1164 998.00
25.4207 1131.00
25.725 1142.00
26.0292 1218.00
26.3335 1316.00
26.6378 1478.00
26.942 1446.00
27.2463 1303.00
27.5505 1060.00
27.8548 1210.00
28.1591 1085.00
28.4633 978.00
28.7676 957.00
29.0718 1201.00
29.3761 3206.00
29.6804 4150.00
29.9846 1610.00
30.2889 1403.00
30.5931 1823.00
30.8974 1503.00
31.2017 1742.00
31.5059 1397.00
31.8102 1374.00
32.1144 1465.00
32.4187 1536.00
32.723 1829.00
33.0272 2667.00
33.3315 3600.00
33.6357 1592.00
33.94 1476.00
34.2443 1108.00
34.5485 1170.00
34.8528 1198.00
35.157 1138.00
35.4613 1140.00
35.7656 1069.00
36.0698 1289.00
36.3741 1024.00
36.6783 902.00
36.9826 861.00
37.2869 849.00
37.5911 851.00
37.8954 838.00
38.1996 994.00
38.5039 917.00
38.8082 890.00
39.1124 868.00
39.4167 1183.00
39.7209 1189.00
40.0252 704.00
40.3295 665.00
40.6337 675.00
40.938 806.00
41.2422 951.00
41.5465 791.00
41.8508 744.00
42.155 730.00
42.4593 734.00
42.7635 839.00
43.0678 1049.00
43.3721 1445.00
43.6763 1002.00
43.9806 813.00
44.2849 826.00
44.5891 790.00
44.8934 843.00
45.1976 747.00
45.5019 742.00
45.8062 791.00
46.1104 801.00
46.4147 792.00
46.7189 762.00
47.0232 871.00
47.3275 1269.00
47.6317 1527.00
47.936 878.00
48.2402 725.00
48.5445 1158.00
48.8488 966.00
49.153 533.00
49.4573 570.00
49.7615 499.00
50.0658 523.00
50.3701 466.00
50.6743 520.00
50.9786 521.00
51.2828 538.00
51.5871 598.00
51.8914 744.00
52.1956 712.00
52.4999 776.00
52.8041 713.00
53.1084 716.00
53.4127 686.00
53.7169 647.00
54.0212 598.00
54.3254 529.00
54.6297 567.00
54.934 651.00
55.2382 630.00
55.5425 618.00
55.8467 585.00
56.151 607.00
56.4553 619.00
56.7595 712.00
57.0638 606.00
57.368 699.00
57.6723 845.00
57.9766 588.00
58.2808 597.00
58.5851 585.00
58.8893 680.00
59.1936 761.00
59.4979 778.00
59.8021 783.00
60.1064 629.00
60.4106 572.00
60.7149 725.00
61.0192 699.00
61.3234 600.00
61.6277 569.00
61.932 500.00
62.2362 509.00
62.5405 507.00
62.8447 591.00
63.149 644.00
63.4533 604.00
63.7575 534.00
64.0618 443.00
64.366 495.00
64.6703 546.00
64.9745 581.00
65.2788 538.00
65.5831 591.00
65.8873 574.00
66.1916 447.00
66.4959 448.00
66.8001 507.00
67.1044 409.00
67.4086 404.00
67.7129 458.00
68.0172 418.00
68.3214 405.00
68.6257 361.00
68.9299 381.00
69.2342 458.00
69.5385 531.00
69.8427 471.00
70.147 492.00
70.4512 479.00
70.7555 436.00
71.0598 388.00
71.364 371.00
71.6683 402.00
71.9725 428.00
72.2768 382.00
72.5811 345.00
72.8853 465.00
73.1896 424.00
73.4938 421.00
73.7981 324.00
74.1024 377.00
74.4066 354.00
74.7109 330.00
75.0151 339.00
75.3194 340.00
75.6237 352.00
75.9279 411.00
76.2322 382.00
76.5364 430.00
76.8407 427.00
77.145 486.00
77.4492 408.00
77.7535 337.00
78.0577 364.00
78.362 368.00
78.6663 378.00
78.9705 417.00
79.2748 424.00
79.579 326.00
79.8833 327.00
80.1876 327.00
80.4918 295.00
80.7961 320.00
81.1003 339.00
81.4046 351.00
81.7089 423.00
82.0131 359.00
82.3174 389.00
82.6217 317.00
82.9259 341.00
83.2302 395.00
83.5344 437.00
83.8387 539.00
84.143 418.00
84.4472 394.00
84.7515 419.00
85.0557 434.00
85.36 346.00
85.6643 368.00
85.9685 344.00
86.2728 363.00
86.577 411.00
86.8813 383.00
87.1856 371.00
87.4898 342.00
87.7941 307.00
88.0983 354.00
88.4026 295.00
88.7069 321.00
89.0111 313.00
89.3154 302.00
89.6196 293.00
89.9239 300.00
90.2282 307.00
90.5324 293.00
90.8367 361.00
91.1409 315.00
91.4452 344.00
91.7495 351.00
92.0537 326.00
92.358 333.00
92.6622 335.00
92.9665 294.00
93.2708 342.00
93.575 326.00
93.8793 350.00
94.1835 315.00
94.4878 273.00
94.7921 458.00
95.0963 488.00
95.4006 371.00
95.7048 331.00
96.0091 353.00
96.3134 361.00
96.6176 335.00
96.9219 321.00
97.2261 305.00
97.5304 358.00
97.8347 327.00
98.1389 327.00
98.4432 326.00
98.7474 360.00
99.0517 382.00
99.356 317.00
99.6602 344.00
99.9645 320.00
100.095 316.00