File: data/xrd_creation/results/Na_309.xy
9.903433 2663.00
10.2077 2618.00
10.512 2438.00
10.8162 2341.00
11.1205 2271.00
11.4247 2203.00
11.729 2278.00
12.0333 2382.00
12.3375 1968.00
12.6418 1856.00
12.946 1772.00
13.2503 1727.00
13.5546 1676.00
13.8588 1606.00
14.1631 1525.00
14.4673 1564.00
14.7716 1507.00
15.0759 1486.00
15.3801 1482.00
15.6844 1422.00
15.9886 1432.00
16.2929 1327.00
16.5972 1339.00
16.9014 1284.00
17.2057 1289.00
17.5099 1279.00
17.8142 1196.00
18.1185 1207.00
18.4227 1183.00
18.727 1192.00
19.0312 1129.00
19.3355 1172.00
19.6398 1216.00
19.944 1193.00
20.2483 1032.00
20.5525 1132.00
20.8568 1169.00
21.1611 973.00
21.4653 985.00
21.7696 958.00
22.0738 954.00
22.3781 937.00
22.6824 1049.00
22.9866 1218.00
23.2909 1076.00
23.5951 975.00
23.8994 1008.00
24.2037 1036.00
24.5079 958.00
24.8122 853.00
25.1164 831.00
25.4207 838.00
25.725 781.00
26.0292 809.00
26.3335 851.00
26.6378 734.00
26.942 818.00
27.2463 708.00
27.5505 822.00
27.8548 818.00
28.1591 1206.00
28.4633 1005.00
28.7676 733.00
29.0718 717.00
29.3761 728.00
29.6804 685.00
29.9846 703.00
30.2889 795.00
30.5931 804.00
30.8974 703.00
31.2017 903.00
31.5059 1272.00
31.8102 918.00
32.1144 608.00
32.4187 626.00
32.723 582.00
33.0272 591.00
33.3315 602.00
33.6357 649.00
33.94 1040.00
34.2443 1045.00
34.5485 624.00
34.8528 542.00
35.157 570.00
35.4613 595.00
35.7656 524.00
36.0698 551.00
36.3741 539.00
36.6783 514.00
36.9826 518.00
37.2869 502.00
37.5911 468.00
37.8954 476.00
38.1996 491.00
38.5039 460.00
38.8082 445.00
39.1124 475.00
39.4167 455.00
39.7209 395.00
40.0252 419.00
40.3295 448.00
40.6337 413.00
40.938 429.00
41.2422 417.00
41.5465 440.00
41.8508 422.00
42.155 431.00
42.4593 417.00
42.7635 370.00
43.0678 390.00
43.3721 401.00
43.6763 386.00
43.9806 390.00
44.2849 392.00
44.5891 391.00
44.8934 385.00
45.1976 368.00
45.5019 361.00
45.8062 362.00
46.1104 392.00
46.4147 391.00
46.7189 404.00
47.0232 413.00
47.3275 362.00
47.6317 355.00
47.936 334.00
48.2402 330.00
48.5445 364.00
48.8488 382.00
49.153 394.00
49.4573 409.00
49.7615 330.00
50.0658 384.00
50.3701 377.00
50.6743 345.00
50.9786 370.00
51.2828 322.00
51.5871 356.00
51.8914 352.00
52.1956 268.00
52.4999 325.00
52.8041 269.00
53.1084 337.00
53.4127 301.00
53.7169 279.00
54.0212 346.00
54.3254 308.00
54.6297 305.00
54.934 282.00
55.2382 304.00
55.5425 305.00
55.8467 317.00
56.151 294.00
56.4553 297.00
56.7595 276.00
57.0638 293.00
57.368 310.00
57.6723 285.00
57.9766 299.00
58.2808 306.00
58.5851 280.00
58.8893 294.00
59.1936 279.00
59.4979 272.00
59.8021 290.00
60.1064 292.00
60.4106 269.00
60.7149 313.00
61.0192 308.00
61.3234 286.00
61.6277 275.00
61.932 319.00
62.2362 259.00
62.5405 256.00
62.8447 301.00
63.149 290.00
63.4533 257.00
63.7575 221.00
64.0618 259.00
64.366 251.00
64.6703 234.00
64.9745 260.00
65.2788 238.00
65.5831 223.00
65.8873 288.00
66.1916 228.00
66.4959 203.00
66.8001 245.00
67.1044 236.00
67.4086 236.00
67.7129 237.00
68.0172 242.00
68.3214 224.00
68.6257 248.00
68.9299 228.00
69.2342 214.00
69.5385 222.00
69.8427 212.00
70.147 242.00
70.4512 269.00
70.7555 231.00
71.0598 220.00
71.364 234.00
71.6683 250.00
71.9725 230.00
72.2768 211.00
72.5811 259.00
72.8853 218.00
73.1896 230.00
73.4938 221.00
73.7981 213.00
74.1024 209.00
74.4066 236.00
74.7109 246.00
75.0151 263.00
75.3194 211.00
75.6237 263.00
75.9279 224.00
76.2322 221.00
76.5364 240.00
76.8407 213.00
77.145 247.00
77.4492 244.00
77.7535 233.00
78.0577 258.00
78.362 249.00
78.6663 274.00
78.9705 227.00
79.2748 262.00
79.579 239.00
79.8833 263.00
80.1876 265.00
80.4918 267.00
80.7961 275.00
81.1003 260.00
81.4046 245.00
81.7089 248.00
82.0131 290.00
82.3174 259.00
82.6217 265.00
82.9259 244.00
83.2302 250.00
83.5344 261.00
83.8387 282.00
84.143 225.00
84.4472 260.00
84.7515 230.00
85.0557 222.00
85.36 211.00
85.6643 225.00
85.9685 243.00
86.2728 234.00
86.577 205.00
86.8813 224.00
87.1856 221.00
87.4898 225.00
87.7941 231.00
88.0983 225.00
88.4026 267.00
88.7069 257.00
89.0111 197.00
89.3154 223.00
89.6196 226.00
89.9239 200.00
90.2282 232.00
90.5324 201.00
90.8367 242.00
91.1409 205.00
91.4452 215.00
91.7495 221.00
92.0537 226.00
92.358 232.00
92.6622 220.00
92.9665 239.00
93.2708 204.00
93.575 202.00
93.8793 197.00
94.1835 214.00
94.4878 205.00
94.7921 222.00
95.0963 196.00
95.4006 201.00
95.7048 228.00
96.0091 240.00
96.3134 208.00
96.6176 192.00
96.9219 190.00
97.2261 200.00
97.5304 194.00
97.8347 211.00
98.1389 227.00
98.4432 207.00
98.7474 218.00
99.0517 210.00
99.356 199.00
99.6602 210.00
99.9645 219.00
100.095 196.00