File: data/xrd_creation/results/Na_47.xy
9.903433 2631.00
10.2077 2624.00
10.512 2507.00
10.8162 2321.00
11.1205 2280.00
11.4247 2234.00
11.729 2168.00
12.0333 2120.00
12.3375 2055.00
12.6418 2020.00
12.946 1889.00
13.2503 1897.00
13.5546 1935.00
13.8588 1915.00
14.1631 1977.00
14.4673 2245.00
14.7716 1964.00
15.0759 1800.00
15.3801 1711.00
15.6844 1759.00
15.9886 1758.00
16.2929 1637.00
16.5972 1657.00
16.9014 1660.00
17.2057 1661.00
17.5099 1631.00
17.8142 1659.00
18.1185 1657.00
18.4227 1565.00
18.727 1499.00
19.0312 1512.00
19.3355 1452.00
19.6398 1525.00
19.944 1490.00
20.2483 1441.00
20.5525 1473.00
20.8568 1527.00
21.1611 1453.00
21.4653 1471.00
21.7696 1464.00
22.0738 1480.00
22.3781 1807.00
22.6824 2542.00
22.9866 17217.00
23.2909 4869.00
23.5951 1846.00
23.8994 1646.00
24.2037 1545.00
24.5079 1428.00
24.8122 1451.00
25.1164 1391.00
25.4207 1308.00
25.725 1404.00
26.0292 1335.00
26.3335 1267.00
26.6378 1284.00
26.942 1308.00
27.2463 1320.00
27.5505 1318.00
27.8548 1740.00
28.1591 1711.00
28.4633 1410.00
28.7676 1649.00
29.0718 3351.00
29.3761 2528.00
29.6804 2163.00
29.9846 1296.00
30.2889 1264.00
30.5931 1212.00
30.8974 1218.00
31.2017 1212.00
31.5059 1150.00
31.8102 1393.00
32.1144 1644.00
32.4187 2867.00
32.723 36739.00
33.0272 4948.00
33.3315 1673.00
33.6357 1551.00
33.94 2617.00
34.2443 1378.00
34.5485 1309.00
34.8528 1175.00
35.157 1140.00
35.4613 1148.00
35.7656 1140.00
36.0698 1111.00
36.3741 1158.00
36.6783 1188.00
36.9826 1102.00
37.2869 1135.00
37.5911 1073.00
37.8954 1047.00
38.1996 1038.00
38.5039 1209.00
38.8082 1143.00
39.1124 1039.00
39.4167 1074.00
39.7209 1105.00
40.0252 1289.00
40.3295 6046.00
40.6337 1653.00
40.938 1044.00
41.2422 1003.00
41.5465 943.00
41.8508 957.00
42.155 1020.00
42.4593 942.00
42.7635 963.00
43.0678 984.00
43.3721 963.00
43.6763 1054.00
43.9806 1103.00
44.2849 1035.00
44.5891 982.00
44.8934 938.00
45.1976 1019.00
45.5019 1024.00
45.8062 1041.00
46.1104 1060.00
46.4147 1238.00
46.7189 3571.00
47.0232 8747.00
47.3275 1371.00
47.6317 1135.00
47.936 1115.00
48.2402 1203.00
48.5445 2007.00
48.8488 1241.00
49.153 1195.00
49.4573 1057.00
49.7615 1009.00
50.0658 1017.00
50.3701 944.00
50.6743 1054.00
50.9786 1168.00
51.2828 1087.00
51.5871 1123.00
51.8914 1109.00
52.1956 1271.00
52.4999 2668.00
52.8041 16333.00
53.1084 2676.00
53.4127 1221.00
53.7169 1104.00
54.0212 1014.00
54.3254 972.00
54.6297 913.00
54.934 946.00
55.2382 962.00
55.5425 989.00
55.8467 950.00
56.151 1041.00
56.4553 1048.00
56.7595 1117.00
57.0638 1424.00
57.368 1551.00
57.6723 1742.00
57.9766 3837.00
58.2808 12868.00
58.5851 3183.00
58.8893 1323.00
59.1936 1022.00
59.4979 1020.00
59.8021 1056.00
60.1064 1076.00
60.4106 936.00
60.7149 1067.00
61.0192 1086.00
61.3234 1005.00
61.6277 923.00
61.932 992.00
62.2362 960.00
62.5405 922.00
62.8447 916.00
63.149 931.00
63.4533 923.00
63.7575 935.00
64.0618 905.00
64.366 913.00
64.6703 867.00
64.9745 895.00
65.2788 919.00
65.5831 844.00
65.8873 949.00
66.1916 956.00
66.4959 900.00
66.8001 936.00
67.1044 994.00
67.4086 943.00
67.7129 1089.00
68.0172 1782.00
68.3214 5506.00
68.6257 1907.00
68.9299 1022.00
69.2342 897.00
69.5385 866.00
69.8427 900.00
70.147 900.00
70.4512 946.00
70.7555 987.00
71.0598 947.00
71.364 941.00
71.6683 927.00
71.9725 948.00
72.2768 1001.00
72.5811 1209.00
72.8853 3517.00
73.1896 4479.00
73.4938 1667.00
73.7981 995.00
74.1024 972.00
74.4066 902.00
74.7109 904.00
75.0151 889.00
75.3194 966.00
75.6237 876.00
75.9279 926.00
76.2322 893.00
76.5364 950.00
76.8407 988.00
77.145 1130.00
77.4492 2032.00
77.7535 4656.00
78.0577 2002.00
78.362 1164.00
78.6663 1073.00
78.9705 975.00
79.2748 941.00
79.579 962.00
79.8833 945.00
80.1876 971.00
80.4918 973.00
80.7961 999.00
81.1003 949.00
81.4046 937.00
81.7089 1042.00
82.0131 1750.00
82.3174 2421.00
82.6217 1490.00
82.9259 977.00
83.2302 905.00
83.5344 894.00
83.8387 904.00
84.143 934.00
84.4472 911.00
84.7515 854.00
85.0557 810.00
85.36 865.00
85.6643 843.00
85.9685 861.00
86.2728 1051.00
86.577 1545.00
86.8813 1643.00
87.1856 1233.00
87.4898 930.00
87.7941 870.00
88.0983 886.00
88.4026 906.00
88.7069 883.00
89.0111 906.00
89.3154 911.00
89.6196 900.00
89.9239 903.00
90.2282 927.00
90.5324 971.00
90.8367 1225.00
91.1409 2780.00
91.4452 2111.00
91.7495 1154.00
92.0537 1001.00
92.358 934.00
92.6622 928.00
92.9665 894.00
93.2708 969.00
93.575 856.00
93.8793 855.00
94.1835 906.00
94.4878 850.00
94.7921 1017.00
95.0963 1210.00
95.4006 2343.00
95.7048 4332.00
96.0091 3294.00
96.3134 1657.00
96.6176 1168.00
96.9219 1017.00
97.2261 926.00
97.5304 874.00
97.8347 903.00
98.1389 923.00
98.4432 872.00
98.7474 920.00
99.0517 896.00
99.356 917.00
99.6602 877.00
99.9645 886.00
100.095 877.00