File: data/xrd_creation/results/Na_43.xy
9.903433 2534.00
10.2077 2388.00
10.512 2323.00
10.8162 2265.00
11.1205 2115.00
11.4247 2042.00
11.729 1932.00
12.0333 1936.00
12.3375 1781.00
12.6418 1721.00
12.946 1638.00
13.2503 1586.00
13.5546 1565.00
13.8588 1549.00
14.1631 1370.00
14.4673 1443.00
14.7716 1448.00
15.0759 1325.00
15.3801 1281.00
15.6844 1272.00
15.9886 1350.00
16.2929 1311.00
16.5972 1222.00
16.9014 1199.00
17.2057 1114.00
17.5099 1146.00
17.8142 1088.00
18.1185 1064.00
18.4227 1036.00
18.727 1044.00
19.0312 969.00
19.3355 973.00
19.6398 992.00
19.944 945.00
20.2483 912.00
20.5525 951.00
20.8568 938.00
21.1611 863.00
21.4653 870.00
21.7696 855.00
22.0738 864.00
22.3781 834.00
22.6824 844.00
22.9866 837.00
23.2909 724.00
23.5951 808.00
23.8994 751.00
24.2037 739.00
24.5079 718.00
24.8122 723.00
25.1164 720.00
25.4207 709.00
25.725 697.00
26.0292 672.00
26.3335 651.00
26.6378 667.00
26.942 681.00
27.2463 630.00
27.5505 647.00
27.8548 640.00
28.1591 650.00
28.4633 637.00
28.7676 611.00
29.0718 616.00
29.3761 653.00
29.6804 585.00
29.9846 565.00
30.2889 616.00
30.5931 589.00
30.8974 498.00
31.2017 555.00
31.5059 527.00
31.8102 508.00
32.1144 474.00
32.4187 567.00
32.723 503.00
33.0272 519.00
33.3315 453.00
33.6357 505.00
33.94 475.00
34.2443 500.00
34.5485 438.00
34.8528 445.00
35.157 494.00
35.4613 444.00
35.7656 437.00
36.0698 442.00
36.3741 429.00
36.6783 405.00
36.9826 423.00
37.2869 388.00
37.5911 378.00
37.8954 389.00
38.1996 360.00
38.5039 354.00
38.8082 360.00
39.1124 371.00
39.4167 361.00
39.7209 340.00
40.0252 373.00
40.3295 327.00
40.6337 384.00
40.938 340.00
41.2422 327.00
41.5465 314.00
41.8508 319.00
42.155 313.00
42.4593 347.00
42.7635 341.00
43.0678 361.00
43.3721 321.00
43.6763 330.00
43.9806 340.00
44.2849 312.00
44.5891 305.00
44.8934 299.00
45.1976 275.00
45.5019 302.00
45.8062 326.00
46.1104 313.00
46.4147 281.00
46.7189 307.00
47.0232 306.00
47.3275 303.00
47.6317 283.00
47.936 302.00
48.2402 292.00
48.5445 285.00
48.8488 275.00
49.153 277.00
49.4573 261.00
49.7615 275.00
50.0658 304.00
50.3701 276.00
50.6743 261.00
50.9786 285.00
51.2828 292.00
51.5871 267.00
51.8914 268.00
52.1956 310.00
52.4999 295.00
52.8041 273.00
53.1084 242.00
53.4127 288.00
53.7169 234.00
54.0212 274.00
54.3254 242.00
54.6297 237.00
54.934 237.00
55.2382 239.00
55.5425 277.00
55.8467 266.00
56.151 225.00
56.4553 277.00
56.7595 200.00
57.0638 237.00
57.368 222.00
57.6723 236.00
57.9766 245.00
58.2808 236.00
58.5851 234.00
58.8893 210.00
59.1936 211.00
59.4979 214.00
59.8021 219.00
60.1064 204.00
60.4106 205.00
60.7149 215.00
61.0192 193.00
61.3234 257.00
61.6277 187.00
61.932 211.00
62.2362 202.00
62.5405 185.00
62.8447 216.00
63.149 215.00
63.4533 193.00
63.7575 194.00
64.0618 204.00
64.366 214.00
64.6703 223.00
64.9745 207.00
65.2788 210.00
65.5831 194.00
65.8873 182.00
66.1916 193.00
66.4959 189.00
66.8001 191.00
67.1044 213.00
67.4086 189.00
67.7129 211.00
68.0172 193.00
68.3214 181.00
68.6257 184.00
68.9299 198.00
69.2342 195.00
69.5385 198.00
69.8427 182.00
70.147 170.00
70.4512 186.00
70.7555 173.00
71.0598 210.00
71.364 207.00
71.6683 200.00
71.9725 199.00
72.2768 200.00
72.5811 221.00
72.8853 183.00
73.1896 212.00
73.4938 222.00
73.7981 218.00
74.1024 190.00
74.4066 188.00
74.7109 212.00
75.0151 202.00
75.3194 203.00
75.6237 187.00
75.9279 225.00
76.2322 205.00
76.5364 236.00
76.8407 184.00
77.145 206.00
77.4492 205.00
77.7535 204.00
78.0577 225.00
78.362 237.00
78.6663 219.00
78.9705 198.00
79.2748 209.00
79.579 235.00
79.8833 226.00
80.1876 235.00
80.4918 239.00
80.7961 216.00
81.1003 211.00
81.4046 233.00
81.7089 246.00
82.0131 263.00
82.3174 232.00
82.6217 248.00
82.9259 240.00
83.2302 222.00
83.5344 212.00
83.8387 219.00
84.143 220.00
84.4472 245.00
84.7515 222.00
85.0557 232.00
85.36 202.00
85.6643 222.00
85.9685 235.00
86.2728 216.00
86.577 221.00
86.8813 196.00
87.1856 194.00
87.4898 169.00
87.7941 173.00
88.0983 206.00
88.4026 211.00
88.7069 183.00
89.0111 174.00
89.3154 172.00
89.6196 198.00
89.9239 207.00
90.2282 186.00
90.5324 189.00
90.8367 210.00
91.1409 189.00
91.4452 176.00
91.7495 192.00
92.0537 177.00
92.358 191.00
92.6622 226.00
92.9665 211.00
93.2708 191.00
93.575 201.00
93.8793 177.00
94.1835 194.00
94.4878 219.00
94.7921 203.00
95.0963 217.00
95.4006 201.00
95.7048 152.00
96.0091 187.00
96.3134 183.00
96.6176 217.00
96.9219 174.00
97.2261 187.00
97.5304 199.00
97.8347 203.00
98.1389 182.00
98.4432 178.00
98.7474 176.00
99.0517 210.00
99.356 194.00
99.6602 190.00
99.9645 195.00
100.095 186.00