File: data/xrd_creation/results/Na_41.xy
9.903433 2659.00
10.2077 2484.00
10.512 2420.00
10.8162 2257.00
11.1205 2263.00
11.4247 2066.00
11.729 2050.00
12.0333 1981.00
12.3375 1880.00
12.6418 1737.00
12.946 1685.00
13.2503 1636.00
13.5546 1577.00
13.8588 1600.00
14.1631 1490.00
14.4673 1444.00
14.7716 1409.00
15.0759 1444.00
15.3801 1316.00
15.6844 1386.00
15.9886 1265.00
16.2929 1258.00
16.5972 1277.00
16.9014 1200.00
17.2057 1213.00
17.5099 1239.00
17.8142 1197.00
18.1185 1139.00
18.4227 1108.00
18.727 1135.00
19.0312 1099.00
19.3355 1037.00
19.6398 990.00
19.944 1152.00
20.2483 975.00
20.5525 944.00
20.8568 1004.00
21.1611 988.00
21.4653 1013.00
21.7696 923.00
22.0738 899.00
22.3781 878.00
22.6824 863.00
22.9866 850.00
23.2909 862.00
23.5951 850.00
23.8994 845.00
24.2037 777.00
24.5079 814.00
24.8122 782.00
25.1164 735.00
25.4207 732.00
25.725 728.00
26.0292 740.00
26.3335 1033.00
26.6378 710.00
26.942 708.00
27.2463 690.00
27.5505 830.00
27.8548 717.00
28.1591 716.00
28.4633 733.00
28.7676 1021.00
29.0718 773.00
29.3761 663.00
29.6804 650.00
29.9846 715.00
30.2889 835.00
30.5931 1410.00
30.8974 638.00
31.2017 614.00
31.5059 664.00
31.8102 594.00
32.1144 596.00
32.4187 529.00
32.723 681.00
33.0272 656.00
33.3315 631.00
33.6357 755.00
33.94 529.00
34.2443 532.00
34.5485 515.00
34.8528 498.00
35.157 549.00
35.4613 741.00
35.7656 436.00
36.0698 518.00
36.3741 453.00
36.6783 445.00
36.9826 470.00
37.2869 458.00
37.5911 535.00
37.8954 456.00
38.1996 401.00
38.5039 404.00
38.8082 433.00
39.1124 435.00
39.4167 426.00
39.7209 434.00
40.0252 468.00
40.3295 375.00
40.6337 361.00
40.938 373.00
41.2422 381.00
41.5465 394.00
41.8508 408.00
42.155 403.00
42.4593 395.00
42.7635 425.00
43.0678 393.00
43.3721 351.00
43.6763 394.00
43.9806 334.00
44.2849 316.00
44.5891 355.00
44.8934 385.00
45.1976 324.00
45.5019 413.00
45.8062 388.00
46.1104 335.00
46.4147 305.00
46.7189 290.00
47.0232 322.00
47.3275 296.00
47.6317 312.00
47.936 338.00
48.2402 406.00
48.5445 362.00
48.8488 318.00
49.153 338.00
49.4573 329.00
49.7615 305.00
50.0658 285.00
50.3701 313.00
50.6743 289.00
50.9786 693.00
51.2828 330.00
51.5871 408.00
51.8914 310.00
52.1956 335.00
52.4999 282.00
52.8041 283.00
53.1084 326.00
53.4127 282.00
53.7169 310.00
54.0212 296.00
54.3254 307.00
54.6297 270.00
54.934 274.00
55.2382 276.00
55.5425 246.00
55.8467 325.00
56.151 270.00
56.4553 298.00
56.7595 268.00
57.0638 293.00
57.368 316.00
57.6723 269.00
57.9766 240.00
58.2808 240.00
58.5851 227.00
58.8893 288.00
59.1936 304.00
59.4979 269.00
59.8021 227.00
60.1064 238.00
60.4106 293.00
60.7149 418.00
61.0192 264.00
61.3234 219.00
61.6277 264.00
61.932 250.00
62.2362 287.00
62.5405 266.00
62.8447 226.00
63.149 264.00
63.4533 246.00
63.7575 259.00
64.0618 226.00
64.366 211.00
64.6703 243.00
64.9745 240.00
65.2788 230.00
65.5831 214.00
65.8873 241.00
66.1916 195.00
66.4959 261.00
66.8001 224.00
67.1044 205.00
67.4086 211.00
67.7129 221.00
68.0172 218.00
68.3214 221.00
68.6257 211.00
68.9299 190.00
69.2342 228.00
69.5385 209.00
69.8427 198.00
70.147 215.00
70.4512 243.00
70.7555 188.00
71.0598 203.00
71.364 199.00
71.6683 216.00
71.9725 205.00
72.2768 229.00
72.5811 208.00
72.8853 233.00
73.1896 196.00
73.4938 220.00
73.7981 205.00
74.1024 213.00
74.4066 202.00
74.7109 203.00
75.0151 258.00
75.3194 238.00
75.6237 201.00
75.9279 219.00
76.2322 270.00
76.5364 238.00
76.8407 237.00
77.145 231.00
77.4492 238.00
77.7535 229.00
78.0577 240.00
78.362 273.00
78.6663 235.00
78.9705 241.00
79.2748 222.00
79.579 246.00
79.8833 259.00
80.1876 239.00
80.4918 294.00
80.7961 266.00
81.1003 261.00
81.4046 257.00
81.7089 292.00
82.0131 243.00
82.3174 246.00
82.6217 256.00
82.9259 210.00
83.2302 234.00
83.5344 243.00
83.8387 227.00
84.143 221.00
84.4472 229.00
84.7515 193.00
85.0557 217.00
85.36 215.00
85.6643 232.00
85.9685 227.00
86.2728 211.00
86.577 219.00
86.8813 210.00
87.1856 219.00
87.4898 187.00
87.7941 197.00
88.0983 215.00
88.4026 217.00
88.7069 221.00
89.0111 186.00
89.3154 209.00
89.6196 232.00
89.9239 238.00
90.2282 185.00
90.5324 183.00
90.8367 207.00
91.1409 212.00
91.4452 208.00
91.7495 171.00
92.0537 177.00
92.358 200.00
92.6622 231.00
92.9665 183.00
93.2708 187.00
93.575 186.00
93.8793 178.00
94.1835 200.00
94.4878 201.00
94.7921 179.00
95.0963 190.00
95.4006 216.00
95.7048 195.00
96.0091 176.00
96.3134 189.00
96.6176 211.00
96.9219 179.00
97.2261 165.00
97.5304 191.00
97.8347 228.00
98.1389 203.00
98.4432 171.00
98.7474 179.00
99.0517 206.00
99.356 222.00
99.6602 183.00
99.9645 172.00
100.095 188.00