File: data/xrd_creation/results/Na_40.xy
9.903433 2614.00
10.2077 2502.00
10.512 2409.00
10.8162 2286.00
11.1205 2195.00
11.4247 2093.00
11.729 2005.00
12.0333 1942.00
12.3375 1746.00
12.6418 1745.00
12.946 1674.00
13.2503 1628.00
13.5546 1552.00
13.8588 1467.00
14.1631 1440.00
14.4673 1363.00
14.7716 1344.00
15.0759 1323.00
15.3801 1232.00
15.6844 1305.00
15.9886 1198.00
16.2929 1204.00
16.5972 1214.00
16.9014 1169.00
17.2057 1152.00
17.5099 1122.00
17.8142 1101.00
18.1185 1083.00
18.4227 1049.00
18.727 1030.00
19.0312 957.00
19.3355 947.00
19.6398 964.00
19.944 1046.00
20.2483 963.00
20.5525 841.00
20.8568 861.00
21.1611 875.00
21.4653 828.00
21.7696 844.00
22.0738 813.00
22.3781 834.00
22.6824 773.00
22.9866 838.00
23.2909 823.00
23.5951 792.00
23.8994 718.00
24.2037 706.00
24.5079 704.00
24.8122 743.00
25.1164 699.00
25.4207 699.00
25.725 722.00
26.0292 624.00
26.3335 660.00
26.6378 648.00
26.942 620.00
27.2463 578.00
27.5505 659.00
27.8548 623.00
28.1591 611.00
28.4633 648.00
28.7676 619.00
29.0718 602.00
29.3761 543.00
29.6804 606.00
29.9846 644.00
30.2889 525.00
30.5931 504.00
30.8974 553.00
31.2017 512.00
31.5059 531.00
31.8102 560.00
32.1144 535.00
32.4187 495.00
32.723 478.00
33.0272 470.00
33.3315 482.00
33.6357 452.00
33.94 459.00
34.2443 455.00
34.5485 428.00
34.8528 431.00
35.157 386.00
35.4613 412.00
35.7656 395.00
36.0698 392.00
36.3741 429.00
36.6783 438.00
36.9826 424.00
37.2869 382.00
37.5911 378.00
37.8954 505.00
38.1996 391.00
38.5039 349.00
38.8082 373.00
39.1124 347.00
39.4167 357.00
39.7209 356.00
40.0252 374.00
40.3295 339.00
40.6337 368.00
40.938 370.00
41.2422 364.00
41.5465 356.00
41.8508 314.00
42.155 333.00
42.4593 330.00
42.7635 318.00
43.0678 330.00
43.3721 306.00
43.6763 325.00
43.9806 387.00
44.2849 314.00
44.5891 310.00
44.8934 308.00
45.1976 272.00
45.5019 291.00
45.8062 309.00
46.1104 292.00
46.4147 300.00
46.7189 277.00
47.0232 260.00
47.3275 277.00
47.6317 285.00
47.936 246.00
48.2402 274.00
48.5445 296.00
48.8488 262.00
49.153 284.00
49.4573 280.00
49.7615 237.00
50.0658 271.00
50.3701 242.00
50.6743 251.00
50.9786 274.00
51.2828 248.00
51.5871 240.00
51.8914 273.00
52.1956 217.00
52.4999 226.00
52.8041 237.00
53.1084 228.00
53.4127 241.00
53.7169 260.00
54.0212 219.00
54.3254 257.00
54.6297 211.00
54.934 225.00
55.2382 234.00
55.5425 210.00
55.8467 214.00
56.151 212.00
56.4553 256.00
56.7595 200.00
57.0638 225.00
57.368 232.00
57.6723 215.00
57.9766 211.00
58.2808 210.00
58.5851 205.00
58.8893 227.00
59.1936 194.00
59.4979 230.00
59.8021 202.00
60.1064 188.00
60.4106 214.00
60.7149 183.00
61.0192 224.00
61.3234 189.00
61.6277 209.00
61.932 218.00
62.2362 179.00
62.5405 207.00
62.8447 187.00
63.149 213.00
63.4533 192.00
63.7575 203.00
64.0618 227.00
64.366 205.00
64.6703 190.00
64.9745 173.00
65.2788 217.00
65.5831 188.00
65.8873 178.00
66.1916 206.00
66.4959 188.00
66.8001 173.00
67.1044 192.00
67.4086 197.00
67.7129 182.00
68.0172 189.00
68.3214 171.00
68.6257 178.00
68.9299 166.00
69.2342 200.00
69.5385 209.00
69.8427 160.00
70.147 221.00
70.4512 197.00
70.7555 192.00
71.0598 179.00
71.364 185.00
71.6683 189.00
71.9725 188.00
72.2768 192.00
72.5811 198.00
72.8853 196.00
73.1896 194.00
73.4938 186.00
73.7981 185.00
74.1024 170.00
74.4066 195.00
74.7109 199.00
75.0151 206.00
75.3194 206.00
75.6237 187.00
75.9279 191.00
76.2322 191.00
76.5364 176.00
76.8407 218.00
77.145 233.00
77.4492 207.00
77.7535 213.00
78.0577 202.00
78.362 188.00
78.6663 221.00
78.9705 208.00
79.2748 205.00
79.579 214.00
79.8833 225.00
80.1876 180.00
80.4918 225.00
80.7961 258.00
81.1003 226.00
81.4046 244.00
81.7089 224.00
82.0131 222.00
82.3174 196.00
82.6217 232.00
82.9259 218.00
83.2302 208.00
83.5344 218.00
83.8387 230.00
84.143 210.00
84.4472 215.00
84.7515 207.00
85.0557 197.00
85.36 192.00
85.6643 213.00
85.9685 223.00
86.2728 192.00
86.577 205.00
86.8813 235.00
87.1856 193.00
87.4898 184.00
87.7941 190.00
88.0983 205.00
88.4026 196.00
88.7069 196.00
89.0111 195.00
89.3154 175.00
89.6196 171.00
89.9239 192.00
90.2282 174.00
90.5324 187.00
90.8367 173.00
91.1409 194.00
91.4452 207.00
91.7495 202.00
92.0537 186.00
92.358 179.00
92.6622 183.00
92.9665 201.00
93.2708 191.00
93.575 194.00
93.8793 159.00
94.1835 203.00
94.4878 187.00
94.7921 204.00
95.0963 188.00
95.4006 203.00
95.7048 174.00
96.0091 198.00
96.3134 158.00
96.6176 188.00
96.9219 188.00
97.2261 179.00
97.5304 173.00
97.8347 193.00
98.1389 160.00
98.4432 190.00
98.7474 180.00
99.0517 174.00
99.356 193.00
99.6602 174.00
99.9645 185.00
100.095 174.00