File: data/xrd_creation/results/Na_44.xy
9.903433 2674.00
10.2077 2586.00
10.512 2525.00
10.8162 2385.00
11.1205 2319.00
11.4247 2158.00
11.729 2168.00
12.0333 2034.00
12.3375 1886.00
12.6418 1882.00
12.946 1802.00
13.2503 1805.00
13.5546 1663.00
13.8588 1634.00
14.1631 1608.00
14.4673 1538.00
14.7716 1530.00
15.0759 1462.00
15.3801 1454.00
15.6844 1364.00
15.9886 1373.00
16.2929 1302.00
16.5972 1257.00
16.9014 1220.00
17.2057 1260.00
17.5099 1197.00
17.8142 1154.00
18.1185 1149.00
18.4227 1116.00
18.727 1030.00
19.0312 1100.00
19.3355 1063.00
19.6398 1056.00
19.944 994.00
20.2483 989.00
20.5525 978.00
20.8568 995.00
21.1611 964.00
21.4653 977.00
21.7696 919.00
22.0738 872.00
22.3781 885.00
22.6824 940.00
22.9866 890.00
23.2909 875.00
23.5951 826.00
23.8994 851.00
24.2037 853.00
24.5079 831.00
24.8122 780.00
25.1164 804.00
25.4207 807.00
25.725 977.00
26.0292 789.00
26.3335 710.00
26.6378 734.00
26.942 719.00
27.2463 763.00
27.5505 732.00
27.8548 701.00
28.1591 790.00
28.4633 699.00
28.7676 724.00
29.0718 729.00
29.3761 693.00
29.6804 641.00
29.9846 719.00
30.2889 660.00
30.5931 652.00
30.8974 612.00
31.2017 651.00
31.5059 575.00
31.8102 568.00
32.1144 562.00
32.4187 619.00
32.723 612.00
33.0272 579.00
33.3315 542.00
33.6357 545.00
33.94 594.00
34.2443 533.00
34.5485 505.00
34.8528 604.00
35.157 526.00
35.4613 498.00
35.7656 485.00
36.0698 471.00
36.3741 433.00
36.6783 476.00
36.9826 447.00
37.2869 403.00
37.5911 453.00
37.8954 475.00
38.1996 380.00
38.5039 457.00
38.8082 438.00
39.1124 403.00
39.4167 423.00
39.7209 469.00
40.0252 432.00
40.3295 395.00
40.6337 381.00
40.938 410.00
41.2422 366.00
41.5465 391.00
41.8508 355.00
42.155 357.00
42.4593 375.00
42.7635 344.00
43.0678 381.00
43.3721 349.00
43.6763 376.00
43.9806 341.00
44.2849 371.00
44.5891 342.00
44.8934 336.00
45.1976 357.00
45.5019 322.00
45.8062 342.00
46.1104 326.00
46.4147 326.00
46.7189 311.00
47.0232 333.00
47.3275 349.00
47.6317 335.00
47.936 328.00
48.2402 305.00
48.5445 333.00
48.8488 322.00
49.153 341.00
49.4573 310.00
49.7615 339.00
50.0658 312.00
50.3701 287.00
50.6743 328.00
50.9786 299.00
51.2828 297.00
51.5871 357.00
51.8914 326.00
52.1956 312.00
52.4999 310.00
52.8041 314.00
53.1084 279.00
53.4127 235.00
53.7169 260.00
54.0212 291.00
54.3254 249.00
54.6297 273.00
54.934 300.00
55.2382 294.00
55.5425 263.00
55.8467 264.00
56.151 261.00
56.4553 237.00
56.7595 270.00
57.0638 278.00
57.368 264.00
57.6723 238.00
57.9766 250.00
58.2808 224.00
58.5851 246.00
58.8893 271.00
59.1936 243.00
59.4979 260.00
59.8021 250.00
60.1064 227.00
60.4106 237.00
60.7149 234.00
61.0192 241.00
61.3234 248.00
61.6277 214.00
61.932 225.00
62.2362 202.00
62.5405 250.00
62.8447 229.00
63.149 204.00
63.4533 216.00
63.7575 230.00
64.0618 230.00
64.366 220.00
64.6703 207.00
64.9745 230.00
65.2788 210.00
65.5831 217.00
65.8873 201.00
66.1916 222.00
66.4959 240.00
66.8001 201.00
67.1044 199.00
67.4086 210.00
67.7129 241.00
68.0172 247.00
68.3214 212.00
68.6257 230.00
68.9299 211.00
69.2342 198.00
69.5385 215.00
69.8427 216.00
70.147 192.00
70.4512 245.00
70.7555 236.00
71.0598 203.00
71.364 224.00
71.6683 216.00
71.9725 206.00
72.2768 219.00
72.5811 193.00
72.8853 212.00
73.1896 218.00
73.4938 199.00
73.7981 257.00
74.1024 228.00
74.4066 203.00
74.7109 188.00
75.0151 234.00
75.3194 240.00
75.6237 206.00
75.9279 244.00
76.2322 198.00
76.5364 217.00
76.8407 217.00
77.145 224.00
77.4492 208.00
77.7535 224.00
78.0577 207.00
78.362 237.00
78.6663 227.00
78.9705 214.00
79.2748 225.00
79.579 228.00
79.8833 247.00
80.1876 226.00
80.4918 276.00
80.7961 219.00
81.1003 246.00
81.4046 217.00
81.7089 228.00
82.0131 258.00
82.3174 232.00
82.6217 264.00
82.9259 246.00
83.2302 221.00
83.5344 247.00
83.8387 214.00
84.143 237.00
84.4472 215.00
84.7515 232.00
85.0557 258.00
85.36 232.00
85.6643 259.00
85.9685 228.00
86.2728 194.00
86.577 183.00
86.8813 204.00
87.1856 233.00
87.4898 221.00
87.7941 224.00
88.0983 231.00
88.4026 209.00
88.7069 194.00
89.0111 206.00
89.3154 213.00
89.6196 202.00
89.9239 190.00
90.2282 220.00
90.5324 188.00
90.8367 219.00
91.1409 204.00
91.4452 218.00
91.7495 200.00
92.0537 189.00
92.358 198.00
92.6622 172.00
92.9665 190.00
93.2708 215.00
93.575 216.00
93.8793 197.00
94.1835 192.00
94.4878 185.00
94.7921 169.00
95.0963 185.00
95.4006 193.00
95.7048 200.00
96.0091 201.00
96.3134 222.00
96.6176 194.00
96.9219 214.00
97.2261 197.00
97.5304 194.00
97.8347 175.00
98.1389 210.00
98.4432 193.00
98.7474 184.00
99.0517 183.00
99.356 225.00
99.6602 196.00
99.9645 156.00
100.095 186.00