File: data/xrd_creation/results/Na_46.xy
9.903433 2612.00
10.2077 2480.00
10.512 2390.00
10.8162 2333.00
11.1205 2225.00
11.4247 2115.00
11.729 2084.00
12.0333 2069.00
12.3375 1973.00
12.6418 1826.00
12.946 1797.00
13.2503 1714.00
13.5546 1712.00
13.8588 1663.00
14.1631 1700.00
14.4673 1688.00
14.7716 1513.00
15.0759 1628.00
15.3801 1547.00
15.6844 1727.00
15.9886 1467.00
16.2929 1534.00
16.5972 1454.00
16.9014 1646.00
17.2057 1488.00
17.5099 1621.00
17.8142 1369.00
18.1185 1422.00
18.4227 1275.00
18.727 1267.00
19.0312 1359.00
19.3355 1296.00
19.6398 1578.00
19.944 1268.00
20.2483 1324.00
20.5525 1180.00
20.8568 1261.00
21.1611 1370.00
21.4653 1181.00
21.7696 2236.00
22.0738 1216.00
22.3781 1076.00
22.6824 1056.00
22.9866 1157.00
23.2909 1107.00
23.5951 1349.00
23.8994 1069.00
24.2037 1324.00
24.5079 1153.00
24.8122 1194.00
25.1164 992.00
25.4207 929.00
25.725 921.00
26.0292 1000.00
26.3335 1001.00
26.6378 854.00
26.942 912.00
27.2463 911.00
27.5505 1129.00
27.8548 2275.00
28.1591 1041.00
28.4633 856.00
28.7676 969.00
29.0718 840.00
29.3761 906.00
29.6804 861.00
29.9846 1976.00
30.2889 2498.00
30.5931 899.00
30.8974 943.00
31.2017 917.00
31.5059 1357.00
31.8102 1563.00
32.1144 859.00
32.4187 1068.00
32.723 999.00
33.0272 664.00
33.3315 686.00
33.6357 874.00
33.94 667.00
34.2443 575.00
34.5485 702.00
34.8528 883.00
35.157 609.00
35.4613 693.00
35.7656 585.00
36.0698 715.00
36.3741 871.00
36.6783 959.00
36.9826 816.00
37.2869 1878.00
37.5911 686.00
37.8954 635.00
38.1996 581.00
38.5039 909.00
38.8082 553.00
39.1124 478.00
39.4167 545.00
39.7209 518.00
40.0252 499.00
40.3295 635.00
40.6337 1039.00
40.938 603.00
41.2422 519.00
41.5465 541.00
41.8508 556.00
42.155 571.00
42.4593 580.00
42.7635 574.00
43.0678 482.00
43.3721 543.00
43.6763 554.00
43.9806 432.00
44.2849 492.00
44.5891 575.00
44.8934 450.00
45.1976 506.00
45.5019 499.00
45.8062 406.00
46.1104 600.00
46.4147 473.00
46.7189 494.00
47.0232 472.00
47.3275 449.00
47.6317 544.00
47.936 533.00
48.2402 427.00
48.5445 466.00
48.8488 549.00
49.153 404.00
49.4573 661.00
49.7615 669.00
50.0658 1082.00
50.3701 1055.00
50.6743 467.00
50.9786 426.00
51.2828 413.00
51.5871 442.00
51.8914 420.00
52.1956 601.00
52.4999 710.00
52.8041 509.00
53.1084 514.00
53.4127 684.00
53.7169 854.00
54.0212 451.00
54.3254 447.00
54.6297 462.00
54.934 395.00
55.2382 409.00
55.5425 418.00
55.8467 397.00
56.151 452.00
56.4553 504.00
56.7595 502.00
57.0638 471.00
57.368 484.00
57.6723 501.00
57.9766 455.00
58.2808 396.00
58.5851 394.00
58.8893 679.00
59.1936 589.00
59.4979 598.00
59.8021 493.00
60.1064 756.00
60.4106 673.00
60.7149 573.00
61.0192 378.00
61.3234 337.00
61.6277 446.00
61.932 393.00
62.2362 443.00
62.5405 494.00
62.8447 481.00
63.149 566.00
63.4533 505.00
63.7575 426.00
64.0618 465.00
64.366 430.00
64.6703 339.00
64.9745 380.00
65.2788 470.00
65.5831 370.00
65.8873 392.00
66.1916 399.00
66.4959 467.00
66.8001 303.00
67.1044 306.00
67.4086 316.00
67.7129 372.00
68.0172 533.00
68.3214 371.00
68.6257 349.00
68.9299 356.00
69.2342 379.00
69.5385 354.00
69.8427 372.00
70.147 329.00
70.4512 308.00
70.7555 323.00
71.0598 357.00
71.364 406.00
71.6683 359.00
71.9725 383.00
72.2768 324.00
72.5811 354.00
72.8853 362.00
73.1896 383.00
73.4938 343.00
73.7981 325.00
74.1024 310.00
74.4066 380.00
74.7109 382.00
75.0151 330.00
75.3194 325.00
75.6237 313.00
75.9279 310.00
76.2322 295.00
76.5364 287.00
76.8407 316.00
77.145 316.00
77.4492 300.00
77.7535 319.00
78.0577 239.00
78.362 275.00
78.6663 351.00
78.9705 324.00
79.2748 307.00
79.579 320.00
79.8833 321.00
80.1876 301.00
80.4918 334.00
80.7961 381.00
81.1003 402.00
81.4046 409.00
81.7089 421.00
82.0131 422.00
82.3174 414.00
82.6217 352.00
82.9259 358.00
83.2302 315.00
83.5344 337.00
83.8387 320.00
84.143 285.00
84.4472 296.00
84.7515 376.00
85.0557 330.00
85.36 282.00
85.6643 353.00
85.9685 393.00
86.2728 264.00
86.577 301.00
86.8813 302.00
87.1856 339.00
87.4898 449.00
87.7941 359.00
88.0983 326.00
88.4026 275.00
88.7069 243.00
89.0111 362.00
89.3154 310.00
89.6196 320.00
89.9239 297.00
90.2282 281.00
90.5324 314.00
90.8367 276.00
91.1409 307.00
91.4452 313.00
91.7495 317.00
92.0537 286.00
92.358 309.00
92.6622 307.00
92.9665 303.00
93.2708 320.00
93.575 266.00
93.8793 320.00
94.1835 342.00
94.4878 336.00
94.7921 287.00
95.0963 270.00
95.4006 302.00
95.7048 282.00
96.0091 266.00
96.3134 292.00
96.6176 299.00
96.9219 270.00
97.2261 314.00
97.5304 279.00
97.8347 240.00
98.1389 250.00
98.4432 214.00
98.7474 279.00
99.0517 226.00
99.356 260.00
99.6602 298.00
99.9645 316.00
100.095 312.00