File: data/xrd_creation/results/Na_48.xy
9.903433 2711.00
10.2077 2588.00
10.512 2599.00
10.8162 2326.00
11.1205 2317.00
11.4247 2205.00
11.729 2088.00
12.0333 2049.00
12.3375 1910.00
12.6418 1881.00
12.946 1831.00
13.2503 1700.00
13.5546 1707.00
13.8588 1678.00
14.1631 1641.00
14.4673 1612.00
14.7716 1529.00
15.0759 1573.00
15.3801 1446.00
15.6844 1432.00
15.9886 1426.00
16.2929 1402.00
16.5972 1426.00
16.9014 1359.00
17.2057 1395.00
17.5099 1337.00
17.8142 1323.00
18.1185 1227.00
18.4227 1283.00
18.727 1270.00
19.0312 1179.00
19.3355 1175.00
19.6398 1167.00
19.944 1137.00
20.2483 1141.00
20.5525 1138.00
20.8568 1118.00
21.1611 1072.00
21.4653 1079.00
21.7696 1017.00
22.0738 1021.00
22.3781 1020.00
22.6824 977.00
22.9866 1118.00
23.2909 972.00
23.5951 1004.00
23.8994 954.00
24.2037 919.00
24.5079 919.00
24.8122 922.00
25.1164 920.00
25.4207 997.00
25.725 4772.00
26.0292 1007.00
26.3335 945.00
26.6378 905.00
26.942 825.00
27.2463 899.00
27.5505 819.00
27.8548 788.00
28.1591 864.00
28.4633 823.00
28.7676 809.00
29.0718 921.00
29.3761 2409.00
29.6804 2381.00
29.9846 2947.00
30.2889 771.00
30.5931 753.00
30.8974 696.00
31.2017 719.00
31.5059 719.00
31.8102 715.00
32.1144 702.00
32.4187 682.00
32.723 572.00
33.0272 674.00
33.3315 569.00
33.6357 570.00
33.94 684.00
34.2443 617.00
34.5485 631.00
34.8528 649.00
35.157 615.00
35.4613 638.00
35.7656 627.00
36.0698 669.00
36.3741 546.00
36.6783 539.00
36.9826 552.00
37.2869 547.00
37.5911 513.00
37.8954 514.00
38.1996 526.00
38.5039 508.00
38.8082 527.00
39.1124 525.00
39.4167 736.00
39.7209 499.00
40.0252 453.00
40.3295 459.00
40.6337 466.00
40.938 518.00
41.2422 460.00
41.5465 499.00
41.8508 502.00
42.155 514.00
42.4593 611.00
42.7635 4394.00
43.0678 776.00
43.3721 547.00
43.6763 494.00
43.9806 498.00
44.2849 466.00
44.5891 420.00
44.8934 465.00
45.1976 475.00
45.5019 455.00
45.8062 429.00
46.1104 383.00
46.4147 393.00
46.7189 420.00
47.0232 490.00
47.3275 511.00
47.6317 505.00
47.936 393.00
48.2402 417.00
48.5445 614.00
48.8488 428.00
49.153 382.00
49.4573 402.00
49.7615 367.00
50.0658 418.00
50.3701 509.00
50.6743 1332.00
50.9786 424.00
51.2828 393.00
51.5871 387.00
51.8914 384.00
52.1956 349.00
52.4999 395.00
52.8041 511.00
53.1084 1108.00
53.4127 415.00
53.7169 381.00
54.0212 413.00
54.3254 369.00
54.6297 390.00
54.934 375.00
55.2382 342.00
55.5425 339.00
55.8467 339.00
56.151 370.00
56.4553 386.00
56.7595 340.00
57.0638 364.00
57.368 426.00
57.6723 357.00
57.9766 335.00
58.2808 367.00
58.5851 333.00
58.8893 328.00
59.1936 322.00
59.4979 325.00
59.8021 285.00
60.1064 354.00
60.4106 329.00
60.7149 343.00
61.0192 364.00
61.3234 361.00
61.6277 324.00
61.932 460.00
62.2362 576.00
62.5405 329.00
62.8447 326.00
63.149 331.00
63.4533 301.00
63.7575 319.00
64.0618 304.00
64.366 304.00
64.6703 323.00
64.9745 319.00
65.2788 319.00
65.5831 348.00
65.8873 323.00
66.1916 320.00
66.4959 264.00
66.8001 306.00
67.1044 336.00
67.4086 303.00
67.7129 285.00
68.0172 330.00
68.3214 596.00
68.6257 377.00
68.9299 309.00
69.2342 314.00
69.5385 285.00
69.8427 318.00
70.147 392.00
70.4512 927.00
70.7555 362.00
71.0598 314.00
71.364 305.00
71.6683 312.00
71.9725 279.00
72.2768 292.00
72.5811 284.00
72.8853 347.00
73.1896 296.00
73.4938 289.00
73.7981 331.00
74.1024 313.00
74.4066 284.00
74.7109 307.00
75.0151 290.00
75.3194 285.00
75.6237 324.00
75.9279 285.00
76.2322 355.00
76.5364 296.00
76.8407 298.00
77.145 311.00
77.4492 323.00
77.7535 279.00
78.0577 346.00
78.362 693.00
78.6663 412.00
78.9705 324.00
79.2748 292.00
79.579 322.00
79.8833 295.00
80.1876 310.00
80.4918 347.00
80.7961 345.00
81.1003 324.00
81.4046 329.00
81.7089 337.00
82.0131 305.00
82.3174 359.00
82.6217 305.00
82.9259 318.00
83.2302 333.00
83.5344 334.00
83.8387 352.00
84.143 465.00
84.4472 332.00
84.7515 330.00
85.0557 340.00
85.36 295.00
85.6643 325.00
85.9685 307.00
86.2728 308.00
86.577 300.00
86.8813 305.00
87.1856 306.00
87.4898 298.00
87.7941 281.00
88.0983 287.00
88.4026 293.00
88.7069 290.00
89.0111 321.00
89.3154 281.00
89.6196 301.00
89.9239 299.00
90.2282 284.00
90.5324 285.00
90.8367 304.00
91.1409 278.00
91.4452 286.00
91.7495 277.00
92.0537 265.00
92.358 288.00
92.6622 307.00
92.9665 276.00
93.2708 289.00
93.575 391.00
93.8793 350.00
94.1835 265.00
94.4878 305.00
94.7921 283.00
95.0963 243.00
95.4006 250.00
95.7048 280.00
96.0091 275.00
96.3134 295.00
96.6176 282.00
96.9219 315.00
97.2261 294.00
97.5304 272.00
97.8347 279.00
98.1389 274.00
98.4432 249.00
98.7474 289.00
99.0517 305.00
99.356 423.00
99.6602 349.00
99.9645 274.00
100.095 288.00