File: data/xrd_creation/results/Na_42.xy
9.903433 2658.00
10.2077 2485.00
10.512 2375.00
10.8162 2271.00
11.1205 2184.00
11.4247 2125.00
11.729 2044.00
12.0333 1925.00
12.3375 1810.00
12.6418 1789.00
12.946 1688.00
13.2503 1618.00
13.5546 1627.00
13.8588 1592.00
14.1631 1566.00
14.4673 1496.00
14.7716 1454.00
15.0759 1420.00
15.3801 1308.00
15.6844 1342.00
15.9886 1302.00
16.2929 1237.00
16.5972 1294.00
16.9014 1192.00
17.2057 1184.00
17.5099 1159.00
17.8142 1101.00
18.1185 1120.00
18.4227 1133.00
18.727 1050.00
19.0312 1092.00
19.3355 1104.00
19.6398 1086.00
19.944 1241.00
20.2483 932.00
20.5525 926.00
20.8568 969.00
21.1611 1017.00
21.4653 1444.00
21.7696 960.00
22.0738 857.00
22.3781 854.00
22.6824 812.00
22.9866 826.00
23.2909 819.00
23.5951 852.00
23.8994 811.00
24.2037 764.00
24.5079 756.00
24.8122 754.00
25.1164 718.00
25.4207 705.00
25.725 658.00
26.0292 724.00
26.3335 749.00
26.6378 697.00
26.942 625.00
27.2463 691.00
27.5505 668.00
27.8548 667.00
28.1591 636.00
28.4633 614.00
28.7676 630.00
29.0718 707.00
29.3761 636.00
29.6804 656.00
29.9846 702.00
30.2889 1117.00
30.5931 4574.00
30.8974 709.00
31.2017 585.00
31.5059 610.00
31.8102 573.00
32.1144 576.00
32.4187 751.00
32.723 618.00
33.0272 769.00
33.3315 609.00
33.6357 522.00
33.94 526.00
34.2443 519.00
34.5485 512.00
34.8528 475.00
35.157 583.00
35.4613 1690.00
35.7656 527.00
36.0698 411.00
36.3741 456.00
36.6783 440.00
36.9826 408.00
37.2869 394.00
37.5911 619.00
37.8954 402.00
38.1996 408.00
38.5039 448.00
38.8082 428.00
39.1124 400.00
39.4167 411.00
39.7209 393.00
40.0252 346.00
40.3295 364.00
40.6337 387.00
40.938 354.00
41.2422 332.00
41.5465 378.00
41.8508 511.00
42.155 370.00
42.4593 320.00
42.7635 326.00
43.0678 348.00
43.3721 335.00
43.6763 353.00
43.9806 301.00
44.2849 331.00
44.5891 316.00
44.8934 345.00
45.1976 311.00
45.5019 437.00
45.8062 472.00
46.1104 298.00
46.4147 347.00
46.7189 286.00
47.0232 313.00
47.3275 331.00
47.6317 303.00
47.936 299.00
48.2402 264.00
48.5445 271.00
48.8488 271.00
49.153 365.00
49.4573 324.00
49.7615 283.00
50.0658 300.00
50.3701 333.00
50.6743 358.00
50.9786 1581.00
51.2828 487.00
51.5871 323.00
51.8914 288.00
52.1956 318.00
52.4999 261.00
52.8041 319.00
53.1084 263.00
53.4127 261.00
53.7169 248.00
54.0212 223.00
54.3254 278.00
54.6297 280.00
54.934 243.00
55.2382 209.00
55.5425 222.00
55.8467 359.00
56.151 302.00
56.4553 222.00
56.7595 230.00
57.0638 242.00
57.368 245.00
57.6723 266.00
57.9766 235.00
58.2808 226.00
58.5851 235.00
58.8893 313.00
59.1936 358.00
59.4979 300.00
59.8021 228.00
60.1064 275.00
60.4106 333.00
60.7149 903.00
61.0192 294.00
61.3234 237.00
61.6277 237.00
61.932 234.00
62.2362 370.00
62.5405 228.00
62.8447 214.00
63.149 220.00
63.4533 218.00
63.7575 335.00
64.0618 220.00
64.366 218.00
64.6703 191.00
64.9745 224.00
65.2788 231.00
65.5831 227.00
65.8873 194.00
66.1916 176.00
66.4959 220.00
66.8001 233.00
67.1044 176.00
67.4086 185.00
67.7129 200.00
68.0172 285.00
68.3214 212.00
68.6257 207.00
68.9299 213.00
69.2342 211.00
69.5385 239.00
69.8427 192.00
70.147 162.00
70.4512 199.00
70.7555 196.00
71.0598 195.00
71.364 210.00
71.6683 179.00
71.9725 199.00
72.2768 210.00
72.5811 207.00
72.8853 180.00
73.1896 213.00
73.4938 229.00
73.7981 211.00
74.1024 198.00
74.4066 195.00
74.7109 219.00
75.0151 271.00
75.3194 228.00
75.6237 200.00
75.9279 189.00
76.2322 203.00
76.5364 249.00
76.8407 228.00
77.145 196.00
77.4492 205.00
77.7535 237.00
78.0577 259.00
78.362 202.00
78.6663 212.00
78.9705 243.00
79.2748 267.00
79.579 233.00
79.8833 257.00
80.1876 214.00
80.4918 242.00
80.7961 211.00
81.1003 246.00
81.4046 236.00
81.7089 302.00
82.0131 270.00
82.3174 230.00
82.6217 207.00
82.9259 244.00
83.2302 364.00
83.5344 238.00
83.8387 245.00
84.143 213.00
84.4472 214.00
84.7515 207.00
85.0557 197.00
85.36 217.00
85.6643 219.00
85.9685 297.00
86.2728 214.00
86.577 206.00
86.8813 201.00
87.1856 208.00
87.4898 222.00
87.7941 166.00
88.0983 199.00
88.4026 203.00
88.7069 219.00
89.0111 224.00
89.3154 207.00
89.6196 198.00
89.9239 230.00
90.2282 192.00
90.5324 212.00
90.8367 183.00
91.1409 183.00
91.4452 201.00
91.7495 173.00
92.0537 211.00
92.358 234.00
92.6622 219.00
92.9665 193.00
93.2708 161.00
93.575 197.00
93.8793 198.00
94.1835 200.00
94.4878 194.00
94.7921 188.00
95.0963 227.00
95.4006 211.00
95.7048 183.00
96.0091 170.00
96.3134 204.00
96.6176 208.00
96.9219 196.00
97.2261 188.00
97.5304 198.00
97.8347 224.00
98.1389 206.00
98.4432 205.00
98.7474 170.00
99.0517 194.00
99.356 182.00
99.6602 207.00
99.9645 178.00
100.095 201.00