File: data/xrd_creation/results/Na_45.xy
9.903433 2616.00
10.2077 2582.00
10.512 2428.00
10.8162 2251.00
11.1205 2177.00
11.4247 2169.00
11.729 2115.00
12.0333 2078.00
12.3375 1940.00
12.6418 1861.00
12.946 1748.00
13.2503 1731.00
13.5546 1635.00
13.8588 1650.00
14.1631 1652.00
14.4673 1689.00
14.7716 1571.00
15.0759 1590.00
15.3801 1568.00
15.6844 1582.00
15.9886 1494.00
16.2929 1483.00
16.5972 1499.00
16.9014 1457.00
17.2057 1432.00
17.5099 1463.00
17.8142 1403.00
18.1185 1379.00
18.4227 1281.00
18.727 1298.00
19.0312 1277.00
19.3355 1238.00
19.6398 1428.00
19.944 1260.00
20.2483 1259.00
20.5525 1223.00
20.8568 1224.00
21.1611 1248.00
21.4653 1160.00
21.7696 1612.00
22.0738 1105.00
22.3781 1092.00
22.6824 1041.00
22.9866 1042.00
23.2909 1193.00
23.5951 1108.00
23.8994 1029.00
24.2037 1152.00
24.5079 993.00
24.8122 1080.00
25.1164 1022.00
25.4207 954.00
25.725 959.00
26.0292 983.00
26.3335 897.00
26.6378 906.00
26.942 888.00
27.2463 982.00
27.5505 1069.00
27.8548 2045.00
28.1591 948.00
28.4633 915.00
28.7676 941.00
29.0718 947.00
29.3761 870.00
29.6804 967.00
29.9846 2419.00
30.2889 2886.00
30.5931 990.00
30.8974 869.00
31.2017 965.00
31.5059 946.00
31.8102 1042.00
32.1144 841.00
32.4187 819.00
32.723 720.00
33.0272 640.00
33.3315 688.00
33.6357 679.00
33.94 665.00
34.2443 613.00
34.5485 695.00
34.8528 1100.00
35.157 666.00
35.4613 677.00
35.7656 555.00
36.0698 620.00
36.3741 710.00
36.6783 590.00
36.9826 712.00
37.2869 827.00
37.5911 588.00
37.8954 660.00
38.1996 708.00
38.5039 1159.00
38.8082 538.00
39.1124 518.00
39.4167 494.00
39.7209 527.00
40.0252 547.00
40.3295 558.00
40.6337 845.00
40.938 543.00
41.2422 487.00
41.5465 537.00
41.8508 516.00
42.155 534.00
42.4593 455.00
42.7635 507.00
43.0678 506.00
43.3721 579.00
43.6763 526.00
43.9806 461.00
44.2849 463.00
44.5891 514.00
44.8934 468.00
45.1976 528.00
45.5019 468.00
45.8062 451.00
46.1104 549.00
46.4147 459.00
46.7189 478.00
47.0232 424.00
47.3275 455.00
47.6317 523.00
47.936 540.00
48.2402 522.00
48.5445 468.00
48.8488 408.00
49.153 450.00
49.4573 556.00
49.7615 738.00
50.0658 1324.00
50.3701 923.00
50.6743 490.00
50.9786 450.00
51.2828 443.00
51.5871 465.00
51.8914 470.00
52.1956 593.00
52.4999 602.00
52.8041 525.00
53.1084 516.00
53.4127 584.00
53.7169 468.00
54.0212 402.00
54.3254 424.00
54.6297 439.00
54.934 396.00
55.2382 408.00
55.5425 408.00
55.8467 333.00
56.151 396.00
56.4553 399.00
56.7595 382.00
57.0638 517.00
57.368 528.00
57.6723 417.00
57.9766 379.00
58.2808 439.00
58.5851 403.00
58.8893 593.00
59.1936 677.00
59.4979 810.00
59.8021 586.00
60.1064 643.00
60.4106 493.00
60.7149 386.00
61.0192 368.00
61.3234 360.00
61.6277 380.00
61.932 424.00
62.2362 501.00
62.5405 490.00
62.8447 453.00
63.149 497.00
63.4533 374.00
63.7575 390.00
64.0618 451.00
64.366 425.00
64.6703 364.00
64.9745 404.00
65.2788 438.00
65.5831 347.00
65.8873 401.00
66.1916 433.00
66.4959 418.00
66.8001 327.00
67.1044 320.00
67.4086 314.00
67.7129 386.00
68.0172 432.00
68.3214 405.00
68.6257 361.00
68.9299 343.00
69.2342 376.00
69.5385 356.00
69.8427 349.00
70.147 332.00
70.4512 328.00
70.7555 331.00
71.0598 351.00
71.364 375.00
71.6683 338.00
71.9725 338.00
72.2768 408.00
72.5811 339.00
72.8853 357.00
73.1896 371.00
73.4938 337.00
73.7981 339.00
74.1024 296.00
74.4066 377.00
74.7109 340.00
75.0151 320.00
75.3194 315.00
75.6237 345.00
75.9279 289.00
76.2322 272.00
76.5364 265.00
76.8407 302.00
77.145 273.00
77.4492 292.00
77.7535 305.00
78.0577 249.00
78.362 278.00
78.6663 305.00
78.9705 294.00
79.2748 320.00
79.579 298.00
79.8833 292.00
80.1876 349.00
80.4918 359.00
80.7961 379.00
81.1003 416.00
81.4046 461.00
81.7089 380.00
82.0131 368.00
82.3174 399.00
82.6217 330.00
82.9259 314.00
83.2302 334.00
83.5344 332.00
83.8387 347.00
84.143 300.00
84.4472 305.00
84.7515 350.00
85.0557 314.00
85.36 327.00
85.6643 347.00
85.9685 349.00
86.2728 285.00
86.577 282.00
86.8813 323.00
87.1856 339.00
87.4898 352.00
87.7941 302.00
88.0983 310.00
88.4026 311.00
88.7069 293.00
89.0111 331.00
89.3154 280.00
89.6196 334.00
89.9239 306.00
90.2282 338.00
90.5324 320.00
90.8367 289.00
91.1409 332.00
91.4452 300.00
91.7495 275.00
92.0537 308.00
92.358 299.00
92.6622 258.00
92.9665 286.00
93.2708 311.00
93.575 305.00
93.8793 366.00
94.1835 401.00
94.4878 285.00
94.7921 282.00
95.0963 323.00
95.4006 318.00
95.7048 319.00
96.0091 317.00
96.3134 298.00
96.6176 311.00
96.9219 285.00
97.2261 272.00
97.5304 265.00
97.8347 246.00
98.1389 270.00
98.4432 256.00
98.7474 266.00
99.0517 277.00
99.356 262.00
99.6602 320.00
99.9645 331.00
100.095 374.00