File: data/xrd_creation/results/Na_49.xy
9.903433 4395.00
10.2077 3238.00
10.512 3122.00
10.8162 2992.00
11.1205 2951.00
11.4247 2825.00
11.729 2738.00
12.0333 2741.00
12.3375 2665.00
12.6418 2620.00
12.946 2665.00
13.2503 3066.00
13.5546 4574.00
13.8588 3498.00
14.1631 2526.00
14.4673 2474.00
14.7716 2372.00
15.0759 2303.00
15.3801 2304.00
15.6844 2321.00
15.9886 2218.00
16.2929 2265.00
16.5972 2255.00
16.9014 2151.00
17.2057 2213.00
17.5099 2109.00
17.8142 2154.00
18.1185 2110.00
18.4227 2093.00
18.727 2149.00
19.0312 2238.00
19.3355 2464.00
19.6398 2080.00
19.944 1948.00
20.2483 1867.00
20.5525 1946.00
20.8568 1866.00
21.1611 1945.00
21.4653 1894.00
21.7696 1767.00
22.0738 1842.00
22.3781 1863.00
22.6824 1797.00
22.9866 1751.00
23.2909 1761.00
23.5951 1751.00
23.8994 1725.00
24.2037 1691.00
24.5079 1782.00
24.8122 1721.00
25.1164 1690.00
25.4207 1690.00
25.725 1641.00
26.0292 1781.00
26.3335 2043.00
26.6378 4018.00
26.942 7164.00
27.2463 2675.00
27.5505 3333.00
27.8548 2866.00
28.1591 2724.00
28.4633 2241.00
28.7676 2301.00
29.0718 2345.00
29.3761 2046.00
29.6804 1944.00
29.9846 2044.00
30.2889 2391.00
30.5931 2318.00
30.8974 2335.00
31.2017 2385.00
31.5059 2502.00
31.8102 4902.00
32.1144 4038.00
32.4187 2354.00
32.723 9015.00
33.0272 2808.00
33.3315 2106.00
33.6357 1673.00
33.94 1650.00
34.2443 1677.00
34.5485 1969.00
34.8528 1992.00
35.157 1836.00
35.4613 3210.00
35.7656 6988.00
36.0698 6482.00
36.3741 2354.00
36.6783 1940.00
36.9826 1733.00
37.2869 1621.00
37.5911 1669.00
37.8954 1633.00
38.1996 2127.00
38.5039 1686.00
38.8082 1784.00
39.1124 1509.00
39.4167 1422.00
39.7209 1405.00
40.0252 1582.00
40.3295 1502.00
40.6337 1395.00
40.938 1425.00
41.2422 1841.00
41.5465 1574.00
41.8508 1589.00
42.155 1364.00
42.4593 1422.00
42.7635 1819.00
43.0678 3066.00
43.3721 1571.00
43.6763 1464.00
43.9806 1394.00
44.2849 1410.00
44.5891 1379.00
44.8934 1496.00
45.1976 1482.00
45.5019 2412.00
45.8062 5409.00
46.1104 1516.00
46.4147 1462.00
46.7189 2501.00
47.0232 3844.00
47.3275 1622.00
47.6317 1506.00
47.936 1511.00
48.2402 2706.00
48.5445 2146.00
48.8488 1695.00
49.153 1822.00
49.4573 1600.00
49.7615 1265.00
50.0658 1291.00
50.3701 1208.00
50.6743 1250.00
50.9786 1235.00
51.2828 1321.00
51.5871 1250.00
51.8914 1277.00
52.1956 1383.00
52.4999 1345.00
52.8041 1377.00
53.1084 1474.00
53.4127 2362.00
53.7169 2129.00
54.0212 1674.00
54.3254 1436.00
54.6297 2527.00
54.934 2409.00
55.2382 1355.00
55.5425 1288.00
55.8467 1425.00
56.151 1332.00
56.4553 1571.00
56.7595 2645.00
57.0638 1512.00
57.368 1506.00
57.6723 1325.00
57.9766 1319.00
58.2808 1378.00
58.5851 1357.00
58.8893 1455.00
59.1936 1392.00
59.4979 1372.00
59.8021 1568.00
60.1064 2530.00
60.4106 3563.00
60.7149 1664.00
61.0192 1773.00
61.3234 1829.00
61.6277 1356.00
61.932 1357.00
62.2362 1300.00
62.5405 1245.00
62.8447 1347.00
63.149 1312.00
63.4533 1442.00
63.7575 1432.00
64.0618 1606.00
64.366 1289.00
64.6703 1174.00
64.9745 1142.00
65.2788 1155.00
65.5831 1182.00
65.8873 1294.00
66.1916 1625.00
66.4959 1716.00
66.8001 1186.00
67.1044 1121.00
67.4086 1158.00
67.7129 1216.00
68.0172 1221.00
68.3214 1739.00
68.6257 1341.00
68.9299 1200.00
69.2342 1178.00
69.5385 1128.00
69.8427 1144.00
70.147 1243.00
70.4512 1078.00
70.7555 1104.00
71.0598 1163.00
71.364 1077.00
71.6683 1191.00
71.9725 1129.00
72.2768 1126.00
72.5811 1185.00
72.8853 1096.00
73.1896 1198.00
73.4938 1179.00
73.7981 1139.00
74.1024 1104.00
74.4066 1172.00
74.7109 1472.00
75.0151 1332.00
75.3194 1856.00
75.6237 2142.00
75.9279 1288.00
76.2322 1243.00
76.5364 1148.00
76.8407 1197.00
77.145 1201.00
77.4492 1358.00
77.7535 1724.00
78.0577 1282.00
78.362 1136.00
78.6663 1237.00
78.9705 1320.00
79.2748 1467.00
79.579 1610.00
79.8833 1399.00
80.1876 1694.00
80.4918 1644.00
80.7961 1355.00
81.1003 1232.00
81.4046 1123.00
81.7089 1205.00
82.0131 1147.00
82.3174 1119.00
82.6217 1235.00
82.9259 1238.00
83.2302 1172.00
83.5344 1167.00
83.8387 1349.00
84.143 2302.00
84.4472 1521.00
84.7515 1143.00
85.0557 1106.00
85.36 1107.00
85.6643 1120.00
85.9685 1131.00
86.2728 1145.00
86.577 1141.00
86.8813 1080.00
87.1856 1088.00
87.4898 1115.00
87.7941 1099.00
88.0983 1078.00
88.4026 1123.00
88.7069 1126.00
89.0111 1142.00
89.3154 1119.00
89.6196 1210.00
89.9239 1327.00
90.2282 1191.00
90.5324 1227.00
90.8367 1199.00
91.1409 1144.00
91.4452 1207.00
91.7495 1391.00
92.0537 1345.00
92.358 1137.00
92.6622 1256.00
92.9665 1299.00
93.2708 1170.00
93.575 1165.00
93.8793 1259.00
94.1835 1175.00
94.4878 1241.00
94.7921 1165.00
95.0963 1075.00
95.4006 1057.00
95.7048 1004.00
96.0091 1066.00
96.3134 1053.00
96.6176 1117.00
96.9219 1125.00
97.2261 1311.00
97.5304 1488.00
97.8347 1453.00
98.1389 1313.00
98.4432 1239.00
98.7474 1151.00
99.0517 1066.00
99.356 1149.00
99.6602 1080.00
99.9645 1143.00
100.095 1039.00