File: data/xrd_creation/results/Na_53.xy
9.903433 3158.00
10.2077 3080.00
10.512 2929.00
10.8162 2919.00
11.1205 2870.00
11.4247 2788.00
11.729 2547.00
12.0333 2655.00
12.3375 2586.00
12.6418 2566.00
12.946 2484.00
13.2503 2469.00
13.5546 2535.00
13.8588 3627.00
14.1631 3329.00
14.4673 7529.00
14.7716 2637.00
15.0759 3221.00
15.3801 8241.00
15.6844 2485.00
15.9886 2352.00
16.2929 2412.00
16.5972 3314.00
16.9014 4896.00
17.2057 2359.00
17.5099 2426.00
17.8142 2841.00
18.1185 5517.00
18.4227 2313.00
18.727 4011.00
19.0312 2329.00
19.3355 2030.00
19.6398 2158.00
19.944 4078.00
20.2483 2261.00
20.5525 3427.00
20.8568 2406.00
21.1611 2032.00
21.4653 1894.00
21.7696 1871.00
22.0738 1949.00
22.3781 1923.00
22.6824 2175.00
22.9866 6887.00
23.2909 2305.00
23.5951 1887.00
23.8994 1787.00
24.2037 1848.00
24.5079 1842.00
24.8122 1811.00
25.1164 1971.00
25.4207 4898.00
25.725 2517.00
26.0292 1898.00
26.3335 2340.00
26.6378 7332.00
26.942 2584.00
27.2463 1903.00
27.5505 1934.00
27.8548 1991.00
28.1591 1679.00
28.4633 1755.00
28.7676 2276.00
29.0718 1948.00
29.3761 4016.00
29.6804 1736.00
29.9846 1754.00
30.2889 1670.00
30.5931 1905.00
30.8974 1635.00
31.2017 2298.00
31.5059 3197.00
31.8102 3572.00
32.1144 4898.00
32.4187 1627.00
32.723 1558.00
33.0272 1832.00
33.3315 1503.00
33.6357 1748.00
33.94 1637.00
34.2443 2218.00
34.5485 1533.00
34.8528 1557.00
35.157 2837.00
35.4613 1714.00
35.7656 1705.00
36.0698 3062.00
36.3741 2185.00
36.6783 1727.00
36.9826 2310.00
37.2869 1840.00
37.5911 1710.00
37.8954 4498.00
38.1996 2987.00
38.5039 1587.00
38.8082 1671.00
39.1124 3562.00
39.4167 1740.00
39.7209 2336.00
40.0252 3611.00
40.3295 2936.00
40.6337 1765.00
40.938 3791.00
41.2422 1899.00
41.5465 2171.00
41.8508 1718.00
42.155 1815.00
42.4593 1573.00
42.7635 1905.00
43.0678 3652.00
43.3721 2172.00
43.6763 1687.00
43.9806 1456.00
44.2849 1491.00
44.5891 3043.00
44.8934 2790.00
45.1976 1648.00
45.5019 2190.00
45.8062 3426.00
46.1104 1658.00
46.4147 1801.00
46.7189 1785.00
47.0232 1490.00
47.3275 3223.00
47.6317 1819.00
47.936 2134.00
48.2402 2501.00
48.5445 1969.00
48.8488 1825.00
49.153 1539.00
49.4573 1657.00
49.7615 2010.00
50.0658 1507.00
50.3701 1404.00
50.6743 1678.00
50.9786 1319.00
51.2828 1366.00
51.5871 1572.00
51.8914 1578.00
52.1956 1928.00
52.4999 1471.00
52.8041 1290.00
53.1084 1466.00
53.4127 1255.00
53.7169 1276.00
54.0212 1296.00
54.3254 1352.00
54.6297 1244.00
54.934 1342.00
55.2382 1954.00
55.5425 1676.00
55.8467 2154.00
56.151 1456.00
56.4553 1570.00
56.7595 2227.00
57.0638 1464.00
57.368 1318.00
57.6723 1435.00
57.9766 1987.00
58.2808 1433.00
58.5851 1366.00
58.8893 1637.00
59.1936 1662.00
59.4979 1374.00
59.8021 1425.00
60.1064 1378.00
60.4106 1405.00
60.7149 1289.00
61.0192 1505.00
61.3234 1836.00
61.6277 1718.00
61.932 1815.00
62.2362 1649.00
62.5405 1421.00
62.8447 1486.00
63.149 1464.00
63.4533 1435.00
63.7575 1442.00
64.0618 1426.00
64.366 1698.00
64.6703 1689.00
64.9745 1346.00
65.2788 1296.00
65.5831 1443.00
65.8873 1518.00
66.1916 1293.00
66.4959 1567.00
66.8001 1301.00
67.1044 1548.00
67.4086 1219.00
67.7129 1153.00
68.0172 1183.00
68.3214 1287.00
68.6257 1433.00
68.9299 1257.00
69.2342 1150.00
69.5385 1222.00
69.8427 1125.00
70.147 1302.00
70.4512 1314.00
70.7555 1306.00
71.0598 1241.00
71.364 1161.00
71.6683 1201.00
71.9725 1160.00
72.2768 1187.00
72.5811 1219.00
72.8853 1206.00
73.1896 1158.00
73.4938 1161.00
73.7981 1302.00
74.1024 1531.00
74.4066 1340.00
74.7109 1171.00
75.0151 1331.00
75.3194 1411.00
75.6237 1654.00
75.9279 1377.00
76.2322 1637.00
76.5364 1408.00
76.8407 1348.00
77.145 1397.00
77.4492 1370.00
77.7535 1567.00
78.0577 1273.00
78.362 1314.00
78.6663 1351.00
78.9705 1228.00
79.2748 1206.00
79.579 1180.00
79.8833 1355.00
80.1876 1330.00
80.4918 1226.00
80.7961 1131.00
81.1003 1159.00
81.4046 1209.00
81.7089 1290.00
82.0131 1283.00
82.3174 1240.00
82.6217 1158.00
82.9259 1177.00
83.2302 1262.00
83.5344 1309.00
83.8387 1341.00
84.143 1455.00
84.4472 1403.00
84.7515 1249.00
85.0557 1201.00
85.36 1353.00
85.6643 1334.00
85.9685 1202.00
86.2728 1148.00
86.577 1278.00
86.8813 1316.00
87.1856 1363.00
87.4898 1245.00
87.7941 1255.00
88.0983 1214.00
88.4026 1316.00
88.7069 1275.00
89.0111 1266.00
89.3154 1264.00
89.6196 1141.00
89.9239 1208.00
90.2282 1283.00
90.5324 1285.00
90.8367 1258.00
91.1409 1213.00
91.4452 1142.00
91.7495 1183.00
92.0537 1122.00
92.358 1093.00
92.6622 1147.00
92.9665 1165.00
93.2708 1276.00
93.575 1198.00
93.8793 1182.00
94.1835 1195.00
94.4878 1266.00
94.7921 1243.00
95.0963 1250.00
95.4006 1278.00
95.7048 1142.00
96.0091 1179.00
96.3134 1269.00
96.6176 1271.00
96.9219 1209.00
97.2261 1226.00
97.5304 1171.00
97.8347 1194.00
98.1389 1168.00
98.4432 1150.00
98.7474 1253.00
99.0517 1167.00
99.356 1177.00
99.6602 1245.00
99.9645 1143.00
100.095 1201.00