File: data/xrd_creation/results/Na_54.xy
9.903433 2880.00
10.2077 2751.00
10.512 2686.00
10.8162 2580.00
11.1205 2422.00
11.4247 2448.00
11.729 2319.00
12.0333 2207.00
12.3375 2195.00
12.6418 2165.00
12.946 2133.00
13.2503 2128.00
13.5546 2206.00
13.8588 2398.00
14.1631 2511.00
14.4673 2322.00
14.7716 2205.00
15.0759 2054.00
15.3801 2054.00
15.6844 2075.00
15.9886 2020.00
16.2929 1994.00
16.5972 2023.00
16.9014 2210.00
17.2057 2103.00
17.5099 1913.00
17.8142 1933.00
18.1185 1888.00
18.4227 1905.00
18.727 1928.00
19.0312 1829.00
19.3355 1736.00
19.6398 1737.00
19.944 1837.00
20.2483 1634.00
20.5525 1697.00
20.8568 1754.00
21.1611 1806.00
21.4653 1914.00
21.7696 2017.00
22.0738 1824.00
22.3781 1687.00
22.6824 1760.00
22.9866 1897.00
23.2909 1583.00
23.5951 1967.00
23.8994 1948.00
24.2037 1728.00
24.5079 1916.00
24.8122 1949.00
25.1164 2191.00
25.4207 2443.00
25.725 2608.00
26.0292 3139.00
26.3335 3091.00
26.6378 1925.00
26.942 1549.00
27.2463 1515.00
27.5505 2072.00
27.8548 2785.00
28.1591 1261.00
28.4633 1191.00
28.7676 1098.00
29.0718 1073.00
29.3761 1125.00
29.6804 1201.00
29.9846 3356.00
30.2889 8744.00
30.5931 1758.00
30.8974 1147.00
31.2017 1101.00
31.5059 1007.00
31.8102 1004.00
32.1144 955.00
32.4187 948.00
32.723 1040.00
33.0272 2373.00
33.3315 2448.00
33.6357 1033.00
33.94 1266.00
34.2443 4270.00
34.5485 5389.00
34.8528 3225.00
35.157 4231.00
35.4613 7577.00
35.7656 1167.00
36.0698 1057.00
36.3741 965.00
36.6783 1063.00
36.9826 1206.00
37.2869 1064.00
37.5911 1664.00
37.8954 4753.00
38.1996 10027.00
38.5039 2040.00
38.8082 1524.00
39.1124 1015.00
39.4167 1053.00
39.7209 1410.00
40.0252 4295.00
40.3295 2366.00
40.6337 1068.00
40.938 1511.00
41.2422 4061.00
41.5465 4898.00
41.8508 2334.00
42.155 1126.00
42.4593 1427.00
42.7635 1495.00
43.0678 1241.00
43.3721 1116.00
43.6763 984.00
43.9806 998.00
44.2849 1029.00
44.5891 1908.00
44.8934 1226.00
45.1976 879.00
45.5019 884.00
45.8062 856.00
46.1104 979.00
46.4147 2328.00
46.7189 3404.00
47.0232 1252.00
47.3275 1178.00
47.6317 788.00
47.936 917.00
48.2402 2696.00
48.5445 2761.00
48.8488 834.00
49.153 837.00
49.4573 881.00
49.7615 687.00
50.0658 631.00
50.3701 713.00
50.6743 810.00
50.9786 971.00
51.2828 744.00
51.5871 679.00
51.8914 670.00
52.1956 675.00
52.4999 714.00
52.8041 769.00
53.1084 813.00
53.4127 1328.00
53.7169 2123.00
54.0212 1005.00
54.3254 949.00
54.6297 1657.00
54.934 1333.00
55.2382 747.00
55.5425 1012.00
55.8467 696.00
56.151 881.00
56.4553 1379.00
56.7595 858.00
57.0638 907.00
57.368 801.00
57.6723 636.00
57.9766 621.00
58.2808 808.00
58.5851 1207.00
58.8893 1163.00
59.1936 1391.00
59.4979 682.00
59.8021 605.00
60.1064 555.00
60.4106 721.00
60.7149 1060.00
61.0192 741.00
61.3234 524.00
61.6277 560.00
61.932 882.00
62.2362 978.00
62.5405 1017.00
62.8447 1389.00
63.149 610.00
63.4533 556.00
63.7575 814.00
64.0618 962.00
64.366 586.00
64.6703 503.00
64.9745 475.00
65.2788 444.00
65.5831 467.00
65.8873 566.00
66.1916 489.00
66.4959 435.00
66.8001 433.00
67.1044 461.00
67.4086 839.00
67.7129 687.00
68.0172 463.00
68.3214 423.00
68.6257 410.00
68.9299 428.00
69.2342 426.00
69.5385 496.00
69.8427 499.00
70.147 560.00
70.4512 490.00
70.7555 403.00
71.0598 376.00
71.364 424.00
71.6683 487.00
71.9725 573.00
72.2768 626.00
72.5811 580.00
72.8853 455.00
73.1896 524.00
73.4938 608.00
73.7981 496.00
74.1024 442.00
74.4066 556.00
74.7109 785.00
75.0151 424.00
75.3194 413.00
75.6237 438.00
75.9279 411.00
76.2322 499.00
76.5364 447.00
76.8407 433.00
77.145 414.00
77.4492 390.00
77.7535 492.00
78.0577 487.00
78.362 455.00
78.6663 463.00
78.9705 432.00
79.2748 609.00
79.579 586.00
79.8833 643.00
80.1876 761.00
80.4918 895.00
80.7961 569.00
81.1003 468.00
81.4046 496.00
81.7089 489.00
82.0131 490.00
82.3174 436.00
82.6217 481.00
82.9259 493.00
83.2302 486.00
83.5344 588.00
83.8387 473.00
84.143 481.00
84.4472 467.00
84.7515 472.00
85.0557 489.00
85.36 428.00
85.6643 414.00
85.9685 438.00
86.2728 430.00
86.577 370.00
86.8813 421.00
87.1856 421.00
87.4898 419.00
87.7941 496.00
88.0983 435.00
88.4026 383.00
88.7069 363.00
89.0111 369.00
89.3154 472.00
89.6196 489.00
89.9239 495.00
90.2282 509.00
90.5324 449.00
90.8367 373.00
91.1409 462.00
91.4452 427.00
91.7495 394.00
92.0537 412.00
92.358 372.00
92.6622 417.00
92.9665 409.00
93.2708 558.00
93.575 607.00
93.8793 542.00
94.1835 464.00
94.4878 370.00
94.7921 361.00
95.0963 375.00
95.4006 381.00
95.7048 402.00
96.0091 393.00
96.3134 403.00
96.6176 371.00
96.9219 367.00
97.2261 332.00
97.5304 342.00
97.8347 354.00
98.1389 412.00
98.4432 404.00
98.7474 459.00
99.0517 467.00
99.356 580.00
99.6602 476.00
99.9645 386.00
100.095 424.00