File: data/xrd_creation/results/Na_52.xy
9.903433 2559.00
10.2077 2404.00
10.512 2282.00
10.8162 2312.00
11.1205 2129.00
11.4247 2050.00
11.729 1950.00
12.0333 1898.00
12.3375 1784.00
12.6418 1731.00
12.946 1720.00
13.2503 1615.00
13.5546 1565.00
13.8588 1580.00
14.1631 1482.00
14.4673 1505.00
14.7716 1344.00
15.0759 1301.00
15.3801 1291.00
15.6844 1299.00
15.9886 1285.00
16.2929 1248.00
16.5972 1223.00
16.9014 1197.00
17.2057 1206.00
17.5099 1146.00
17.8142 1072.00
18.1185 1034.00
18.4227 1066.00
18.727 1033.00
19.0312 992.00
19.3355 1000.00
19.6398 989.00
19.944 923.00
20.2483 951.00
20.5525 986.00
20.8568 926.00
21.1611 927.00
21.4653 853.00
21.7696 905.00
22.0738 817.00
22.3781 847.00
22.6824 885.00
22.9866 818.00
23.2909 792.00
23.5951 777.00
23.8994 777.00
24.2037 718.00
24.5079 716.00
24.8122 685.00
25.1164 703.00
25.4207 649.00
25.725 709.00
26.0292 739.00
26.3335 739.00
26.6378 668.00
26.942 629.00
27.2463 672.00
27.5505 622.00
27.8548 638.00
28.1591 699.00
28.4633 690.00
28.7676 639.00
29.0718 657.00
29.3761 602.00
29.6804 580.00
29.9846 612.00
30.2889 683.00
30.5931 578.00
30.8974 571.00
31.2017 586.00
31.5059 505.00
31.8102 515.00
32.1144 514.00
32.4187 472.00
32.723 491.00
33.0272 457.00
33.3315 549.00
33.6357 540.00
33.94 506.00
34.2443 483.00
34.5485 478.00
34.8528 420.00
35.157 432.00
35.4613 459.00
35.7656 429.00
36.0698 422.00
36.3741 475.00
36.6783 447.00
36.9826 443.00
37.2869 423.00
37.5911 411.00
37.8954 386.00
38.1996 369.00
38.5039 388.00
38.8082 371.00
39.1124 374.00
39.4167 387.00
39.7209 400.00
40.0252 411.00
40.3295 344.00
40.6337 350.00
40.938 338.00
41.2422 351.00
41.5465 372.00
41.8508 334.00
42.155 361.00
42.4593 361.00
42.7635 307.00
43.0678 337.00
43.3721 383.00
43.6763 393.00
43.9806 329.00
44.2849 349.00
44.5891 317.00
44.8934 329.00
45.1976 327.00
45.5019 320.00
45.8062 310.00
46.1104 282.00
46.4147 317.00
46.7189 309.00
47.0232 310.00
47.3275 272.00
47.6317 312.00
47.936 301.00
48.2402 304.00
48.5445 313.00
48.8488 294.00
49.153 280.00
49.4573 284.00
49.7615 266.00
50.0658 265.00
50.3701 300.00
50.6743 276.00
50.9786 275.00
51.2828 286.00
51.5871 279.00
51.8914 293.00
52.1956 267.00
52.4999 276.00
52.8041 263.00
53.1084 258.00
53.4127 242.00
53.7169 297.00
54.0212 277.00
54.3254 236.00
54.6297 274.00
54.934 283.00
55.2382 249.00
55.5425 301.00
55.8467 237.00
56.151 241.00
56.4553 232.00
56.7595 227.00
57.0638 240.00
57.368 221.00
57.6723 237.00
57.9766 270.00
58.2808 261.00
58.5851 224.00
58.8893 208.00
59.1936 201.00
59.4979 209.00
59.8021 245.00
60.1064 205.00
60.4106 205.00
60.7149 220.00
61.0192 226.00
61.3234 190.00
61.6277 214.00
61.932 203.00
62.2362 216.00
62.5405 221.00
62.8447 220.00
63.149 233.00
63.4533 209.00
63.7575 207.00
64.0618 192.00
64.366 189.00
64.6703 233.00
64.9745 215.00
65.2788 221.00
65.5831 184.00
65.8873 196.00
66.1916 207.00
66.4959 212.00
66.8001 203.00
67.1044 186.00
67.4086 228.00
67.7129 232.00
68.0172 209.00
68.3214 200.00
68.6257 207.00
68.9299 201.00
69.2342 219.00
69.5385 218.00
69.8427 203.00
70.147 215.00
70.4512 231.00
70.7555 222.00
71.0598 177.00
71.364 192.00
71.6683 226.00
71.9725 214.00
72.2768 205.00
72.5811 176.00
72.8853 234.00
73.1896 217.00
73.4938 217.00
73.7981 237.00
74.1024 247.00
74.4066 232.00
74.7109 218.00
75.0151 218.00
75.3194 222.00
75.6237 222.00
75.9279 208.00
76.2322 228.00
76.5364 204.00
76.8407 221.00
77.145 208.00
77.4492 234.00
77.7535 257.00
78.0577 225.00
78.362 211.00
78.6663 275.00
78.9705 200.00
79.2748 228.00
79.579 244.00
79.8833 232.00
80.1876 239.00
80.4918 262.00
80.7961 196.00
81.1003 259.00
81.4046 246.00
81.7089 233.00
82.0131 212.00
82.3174 215.00
82.6217 265.00
82.9259 236.00
83.2302 236.00
83.5344 239.00
83.8387 245.00
84.143 214.00
84.4472 238.00
84.7515 235.00
85.0557 234.00
85.36 204.00
85.6643 240.00
85.9685 201.00
86.2728 220.00
86.577 198.00
86.8813 227.00
87.1856 217.00
87.4898 201.00
87.7941 236.00
88.0983 217.00
88.4026 189.00
88.7069 213.00
89.0111 214.00
89.3154 227.00
89.6196 204.00
89.9239 221.00
90.2282 216.00
90.5324 192.00
90.8367 190.00
91.1409 189.00
91.4452 204.00
91.7495 189.00
92.0537 188.00
92.358 203.00
92.6622 203.00
92.9665 196.00
93.2708 216.00
93.575 216.00
93.8793 205.00
94.1835 210.00
94.4878 190.00
94.7921 180.00
95.0963 222.00
95.4006 213.00
95.7048 210.00
96.0091 197.00
96.3134 184.00
96.6176 192.00
96.9219 178.00
97.2261 188.00
97.5304 200.00
97.8347 204.00
98.1389 188.00
98.4432 189.00
98.7474 199.00
99.0517 188.00
99.356 196.00
99.6602 190.00
99.9645 227.00
100.095 186.00