File: data/xrd_creation/results/Na_56.xy
9.903433 2641.00
10.2077 2499.00
10.512 2381.00
10.8162 2257.00
11.1205 2226.00
11.4247 2085.00
11.729 2076.00
12.0333 1989.00
12.3375 1829.00
12.6418 1800.00
12.946 1761.00
13.2503 1714.00
13.5546 1658.00
13.8588 1580.00
14.1631 1485.00
14.4673 1529.00
14.7716 1513.00
15.0759 1426.00
15.3801 1304.00
15.6844 1380.00
15.9886 1293.00
16.2929 1352.00
16.5972 1181.00
16.9014 1228.00
17.2057 1250.00
17.5099 1148.00
17.8142 1161.00
18.1185 1212.00
18.4227 1155.00
18.727 1131.00
19.0312 1072.00
19.3355 1082.00
19.6398 981.00
19.944 1006.00
20.2483 1023.00
20.5525 963.00
20.8568 997.00
21.1611 934.00
21.4653 992.00
21.7696 937.00
22.0738 931.00
22.3781 912.00
22.6824 917.00
22.9866 862.00
23.2909 802.00
23.5951 756.00
23.8994 833.00
24.2037 761.00
24.5079 779.00
24.8122 770.00
25.1164 717.00
25.4207 762.00
25.725 794.00
26.0292 693.00
26.3335 682.00
26.6378 648.00
26.942 707.00
27.2463 774.00
27.5505 704.00
27.8548 692.00
28.1591 718.00
28.4633 716.00
28.7676 698.00
29.0718 690.00
29.3761 609.00
29.6804 729.00
29.9846 615.00
30.2889 709.00
30.5931 746.00
30.8974 630.00
31.2017 579.00
31.5059 657.00
31.8102 582.00
32.1144 598.00
32.4187 639.00
32.723 589.00
33.0272 599.00
33.3315 512.00
33.6357 566.00
33.94 538.00
34.2443 516.00
34.5485 532.00
34.8528 501.00
35.157 491.00
35.4613 544.00
35.7656 467.00
36.0698 472.00
36.3741 414.00
36.6783 482.00
36.9826 482.00
37.2869 487.00
37.5911 445.00
37.8954 438.00
38.1996 477.00
38.5039 419.00
38.8082 450.00
39.1124 395.00
39.4167 418.00
39.7209 385.00
40.0252 429.00
40.3295 422.00
40.6337 406.00
40.938 382.00
41.2422 391.00
41.5465 345.00
41.8508 407.00
42.155 346.00
42.4593 377.00
42.7635 375.00
43.0678 391.00
43.3721 384.00
43.6763 353.00
43.9806 369.00
44.2849 370.00
44.5891 371.00
44.8934 369.00
45.1976 394.00
45.5019 377.00
45.8062 308.00
46.1104 315.00
46.4147 365.00
46.7189 387.00
47.0232 311.00
47.3275 330.00
47.6317 358.00
47.936 338.00
48.2402 323.00
48.5445 332.00
48.8488 326.00
49.153 376.00
49.4573 325.00
49.7615 355.00
50.0658 305.00
50.3701 294.00
50.6743 348.00
50.9786 390.00
51.2828 320.00
51.5871 339.00
51.8914 312.00
52.1956 282.00
52.4999 318.00
52.8041 319.00
53.1084 282.00
53.4127 317.00
53.7169 304.00
54.0212 299.00
54.3254 296.00
54.6297 279.00
54.934 295.00
55.2382 273.00
55.5425 269.00
55.8467 308.00
56.151 291.00
56.4553 302.00
56.7595 317.00
57.0638 269.00
57.368 288.00
57.6723 248.00
57.9766 293.00
58.2808 293.00
58.5851 265.00
58.8893 265.00
59.1936 272.00
59.4979 272.00
59.8021 240.00
60.1064 234.00
60.4106 288.00
60.7149 278.00
61.0192 272.00
61.3234 257.00
61.6277 267.00
61.932 274.00
62.2362 262.00
62.5405 259.00
62.8447 268.00
63.149 250.00
63.4533 268.00
63.7575 251.00
64.0618 261.00
64.366 266.00
64.6703 237.00
64.9745 259.00
65.2788 233.00
65.5831 224.00
65.8873 235.00
66.1916 221.00
66.4959 247.00
66.8001 236.00
67.1044 263.00
67.4086 263.00
67.7129 235.00
68.0172 230.00
68.3214 267.00
68.6257 231.00
68.9299 224.00
69.2342 245.00
69.5385 239.00
69.8427 233.00
70.147 235.00
70.4512 228.00
70.7555 248.00
71.0598 241.00
71.364 226.00
71.6683 246.00
71.9725 247.00
72.2768 259.00
72.5811 241.00
72.8853 256.00
73.1896 240.00
73.4938 259.00
73.7981 235.00
74.1024 226.00
74.4066 237.00
74.7109 235.00
75.0151 256.00
75.3194 294.00
75.6237 264.00
75.9279 264.00
76.2322 224.00
76.5364 250.00
76.8407 239.00
77.145 247.00
77.4492 273.00
77.7535 235.00
78.0577 249.00
78.362 244.00
78.6663 263.00
78.9705 226.00
79.2748 273.00
79.579 279.00
79.8833 262.00
80.1876 246.00
80.4918 301.00
80.7961 257.00
81.1003 257.00
81.4046 267.00
81.7089 256.00
82.0131 248.00
82.3174 271.00
82.6217 298.00
82.9259 250.00
83.2302 264.00
83.5344 270.00
83.8387 261.00
84.143 256.00
84.4472 281.00
84.7515 271.00
85.0557 237.00
85.36 287.00
85.6643 240.00
85.9685 242.00
86.2728 246.00
86.577 244.00
86.8813 218.00
87.1856 257.00
87.4898 261.00
87.7941 212.00
88.0983 243.00
88.4026 272.00
88.7069 240.00
89.0111 231.00
89.3154 235.00
89.6196 268.00
89.9239 232.00
90.2282 214.00
90.5324 238.00
90.8367 226.00
91.1409 218.00
91.4452 220.00
91.7495 242.00
92.0537 230.00
92.358 230.00
92.6622 229.00
92.9665 201.00
93.2708 227.00
93.575 230.00
93.8793 209.00
94.1835 223.00
94.4878 239.00
94.7921 206.00
95.0963 223.00
95.4006 232.00
95.7048 221.00
96.0091 221.00
96.3134 213.00
96.6176 198.00
96.9219 219.00
97.2261 223.00
97.5304 224.00
97.8347 208.00
98.1389 241.00
98.4432 211.00
98.7474 222.00
99.0517 236.00
99.356 194.00
99.6602 203.00
99.9645 198.00
100.095 205.00