File: data/xrd_creation/results/Na_51.xy
9.903433 2570.00
10.2077 2506.00
10.512 2405.00
10.8162 2322.00
11.1205 2240.00
11.4247 2136.00
11.729 2176.00
12.0333 2099.00
12.3375 2185.00
12.6418 1901.00
12.946 1888.00
13.2503 1767.00
13.5546 1803.00
13.8588 1775.00
14.1631 1791.00
14.4673 1698.00
14.7716 1622.00
15.0759 1706.00
15.3801 1587.00
15.6844 1585.00
15.9886 1551.00
16.2929 1539.00
16.5972 1575.00
16.9014 1488.00
17.2057 1397.00
17.5099 1469.00
17.8142 1431.00
18.1185 1390.00
18.4227 1380.00
18.727 1262.00
19.0312 1306.00
19.3355 1285.00
19.6398 1281.00
19.944 1191.00
20.2483 1216.00
20.5525 1186.00
20.8568 1149.00
21.1611 1157.00
21.4653 1155.00
21.7696 1088.00
22.0738 1124.00
22.3781 1098.00
22.6824 1821.00
22.9866 1065.00
23.2909 1040.00
23.5951 1153.00
23.8994 1115.00
24.2037 1155.00
24.5079 1136.00
24.8122 1165.00
25.1164 1017.00
25.4207 998.00
25.725 1024.00
26.0292 1174.00
26.3335 998.00
26.6378 1062.00
26.942 1224.00
27.2463 2970.00
27.5505 13448.00
27.8548 1362.00
28.1591 1283.00
28.4633 1064.00
28.7676 984.00
29.0718 971.00
29.3761 946.00
29.6804 961.00
29.9846 911.00
30.2889 922.00
30.5931 873.00
30.8974 917.00
31.2017 1017.00
31.5059 1195.00
31.8102 4083.00
32.1144 6767.00
32.4187 1053.00
32.723 1165.00
33.0272 1016.00
33.3315 909.00
33.6357 961.00
33.94 863.00
34.2443 797.00
34.5485 756.00
34.8528 754.00
35.157 715.00
35.4613 805.00
35.7656 700.00
36.0698 697.00
36.3741 791.00
36.6783 754.00
36.9826 729.00
37.2869 704.00
37.5911 796.00
37.8954 883.00
38.1996 7655.00
38.5039 1147.00
38.8082 797.00
39.1124 767.00
39.4167 851.00
39.7209 1548.00
40.0252 4975.00
40.3295 786.00
40.6337 692.00
40.938 723.00
41.2422 735.00
41.5465 676.00
41.8508 657.00
42.155 639.00
42.4593 655.00
42.7635 623.00
43.0678 610.00
43.3721 658.00
43.6763 612.00
43.9806 660.00
44.2849 712.00
44.5891 708.00
44.8934 1691.00
45.1976 883.00
45.5019 1973.00
45.8062 8750.00
46.1104 2267.00
46.4147 1425.00
46.7189 684.00
47.0232 817.00
47.3275 699.00
47.6317 635.00
47.936 651.00
48.2402 613.00
48.5445 701.00
48.8488 1714.00
49.153 1783.00
49.4573 661.00
49.7615 631.00
50.0658 594.00
50.3701 524.00
50.6743 566.00
50.9786 544.00
51.2828 557.00
51.5871 526.00
51.8914 550.00
52.1956 505.00
52.4999 564.00
52.8041 517.00
53.1084 519.00
53.4127 535.00
53.7169 568.00
54.0212 697.00
54.3254 771.00
54.6297 588.00
54.934 572.00
55.2382 562.00
55.5425 593.00
55.8467 626.00
56.151 917.00
56.4553 1972.00
56.7595 3133.00
57.0638 670.00
57.368 540.00
57.6723 555.00
57.9766 574.00
58.2808 550.00
58.5851 586.00
58.8893 674.00
59.1936 572.00
59.4979 984.00
59.8021 809.00
60.1064 491.00
60.4106 526.00
60.7149 513.00
61.0192 576.00
61.3234 835.00
61.6277 623.00
61.932 540.00
62.2362 771.00
62.5405 1832.00
62.8447 661.00
63.149 549.00
63.4533 556.00
63.7575 560.00
64.0618 493.00
64.366 568.00
64.6703 1774.00
64.9745 1698.00
65.2788 588.00
65.5831 543.00
65.8873 542.00
66.1916 619.00
66.4959 1397.00
66.8001 551.00
67.1044 506.00
67.4086 570.00
67.7129 1015.00
68.0172 573.00
68.3214 513.00
68.6257 560.00
68.9299 465.00
69.2342 513.00
69.5385 479.00
69.8427 492.00
70.147 519.00
70.4512 520.00
70.7555 629.00
71.0598 1778.00
71.364 718.00
71.6683 665.00
71.9725 797.00
72.2768 992.00
72.5811 537.00
72.8853 503.00
73.1896 577.00
73.4938 559.00
73.7981 596.00
74.1024 637.00
74.4066 518.00
74.7109 566.00
75.0151 665.00
75.3194 1068.00
75.6237 1856.00
75.9279 702.00
76.2322 485.00
76.5364 549.00
76.8407 580.00
77.145 483.00
77.4492 452.00
77.7535 493.00
78.0577 507.00
78.362 479.00
78.6663 462.00
78.9705 494.00
79.2748 441.00
79.579 491.00
79.8833 438.00
80.1876 484.00
80.4918 466.00
80.7961 464.00
81.1003 522.00
81.4046 648.00
81.7089 567.00
82.0131 481.00
82.3174 483.00
82.6217 497.00
82.9259 489.00
83.2302 481.00
83.5344 526.00
83.8387 623.00
84.143 2117.00
84.4472 1328.00
84.7515 527.00
85.0557 771.00
85.36 885.00
85.6643 877.00
85.9685 596.00
86.2728 504.00
86.577 450.00
86.8813 519.00
87.1856 644.00
87.4898 618.00
87.7941 514.00
88.0983 502.00
88.4026 429.00
88.7069 499.00
89.0111 499.00
89.3154 485.00
89.6196 638.00
89.9239 778.00
90.2282 579.00
90.5324 578.00
90.8367 555.00
91.1409 518.00
91.4452 518.00
91.7495 776.00
92.0537 813.00
92.358 512.00
92.6622 447.00
92.9665 432.00
93.2708 517.00
93.575 471.00
93.8793 493.00
94.1835 538.00
94.4878 725.00
94.7921 587.00
95.0963 492.00
95.4006 499.00
95.7048 703.00
96.0091 572.00
96.3134 498.00
96.6176 519.00
96.9219 481.00
97.2261 473.00
97.5304 673.00
97.8347 644.00
98.1389 524.00
98.4432 496.00
98.7474 539.00
99.0517 483.00
99.356 445.00
99.6602 487.00
99.9645 481.00
100.095 450.00