File: data/xrd_creation/results/Na_50.xy
9.903433 3783.00
10.2077 3229.00
10.512 3050.00
10.8162 2916.00
11.1205 2917.00
11.4247 2802.00
11.729 2712.00
12.0333 2665.00
12.3375 2733.00
12.6418 2592.00
12.946 2583.00
13.2503 3070.00
13.5546 4231.00
13.8588 3276.00
14.1631 2481.00
14.4673 2483.00
14.7716 2337.00
15.0759 2268.00
15.3801 2331.00
15.6844 2119.00
15.9886 2191.00
16.2929 2176.00
16.5972 2212.00
16.9014 2154.00
17.2057 2108.00
17.5099 1998.00
17.8142 1965.00
18.1185 1953.00
18.4227 1891.00
18.727 1985.00
19.0312 1901.00
19.3355 2039.00
19.6398 1883.00
19.944 1807.00
20.2483 1814.00
20.5525 1782.00
20.8568 1751.00
21.1611 1682.00
21.4653 1719.00
21.7696 1695.00
22.0738 1717.00
22.3781 1650.00
22.6824 1668.00
22.9866 1668.00
23.2909 1576.00
23.5951 1541.00
23.8994 1581.00
24.2037 1621.00
24.5079 1557.00
24.8122 1455.00
25.1164 1521.00
25.4207 1550.00
25.725 1533.00
26.0292 1687.00
26.3335 1820.00
26.6378 3660.00
26.942 6153.00
27.2463 2407.00
27.5505 3466.00
27.8548 2123.00
28.1591 2064.00
28.4633 1806.00
28.7676 1737.00
29.0718 1755.00
29.3761 1670.00
29.6804 1576.00
29.9846 1615.00
30.2889 1689.00
30.5931 1788.00
30.8974 1849.00
31.2017 1873.00
31.5059 2036.00
31.8102 6551.00
32.1144 5170.00
32.4187 2154.00
32.723 7842.00
33.0272 2492.00
33.3315 1667.00
33.6357 1519.00
33.94 1479.00
34.2443 1436.00
34.5485 1505.00
34.8528 1574.00
35.157 1633.00
35.4613 2275.00
35.7656 6227.00
36.0698 5477.00
36.3741 1996.00
36.6783 1609.00
36.9826 1429.00
37.2869 1407.00
37.5911 1340.00
37.8954 1256.00
38.1996 1328.00
38.5039 1338.00
38.8082 1406.00
39.1124 1205.00
39.4167 1208.00
39.7209 1201.00
40.0252 1168.00
40.3295 1191.00
40.6337 1151.00
40.938 1247.00
41.2422 1435.00
41.5465 1258.00
41.8508 1216.00
42.155 1165.00
42.4593 1226.00
42.7635 1583.00
43.0678 2493.00
43.3721 1399.00
43.6763 1196.00
43.9806 1194.00
44.2849 1184.00
44.5891 1203.00
44.8934 1160.00
45.1976 1362.00
45.5019 2937.00
45.8062 8377.00
46.1104 1343.00
46.4147 1288.00
46.7189 2276.00
47.0232 3170.00
47.3275 1391.00
47.6317 1281.00
47.936 1234.00
48.2402 1891.00
48.5445 1499.00
48.8488 1362.00
49.153 1407.00
49.4573 1271.00
49.7615 1116.00
50.0658 1084.00
50.3701 1082.00
50.6743 1030.00
50.9786 1057.00
51.2828 1135.00
51.5871 1095.00
51.8914 1058.00
52.1956 1164.00
52.4999 1225.00
52.8041 1112.00
53.1084 1288.00
53.4127 1886.00
53.7169 1728.00
54.0212 1560.00
54.3254 1256.00
54.6297 2172.00
54.934 1877.00
55.2382 1242.00
55.5425 1153.00
55.8467 1184.00
56.151 1191.00
56.4553 1382.00
56.7595 3116.00
57.0638 1190.00
57.368 1170.00
57.6723 1132.00
57.9766 1095.00
58.2808 1125.00
58.5851 1108.00
58.8893 1114.00
59.1936 1065.00
59.4979 1104.00
59.8021 1293.00
60.1064 2255.00
60.4106 2992.00
60.7149 1359.00
61.0192 1537.00
61.3234 1576.00
61.6277 1172.00
61.932 1096.00
62.2362 1052.00
62.5405 1029.00
62.8447 1066.00
63.149 1036.00
63.4533 1166.00
63.7575 1151.00
64.0618 1317.00
64.366 1097.00
64.6703 961.00
64.9745 990.00
65.2788 997.00
65.5831 1048.00
65.8873 1157.00
66.1916 1442.00
66.4959 1880.00
66.8001 1080.00
67.1044 997.00
67.4086 960.00
67.7129 960.00
68.0172 1120.00
68.3214 1550.00
68.6257 1132.00
68.9299 971.00
69.2342 961.00
69.5385 910.00
69.8427 957.00
70.147 951.00
70.4512 925.00
70.7555 890.00
71.0598 949.00
71.364 1032.00
71.6683 1025.00
71.9725 993.00
72.2768 937.00
72.5811 909.00
72.8853 1028.00
73.1896 1122.00
73.4938 1047.00
73.7981 923.00
74.1024 999.00
74.4066 1002.00
74.7109 1188.00
75.0151 1181.00
75.3194 2096.00
75.6237 2473.00
75.9279 1138.00
76.2322 1055.00
76.5364 1031.00
76.8407 1041.00
77.145 1029.00
77.4492 1149.00
77.7535 1417.00
78.0577 1085.00
78.362 1034.00
78.6663 1049.00
78.9705 1070.00
79.2748 1269.00
79.579 1327.00
79.8833 1190.00
80.1876 1495.00
80.4918 1317.00
80.7961 1163.00
81.1003 1057.00
81.4046 1009.00
81.7089 1033.00
82.0131 981.00
82.3174 1016.00
82.6217 986.00
82.9259 1035.00
83.2302 1011.00
83.5344 1062.00
83.8387 1254.00
84.143 2833.00
84.4472 1605.00
84.7515 989.00
85.0557 883.00
85.36 987.00
85.6643 955.00
85.9685 982.00
86.2728 900.00
86.577 939.00
86.8813 921.00
87.1856 979.00
87.4898 922.00
87.7941 947.00
88.0983 928.00
88.4026 952.00
88.7069 907.00
89.0111 980.00
89.3154 961.00
89.6196 980.00
89.9239 1106.00
90.2282 1079.00
90.5324 1098.00
90.8367 1032.00
91.1409 935.00
91.4452 1024.00
91.7495 1172.00
92.0537 1148.00
92.358 1031.00
92.6622 1118.00
92.9665 1041.00
93.2708 1006.00
93.575 1022.00
93.8793 1053.00
94.1835 1066.00
94.4878 1007.00
94.7921 1003.00
95.0963 905.00
95.4006 919.00
95.7048 971.00
96.0091 953.00
96.3134 906.00
96.6176 922.00
96.9219 933.00
97.2261 1145.00
97.5304 1278.00
97.8347 1244.00
98.1389 1120.00
98.4432 1010.00
98.7474 986.00
99.0517 968.00
99.356 952.00
99.6602 899.00
99.9645 941.00
100.095 939.00