File: data/xrd_creation/results/Na_55.xy
9.903433 2954.00
10.2077 2700.00
10.512 2736.00
10.8162 2618.00
11.1205 2616.00
11.4247 2401.00
11.729 2377.00
12.0333 2267.00
12.3375 2270.00
12.6418 2259.00
12.946 2227.00
13.2503 2087.00
13.5546 2073.00
13.8588 2058.00
14.1631 2043.00
14.4673 1993.00
14.7716 1959.00
15.0759 1952.00
15.3801 1965.00
15.6844 1933.00
15.9886 1913.00
16.2929 1896.00
16.5972 1816.00
16.9014 1903.00
17.2057 1848.00
17.5099 1989.00
17.8142 1890.00
18.1185 1814.00
18.4227 1806.00
18.727 1824.00
19.0312 1889.00
19.3355 1941.00
19.6398 1898.00
19.944 1951.00
20.2483 1882.00
20.5525 1900.00
20.8568 1927.00
21.1611 1881.00
21.4653 1949.00
21.7696 3677.00
22.0738 1961.00
22.3781 1889.00
22.6824 1748.00
22.9866 1881.00
23.2909 1842.00
23.5951 1737.00
23.8994 1802.00
24.2037 1801.00
24.5079 1735.00
24.8122 1746.00
25.1164 1701.00
25.4207 1709.00
25.725 1724.00
26.0292 2373.00
26.3335 1770.00
26.6378 1949.00
26.942 2022.00
27.2463 1639.00
27.5505 1732.00
27.8548 1679.00
28.1591 1785.00
28.4633 1740.00
28.7676 1699.00
29.0718 1636.00
29.3761 1734.00
29.6804 1730.00
29.9846 2448.00
30.2889 2768.00
30.5931 1937.00
30.8974 3367.00
31.2017 4973.00
31.5059 1734.00
31.8102 1596.00
32.1144 1589.00
32.4187 1542.00
32.723 1639.00
33.0272 1568.00
33.3315 1462.00
33.6357 1507.00
33.94 1494.00
34.2443 1512.00
34.5485 1389.00
34.8528 1335.00
35.157 1400.00
35.4613 1338.00
35.7656 1394.00
36.0698 1375.00
36.3741 1331.00
36.6783 1378.00
36.9826 1302.00
37.2869 1250.00
37.5911 1371.00
37.8954 1346.00
38.1996 1672.00
38.5039 1437.00
38.8082 1227.00
39.1124 1225.00
39.4167 1247.00
39.7209 1293.00
40.0252 1257.00
40.3295 1246.00
40.6337 1254.00
40.938 1243.00
41.2422 1228.00
41.5465 1253.00
41.8508 1148.00
42.155 1203.00
42.4593 1190.00
42.7635 1287.00
43.0678 1685.00
43.3721 1713.00
43.6763 1340.00
43.9806 1266.00
44.2849 1413.00
44.5891 2207.00
44.8934 1347.00
45.1976 1136.00
45.5019 1079.00
45.8062 1059.00
46.1104 1083.00
46.4147 1013.00
46.7189 1104.00
47.0232 1055.00
47.3275 1012.00
47.6317 1024.00
47.936 1017.00
48.2402 1043.00
48.5445 960.00
48.8488 1077.00
49.153 1019.00
49.4573 1032.00
49.7615 1013.00
50.0658 1699.00
50.3701 1274.00
50.6743 964.00
50.9786 1121.00
51.2828 1210.00
51.5871 1013.00
51.8914 1036.00
52.1956 1003.00
52.4999 969.00
52.8041 1079.00
53.1084 1003.00
53.4127 1062.00
53.7169 1146.00
54.0212 1015.00
54.3254 977.00
54.6297 1057.00
54.934 1040.00
55.2382 1673.00
55.5425 1396.00
55.8467 1020.00
56.151 1000.00
56.4553 978.00
56.7595 952.00
57.0638 950.00
57.368 943.00
57.6723 883.00
57.9766 915.00
58.2808 909.00
58.5851 957.00
58.8893 952.00
59.1936 952.00
59.4979 874.00
59.8021 951.00
60.1064 870.00
60.4106 943.00
60.7149 929.00
61.0192 921.00
61.3234 887.00
61.6277 850.00
61.932 922.00
62.2362 889.00
62.5405 936.00
62.8447 951.00
63.149 967.00
63.4533 910.00
63.7575 815.00
64.0618 892.00
64.366 918.00
64.6703 929.00
64.9745 1147.00
65.2788 933.00
65.5831 813.00
65.8873 858.00
66.1916 840.00
66.4959 859.00
66.8001 848.00
67.1044 828.00
67.4086 870.00
67.7129 851.00
68.0172 805.00
68.3214 803.00
68.6257 787.00
68.9299 881.00
69.2342 1073.00
69.5385 1148.00
69.8427 860.00
70.147 879.00
70.4512 773.00
70.7555 843.00
71.0598 911.00
71.364 1129.00
71.6683 873.00
71.9725 891.00
72.2768 869.00
72.5811 843.00
72.8853 828.00
73.1896 811.00
73.4938 896.00
73.7981 1048.00
74.1024 845.00
74.4066 790.00
74.7109 824.00
75.0151 777.00
75.3194 794.00
75.6237 759.00
75.9279 773.00
76.2322 785.00
76.5364 804.00
76.8407 792.00
77.145 822.00
77.4492 743.00
77.7535 813.00
78.0577 857.00
78.362 836.00
78.6663 787.00
78.9705 778.00
79.2748 899.00
79.579 842.00
79.8833 816.00
80.1876 809.00
80.4918 799.00
80.7961 733.00
81.1003 760.00
81.4046 769.00
81.7089 796.00
82.0131 914.00
82.3174 886.00
82.6217 802.00
82.9259 763.00
83.2302 757.00
83.5344 772.00
83.8387 722.00
84.143 771.00
84.4472 834.00
84.7515 729.00
85.0557 762.00
85.36 797.00
85.6643 808.00
85.9685 769.00
86.2728 880.00
86.577 810.00
86.8813 726.00
87.1856 745.00
87.4898 808.00
87.7941 790.00
88.0983 702.00
88.4026 780.00
88.7069 700.00
89.0111 793.00
89.3154 703.00
89.6196 781.00
89.9239 759.00
90.2282 756.00
90.5324 881.00
90.8367 794.00
91.1409 771.00
91.4452 728.00
91.7495 798.00
92.0537 809.00
92.358 693.00
92.6622 743.00
92.9665 763.00
93.2708 770.00
93.575 736.00
93.8793 716.00
94.1835 754.00
94.4878 771.00
94.7921 707.00
95.0963 741.00
95.4006 761.00
95.7048 724.00
96.0091 730.00
96.3134 733.00
96.6176 725.00
96.9219 722.00
97.2261 724.00
97.5304 738.00
97.8347 741.00
98.1389 738.00
98.4432 741.00
98.7474 769.00
99.0517 715.00
99.356 704.00
99.6602 707.00
99.9645 737.00
100.095 786.00