File: data/xrd_creation/results/Na_58.xy
9.903433 2614.00
10.2077 2598.00
10.512 2511.00
10.8162 2358.00
11.1205 2383.00
11.4247 2131.00
11.729 2049.00
12.0333 2065.00
12.3375 2057.00
12.6418 1937.00
12.946 1851.00
13.2503 1843.00
13.5546 1664.00
13.8588 1631.00
14.1631 1649.00
14.4673 1648.00
14.7716 1626.00
15.0759 1514.00
15.3801 1530.00
15.6844 1504.00
15.9886 1511.00
16.2929 1521.00
16.5972 1385.00
16.9014 1410.00
17.2057 1397.00
17.5099 1342.00
17.8142 1318.00
18.1185 1381.00
18.4227 1707.00
18.727 1520.00
19.0312 1204.00
19.3355 1264.00
19.6398 1226.00
19.944 1172.00
20.2483 1227.00
20.5525 1153.00
20.8568 1086.00
21.1611 1139.00
21.4653 1061.00
21.7696 1026.00
22.0738 1082.00
22.3781 1021.00
22.6824 1053.00
22.9866 961.00
23.2909 1051.00
23.5951 1268.00
23.8994 1023.00
24.2037 941.00
24.5079 876.00
24.8122 982.00
25.1164 915.00
25.4207 907.00
25.725 825.00
26.0292 807.00
26.3335 1130.00
26.6378 939.00
26.942 836.00
27.2463 737.00
27.5505 933.00
27.8548 882.00
28.1591 754.00
28.4633 794.00
28.7676 1409.00
29.0718 2044.00
29.3761 928.00
29.6804 937.00
29.9846 1207.00
30.2889 1053.00
30.5931 1041.00
30.8974 1040.00
31.2017 786.00
31.5059 596.00
31.8102 600.00
32.1144 655.00
32.4187 577.00
32.723 571.00
33.0272 865.00
33.3315 653.00
33.6357 603.00
33.94 727.00
34.2443 728.00
34.5485 859.00
34.8528 831.00
35.157 681.00
35.4613 608.00
35.7656 551.00
36.0698 513.00
36.3741 598.00
36.6783 596.00
36.9826 523.00
37.2869 611.00
37.5911 530.00
37.8954 503.00
38.1996 472.00
38.5039 418.00
38.8082 472.00
39.1124 468.00
39.4167 476.00
39.7209 477.00
40.0252 412.00
40.3295 491.00
40.6337 542.00
40.938 540.00
41.2422 451.00
41.5465 451.00
41.8508 415.00
42.155 437.00
42.4593 476.00
42.7635 393.00
43.0678 400.00
43.3721 387.00
43.6763 409.00
43.9806 390.00
44.2849 373.00
44.5891 398.00
44.8934 328.00
45.1976 373.00
45.5019 352.00
45.8062 357.00
46.1104 370.00
46.4147 392.00
46.7189 459.00
47.0232 410.00
47.3275 627.00
47.6317 573.00
47.936 496.00
48.2402 709.00
48.5445 643.00
48.8488 640.00
49.153 396.00
49.4573 378.00
49.7615 403.00
50.0658 322.00
50.3701 368.00
50.6743 355.00
50.9786 415.00
51.2828 525.00
51.5871 481.00
51.8914 358.00
52.1956 408.00
52.4999 370.00
52.8041 401.00
53.1084 356.00
53.4127 421.00
53.7169 481.00
54.0212 518.00
54.3254 452.00
54.6297 393.00
54.934 457.00
55.2382 410.00
55.5425 533.00
55.8467 420.00
56.151 425.00
56.4553 583.00
56.7595 343.00
57.0638 397.00
57.368 317.00
57.6723 334.00
57.9766 415.00
58.2808 483.00
58.5851 372.00
58.8893 398.00
59.1936 345.00
59.4979 363.00
59.8021 450.00
60.1064 451.00
60.4106 390.00
60.7149 363.00
61.0192 419.00
61.3234 388.00
61.6277 353.00
61.932 325.00
62.2362 446.00
62.5405 425.00
62.8447 358.00
63.149 349.00
63.4533 338.00
63.7575 270.00
64.0618 297.00
64.366 361.00
64.6703 328.00
64.9745 301.00
65.2788 311.00
65.5831 290.00
65.8873 290.00
66.1916 355.00
66.4959 281.00
66.8001 298.00
67.1044 270.00
67.4086 257.00
67.7129 290.00
68.0172 290.00
68.3214 260.00
68.6257 299.00
68.9299 290.00
69.2342 298.00
69.5385 277.00
69.8427 241.00
70.147 272.00
70.4512 281.00
70.7555 220.00
71.0598 239.00
71.364 261.00
71.6683 283.00
71.9725 284.00
72.2768 305.00
72.5811 328.00
72.8853 287.00
73.1896 290.00
73.4938 268.00
73.7981 288.00
74.1024 310.00
74.4066 332.00
74.7109 293.00
75.0151 276.00
75.3194 264.00
75.6237 279.00
75.9279 259.00
76.2322 223.00
76.5364 287.00
76.8407 271.00
77.145 231.00
77.4492 246.00
77.7535 258.00
78.0577 352.00
78.362 292.00
78.6663 257.00
78.9705 268.00
79.2748 304.00
79.579 298.00
79.8833 262.00
80.1876 240.00
80.4918 250.00
80.7961 241.00
81.1003 299.00
81.4046 288.00
81.7089 358.00
82.0131 302.00
82.3174 277.00
82.6217 257.00
82.9259 260.00
83.2302 288.00
83.5344 272.00
83.8387 287.00
84.143 283.00
84.4472 291.00
84.7515 278.00
85.0557 305.00
85.36 229.00
85.6643 272.00
85.9685 247.00
86.2728 244.00
86.577 237.00
86.8813 303.00
87.1856 282.00
87.4898 295.00
87.7941 260.00
88.0983 248.00
88.4026 247.00
88.7069 276.00
89.0111 271.00
89.3154 280.00
89.6196 284.00
89.9239 313.00
90.2282 267.00
90.5324 227.00
90.8367 281.00
91.1409 266.00
91.4452 262.00
91.7495 237.00
92.0537 223.00
92.358 230.00
92.6622 264.00
92.9665 292.00
93.2708 264.00
93.575 273.00
93.8793 258.00
94.1835 243.00
94.4878 243.00
94.7921 234.00
95.0963 247.00
95.4006 246.00
95.7048 280.00
96.0091 250.00
96.3134 273.00
96.6176 282.00
96.9219 279.00
97.2261 224.00
97.5304 239.00
97.8347 232.00
98.1389 224.00
98.4432 243.00
98.7474 272.00
99.0517 243.00
99.356 262.00
99.6602 239.00
99.9645 286.00
100.095 246.00