File: data/xrd_creation/results/Na_59.xy
9.903433 2599.00
10.2077 2456.00
10.512 2416.00
10.8162 2293.00
11.1205 2228.00
11.4247 2123.00
11.729 2100.00
12.0333 2062.00
12.3375 1968.00
12.6418 1836.00
12.946 2033.00
13.2503 2480.00
13.5546 1620.00
13.8588 1622.00
14.1631 1560.00
14.4673 1616.00
14.7716 1568.00
15.0759 1505.00
15.3801 1391.00
15.6844 1423.00
15.9886 1427.00
16.2929 1395.00
16.5972 1320.00
16.9014 1365.00
17.2057 1262.00
17.5099 1286.00
17.8142 1263.00
18.1185 1256.00
18.4227 1285.00
18.727 1147.00
19.0312 1146.00
19.3355 1193.00
19.6398 1144.00
19.944 1067.00
20.2483 1052.00
20.5525 1114.00
20.8568 1056.00
21.1611 1011.00
21.4653 989.00
21.7696 983.00
22.0738 1025.00
22.3781 976.00
22.6824 1856.00
22.9866 1848.00
23.2909 927.00
23.5951 922.00
23.8994 920.00
24.2037 875.00
24.5079 809.00
24.8122 823.00
25.1164 851.00
25.4207 854.00
25.725 777.00
26.0292 821.00
26.3335 916.00
26.6378 1185.00
26.942 795.00
27.2463 804.00
27.5505 879.00
27.8548 820.00
28.1591 2143.00
28.4633 1983.00
28.7676 2426.00
29.0718 1115.00
29.3761 780.00
29.6804 767.00
29.9846 961.00
30.2889 731.00
30.5931 761.00
30.8974 746.00
31.2017 685.00
31.5059 1013.00
31.8102 1247.00
32.1144 924.00
32.4187 650.00
32.723 644.00
33.0272 647.00
33.3315 619.00
33.6357 663.00
33.94 659.00
34.2443 639.00
34.5485 586.00
34.8528 610.00
35.157 624.00
35.4613 612.00
35.7656 594.00
36.0698 588.00
36.3741 745.00
36.6783 2250.00
36.9826 1382.00
37.2869 885.00
37.5911 504.00
37.8954 591.00
38.1996 540.00
38.5039 466.00
38.8082 495.00
39.1124 608.00
39.4167 591.00
39.7209 637.00
40.0252 592.00
40.3295 547.00
40.6337 485.00
40.938 464.00
41.2422 458.00
41.5465 439.00
41.8508 463.00
42.155 447.00
42.4593 433.00
42.7635 462.00
43.0678 499.00
43.3721 432.00
43.6763 456.00
43.9806 437.00
44.2849 445.00
44.5891 539.00
44.8934 549.00
45.1976 486.00
45.5019 460.00
45.8062 435.00
46.1104 428.00
46.4147 464.00
46.7189 1121.00
47.0232 479.00
47.3275 455.00
47.6317 490.00
47.936 443.00
48.2402 427.00
48.5445 492.00
48.8488 471.00
49.153 540.00
49.4573 561.00
49.7615 1030.00
50.0658 636.00
50.3701 666.00
50.6743 850.00
50.9786 826.00
51.2828 525.00
51.5871 518.00
51.8914 537.00
52.1956 474.00
52.4999 482.00
52.8041 525.00
53.1084 515.00
53.4127 462.00
53.7169 420.00
54.0212 434.00
54.3254 467.00
54.6297 474.00
54.934 508.00
55.2382 834.00
55.5425 1483.00
55.8467 921.00
56.151 580.00
56.4553 698.00
56.7595 524.00
57.0638 492.00
57.368 512.00
57.6723 431.00
57.9766 457.00
58.2808 539.00
58.5851 559.00
58.8893 514.00
59.1936 469.00
59.4979 480.00
59.8021 484.00
60.1064 439.00
60.4106 404.00
60.7149 411.00
61.0192 443.00
61.3234 483.00
61.6277 547.00
61.932 485.00
62.2362 437.00
62.5405 415.00
62.8447 431.00
63.149 416.00
63.4533 511.00
63.7575 629.00
64.0618 469.00
64.366 416.00
64.6703 477.00
64.9745 450.00
65.2788 467.00
65.5831 416.00
65.8873 443.00
66.1916 413.00
66.4959 475.00
66.8001 476.00
67.1044 442.00
67.4086 486.00
67.7129 455.00
68.0172 384.00
68.3214 399.00
68.6257 368.00
68.9299 414.00
69.2342 380.00
69.5385 388.00
69.8427 393.00
70.147 385.00
70.4512 562.00
70.7555 635.00
71.0598 477.00
71.364 557.00
71.6683 437.00
71.9725 425.00
72.2768 430.00
72.5811 407.00
72.8853 434.00
73.1896 421.00
73.4938 391.00
73.7981 378.00
74.1024 364.00
74.4066 376.00
74.7109 378.00
75.0151 370.00
75.3194 407.00
75.6237 402.00
75.9279 369.00
76.2322 387.00
76.5364 402.00
76.8407 391.00
77.145 408.00
77.4492 453.00
77.7535 472.00
78.0577 526.00
78.362 446.00
78.6663 418.00
78.9705 430.00
79.2748 390.00
79.579 432.00
79.8833 598.00
80.1876 581.00
80.4918 475.00
80.7961 407.00
81.1003 449.00
81.4046 424.00
81.7089 464.00
82.0131 440.00
82.3174 466.00
82.6217 401.00
82.9259 401.00
83.2302 398.00
83.5344 426.00
83.8387 406.00
84.143 398.00
84.4472 472.00
84.7515 445.00
85.0557 385.00
85.36 420.00
85.6643 409.00
85.9685 379.00
86.2728 384.00
86.577 382.00
86.8813 399.00
87.1856 374.00
87.4898 438.00
87.7941 413.00
88.0983 352.00
88.4026 424.00
88.7069 354.00
89.0111 369.00
89.3154 351.00
89.6196 403.00
89.9239 421.00
90.2282 362.00
90.5324 371.00
90.8367 389.00
91.1409 394.00
91.4452 376.00
91.7495 433.00
92.0537 363.00
92.358 396.00
92.6622 375.00
92.9665 444.00
93.2708 407.00
93.575 448.00
93.8793 433.00
94.1835 454.00
94.4878 445.00
94.7921 400.00
95.0963 409.00
95.4006 423.00
95.7048 397.00
96.0091 429.00
96.3134 465.00
96.6176 427.00
96.9219 410.00
97.2261 419.00
97.5304 386.00
97.8347 454.00
98.1389 492.00
98.4432 428.00
98.7474 483.00
99.0517 450.00
99.356 461.00
99.6602 386.00
99.9645 419.00
100.095 398.00