File: data/xrd_creation/results/Na_57.xy
9.903433 2601.00
10.2077 2480.00
10.512 2453.00
10.8162 2312.00
11.1205 2190.00
11.4247 2223.00
11.729 2116.00
12.0333 1982.00
12.3375 2012.00
12.6418 1991.00
12.946 1806.00
13.2503 2031.00
13.5546 2159.00
13.8588 1683.00
14.1631 1675.00
14.4673 1539.00
14.7716 1641.00
15.0759 1664.00
15.3801 1508.00
15.6844 1539.00
15.9886 1467.00
16.2929 1386.00
16.5972 1457.00
16.9014 1395.00
17.2057 1295.00
17.5099 1306.00
17.8142 1324.00
18.1185 1398.00
18.4227 1647.00
18.727 1754.00
19.0312 1226.00
19.3355 1239.00
19.6398 1164.00
19.944 1158.00
20.2483 1095.00
20.5525 1067.00
20.8568 1081.00
21.1611 1089.00
21.4653 1020.00
21.7696 1008.00
22.0738 1021.00
22.3781 970.00
22.6824 978.00
22.9866 1008.00
23.2909 997.00
23.5951 1166.00
23.8994 1322.00
24.2037 917.00
24.5079 917.00
24.8122 996.00
25.1164 993.00
25.4207 1119.00
25.725 1290.00
26.0292 865.00
26.3335 1112.00
26.6378 1265.00
26.942 1159.00
27.2463 882.00
27.5505 884.00
27.8548 1077.00
28.1591 804.00
28.4633 913.00
28.7676 1350.00
29.0718 1838.00
29.3761 1732.00
29.6804 1195.00
29.9846 1294.00
30.2889 1991.00
30.5931 1090.00
30.8974 1052.00
31.2017 1026.00
31.5059 785.00
31.8102 896.00
32.1144 1012.00
32.4187 820.00
32.723 699.00
33.0272 650.00
33.3315 759.00
33.6357 701.00
33.94 699.00
34.2443 671.00
34.5485 792.00
34.8528 900.00
35.157 751.00
35.4613 693.00
35.7656 534.00
36.0698 548.00
36.3741 615.00
36.6783 799.00
36.9826 536.00
37.2869 681.00
37.5911 701.00
37.8954 594.00
38.1996 638.00
38.5039 509.00
38.8082 497.00
39.1124 483.00
39.4167 560.00
39.7209 576.00
40.0252 618.00
40.3295 518.00
40.6337 564.00
40.938 549.00
41.2422 603.00
41.5465 467.00
41.8508 513.00
42.155 530.00
42.4593 517.00
42.7635 436.00
43.0678 416.00
43.3721 436.00
43.6763 450.00
43.9806 449.00
44.2849 385.00
44.5891 405.00
44.8934 403.00
45.1976 437.00
45.5019 442.00
45.8062 408.00
46.1104 436.00
46.4147 466.00
46.7189 536.00
47.0232 569.00
47.3275 544.00
47.6317 752.00
47.936 595.00
48.2402 664.00
48.5445 663.00
48.8488 875.00
49.153 534.00
49.4573 451.00
49.7615 437.00
50.0658 420.00
50.3701 496.00
50.6743 544.00
50.9786 468.00
51.2828 585.00
51.5871 613.00
51.8914 459.00
52.1956 430.00
52.4999 427.00
52.8041 462.00
53.1084 505.00
53.4127 510.00
53.7169 506.00
54.0212 468.00
54.3254 617.00
54.6297 513.00
54.934 478.00
55.2382 499.00
55.5425 655.00
55.8467 437.00
56.151 490.00
56.4553 590.00
56.7595 467.00
57.0638 422.00
57.368 440.00
57.6723 390.00
57.9766 392.00
58.2808 406.00
58.5851 424.00
58.8893 479.00
59.1936 452.00
59.4979 415.00
59.8021 475.00
60.1064 450.00
60.4106 477.00
60.7149 495.00
61.0192 495.00
61.3234 490.00
61.6277 461.00
61.932 402.00
62.2362 458.00
62.5405 584.00
62.8447 484.00
63.149 549.00
63.4533 390.00
63.7575 347.00
64.0618 373.00
64.366 348.00
64.6703 339.00
64.9745 349.00
65.2788 339.00
65.5831 366.00
65.8873 320.00
66.1916 367.00
66.4959 378.00
66.8001 331.00
67.1044 348.00
67.4086 359.00
67.7129 346.00
68.0172 318.00
68.3214 298.00
68.6257 298.00
68.9299 357.00
69.2342 325.00
69.5385 326.00
69.8427 335.00
70.147 345.00
70.4512 331.00
70.7555 307.00
71.0598 290.00
71.364 328.00
71.6683 332.00
71.9725 358.00
72.2768 305.00
72.5811 345.00
72.8853 364.00
73.1896 297.00
73.4938 321.00
73.7981 348.00
74.1024 314.00
74.4066 327.00
74.7109 276.00
75.0151 348.00
75.3194 382.00
75.6237 397.00
75.9279 378.00
76.2322 298.00
76.5364 310.00
76.8407 316.00
77.145 293.00
77.4492 304.00
77.7535 309.00
78.0577 340.00
78.362 322.00
78.6663 303.00
78.9705 299.00
79.2748 313.00
79.579 292.00
79.8833 299.00
80.1876 303.00
80.4918 290.00
80.7961 307.00
81.1003 361.00
81.4046 361.00
81.7089 295.00
82.0131 316.00
82.3174 326.00
82.6217 283.00
82.9259 343.00
83.2302 319.00
83.5344 343.00
83.8387 309.00
84.143 314.00
84.4472 312.00
84.7515 325.00
85.0557 276.00
85.36 261.00
85.6643 287.00
85.9685 292.00
86.2728 262.00
86.577 278.00
86.8813 306.00
87.1856 294.00
87.4898 344.00
87.7941 358.00
88.0983 297.00
88.4026 316.00
88.7069 295.00
89.0111 274.00
89.3154 283.00
89.6196 291.00
89.9239 336.00
90.2282 283.00
90.5324 282.00
90.8367 250.00
91.1409 279.00
91.4452 296.00
91.7495 261.00
92.0537 293.00
92.358 289.00
92.6622 238.00
92.9665 305.00
93.2708 307.00
93.575 260.00
93.8793 295.00
94.1835 259.00
94.4878 304.00
94.7921 305.00
95.0963 257.00
95.4006 271.00
95.7048 297.00
96.0091 279.00
96.3134 269.00
96.6176 265.00
96.9219 273.00
97.2261 243.00
97.5304 287.00
97.8347 235.00
98.1389 265.00
98.4432 303.00
98.7474 287.00
99.0517 247.00
99.356 320.00
99.6602 248.00
99.9645 278.00
100.095 260.00