File: data/xrd_creation/results/Na_60.xy
9.903433 2568.00
10.2077 2572.00
10.512 2407.00
10.8162 2361.00
11.1205 2297.00
11.4247 1997.00
11.729 2004.00
12.0333 1948.00
12.3375 1907.00
12.6418 1855.00
12.946 1701.00
13.2503 1715.00
13.5546 1546.00
13.8588 1528.00
14.1631 1482.00
14.4673 1506.00
14.7716 1467.00
15.0759 1448.00
15.3801 1395.00
15.6844 1332.00
15.9886 1345.00
16.2929 1272.00
16.5972 1327.00
16.9014 1257.00
17.2057 1227.00
17.5099 1217.00
17.8142 1168.00
18.1185 1119.00
18.4227 1142.00
18.727 1063.00
19.0312 1067.00
19.3355 1118.00
19.6398 1111.00
19.944 1021.00
20.2483 981.00
20.5525 952.00
20.8568 954.00
21.1611 974.00
21.4653 983.00
21.7696 975.00
22.0738 915.00
22.3781 928.00
22.6824 908.00
22.9866 846.00
23.2909 836.00
23.5951 872.00
23.8994 857.00
24.2037 890.00
24.5079 798.00
24.8122 804.00
25.1164 857.00
25.4207 810.00
25.725 771.00
26.0292 814.00
26.3335 796.00
26.6378 699.00
26.942 692.00
27.2463 721.00
27.5505 765.00
27.8548 845.00
28.1591 795.00
28.4633 811.00
28.7676 743.00
29.0718 803.00
29.3761 701.00
29.6804 653.00
29.9846 665.00
30.2889 740.00
30.5931 703.00
30.8974 670.00
31.2017 671.00
31.5059 646.00
31.8102 631.00
32.1144 565.00
32.4187 578.00
32.723 637.00
33.0272 583.00
33.3315 536.00
33.6357 615.00
33.94 575.00
34.2443 557.00
34.5485 518.00
34.8528 510.00
35.157 562.00
35.4613 506.00
35.7656 461.00
36.0698 472.00
36.3741 493.00
36.6783 496.00
36.9826 522.00
37.2869 494.00
37.5911 422.00
37.8954 413.00
38.1996 436.00
38.5039 479.00
38.8082 437.00
39.1124 381.00
39.4167 403.00
39.7209 418.00
40.0252 436.00
40.3295 374.00
40.6337 418.00
40.938 386.00
41.2422 400.00
41.5465 412.00
41.8508 445.00
42.155 400.00
42.4593 418.00
42.7635 414.00
43.0678 451.00
43.3721 429.00
43.6763 366.00
43.9806 368.00
44.2849 395.00
44.5891 348.00
44.8934 331.00
45.1976 384.00
45.5019 372.00
45.8062 369.00
46.1104 373.00
46.4147 365.00
46.7189 331.00
47.0232 316.00
47.3275 320.00
47.6317 306.00
47.936 342.00
48.2402 331.00
48.5445 346.00
48.8488 307.00
49.153 334.00
49.4573 315.00
49.7615 344.00
50.0658 332.00
50.3701 333.00
50.6743 298.00
50.9786 345.00
51.2828 315.00
51.5871 336.00
51.8914 311.00
52.1956 340.00
52.4999 306.00
52.8041 311.00
53.1084 282.00
53.4127 302.00
53.7169 319.00
54.0212 293.00
54.3254 290.00
54.6297 326.00
54.934 285.00
55.2382 312.00
55.5425 290.00
55.8467 284.00
56.151 274.00
56.4553 292.00
56.7595 292.00
57.0638 315.00
57.368 267.00
57.6723 297.00
57.9766 271.00
58.2808 257.00
58.5851 283.00
58.8893 294.00
59.1936 269.00
59.4979 243.00
59.8021 275.00
60.1064 268.00
60.4106 293.00
60.7149 220.00
61.0192 226.00
61.3234 243.00
61.6277 238.00
61.932 238.00
62.2362 256.00
62.5405 275.00
62.8447 286.00
63.149 242.00
63.4533 204.00
63.7575 231.00
64.0618 264.00
64.366 217.00
64.6703 261.00
64.9745 232.00
65.2788 257.00
65.5831 238.00
65.8873 272.00
66.1916 221.00
66.4959 215.00
66.8001 223.00
67.1044 228.00
67.4086 236.00
67.7129 205.00
68.0172 215.00
68.3214 236.00
68.6257 232.00
68.9299 222.00
69.2342 222.00
69.5385 249.00
69.8427 217.00
70.147 208.00
70.4512 215.00
70.7555 231.00
71.0598 204.00
71.364 221.00
71.6683 209.00
71.9725 210.00
72.2768 238.00
72.5811 196.00
72.8853 206.00
73.1896 217.00
73.4938 221.00
73.7981 224.00
74.1024 242.00
74.4066 229.00
74.7109 276.00
75.0151 188.00
75.3194 272.00
75.6237 216.00
75.9279 233.00
76.2322 261.00
76.5364 236.00
76.8407 224.00
77.145 264.00
77.4492 223.00
77.7535 283.00
78.0577 237.00
78.362 259.00
78.6663 261.00
78.9705 244.00
79.2748 246.00
79.579 245.00
79.8833 244.00
80.1876 269.00
80.4918 239.00
80.7961 271.00
81.1003 261.00
81.4046 273.00
81.7089 244.00
82.0131 222.00
82.3174 295.00
82.6217 263.00
82.9259 240.00
83.2302 264.00
83.5344 263.00
83.8387 258.00
84.143 247.00
84.4472 227.00
84.7515 230.00
85.0557 259.00
85.36 278.00
85.6643 229.00
85.9685 237.00
86.2728 246.00
86.577 237.00
86.8813 224.00
87.1856 269.00
87.4898 218.00
87.7941 222.00
88.0983 213.00
88.4026 241.00
88.7069 239.00
89.0111 245.00
89.3154 234.00
89.6196 195.00
89.9239 213.00
90.2282 232.00
90.5324 233.00
90.8367 223.00
91.1409 213.00
91.4452 224.00
91.7495 231.00
92.0537 199.00
92.358 229.00
92.6622 224.00
92.9665 227.00
93.2708 220.00
93.575 183.00
93.8793 210.00
94.1835 236.00
94.4878 206.00
94.7921 203.00
95.0963 213.00
95.4006 224.00
95.7048 222.00
96.0091 200.00
96.3134 243.00
96.6176 216.00
96.9219 195.00
97.2261 192.00
97.5304 216.00
97.8347 223.00
98.1389 211.00
98.4432 220.00
98.7474 211.00
99.0517 202.00
99.356 212.00
99.6602 209.00
99.9645 223.00
100.095 194.00