File: data/xrd_creation/results/Na_67.xy
9.903433 2800.00
10.2077 2844.00
10.512 2691.00
10.8162 2580.00
11.1205 2500.00
11.4247 2613.00
11.729 2847.00
12.0333 2404.00
12.3375 2313.00
12.6418 2196.00
12.946 2106.00
13.2503 2086.00
13.5546 2075.00
13.8588 1934.00
14.1631 1948.00
14.4673 1980.00
14.7716 1906.00
15.0759 1902.00
15.3801 1769.00
15.6844 1815.00
15.9886 1791.00
16.2929 1969.00
16.5972 1859.00
16.9014 1816.00
17.2057 1667.00
17.5099 1677.00
17.8142 1622.00
18.1185 1761.00
18.4227 1683.00
18.727 1595.00
19.0312 1664.00
19.3355 1786.00
19.6398 1564.00
19.944 1617.00
20.2483 3555.00
20.5525 2465.00
20.8568 1487.00
21.1611 1351.00
21.4653 1404.00
21.7696 1348.00
22.0738 1347.00
22.3781 1346.00
22.6824 1250.00
22.9866 1230.00
23.2909 1399.00
23.5951 1310.00
23.8994 1297.00
24.2037 1456.00
24.5079 1449.00
24.8122 1412.00
25.1164 1329.00
25.4207 1344.00
25.725 1466.00
26.0292 1738.00
26.3335 1971.00
26.6378 4353.00
26.942 12367.00
27.2463 2585.00
27.5505 1663.00
27.8548 1647.00
28.1591 1572.00
28.4633 1288.00
28.7676 1210.00
29.0718 1198.00
29.3761 1235.00
29.6804 1442.00
29.9846 2053.00
30.2889 1870.00
30.5931 1335.00
30.8974 1380.00
31.2017 1095.00
31.5059 1225.00
31.8102 1142.00
32.1144 1148.00
32.4187 1329.00
32.723 1648.00
33.0272 4126.00
33.3315 3749.00
33.6357 3111.00
33.94 3144.00
34.2443 8844.00
34.5485 2566.00
34.8528 1757.00
35.157 1262.00
35.4613 1187.00
35.7656 1315.00
36.0698 1287.00
36.3741 1004.00
36.6783 939.00
36.9826 1077.00
37.2869 1126.00
37.5911 1192.00
37.8954 1220.00
38.1996 3280.00
38.5039 1299.00
38.8082 1854.00
39.1124 1074.00
39.4167 1107.00
39.7209 864.00
40.0252 708.00
40.3295 785.00
40.6337 702.00
40.938 713.00
41.2422 688.00
41.5465 689.00
41.8508 717.00
42.155 775.00
42.4593 755.00
42.7635 806.00
43.0678 833.00
43.3721 639.00
43.6763 787.00
43.9806 1102.00
44.2849 739.00
44.5891 609.00
44.8934 728.00
45.1976 1032.00
45.5019 752.00
45.8062 625.00
46.1104 673.00
46.4147 609.00
46.7189 713.00
47.0232 675.00
47.3275 900.00
47.6317 1355.00
47.936 798.00
48.2402 800.00
48.5445 626.00
48.8488 628.00
49.153 637.00
49.4573 643.00
49.7615 645.00
50.0658 731.00
50.3701 729.00
50.6743 779.00
50.9786 957.00
51.2828 924.00
51.5871 1288.00
51.8914 3029.00
52.1956 5990.00
52.4999 1701.00
52.8041 1143.00
53.1084 862.00
53.4127 951.00
53.7169 796.00
54.0212 824.00
54.3254 725.00
54.6297 884.00
54.934 1679.00
55.2382 1249.00
55.5425 773.00
55.8467 678.00
56.151 702.00
56.4553 617.00
56.7595 622.00
57.0638 614.00
57.368 671.00
57.6723 830.00
57.9766 855.00
58.2808 1111.00
58.5851 752.00
58.8893 709.00
59.1936 1079.00
59.4979 1137.00
59.8021 932.00
60.1064 768.00
60.4106 644.00
60.7149 527.00
61.0192 584.00
61.3234 591.00
61.6277 668.00
61.932 859.00
62.2362 1512.00
62.5405 910.00
62.8447 850.00
63.149 869.00
63.4533 797.00
63.7575 713.00
64.0618 706.00
64.366 708.00
64.6703 822.00
64.9745 2398.00
65.2788 965.00
65.5831 1099.00
65.8873 938.00
66.1916 2437.00
66.4959 1032.00
66.8001 635.00
67.1044 542.00
67.4086 552.00
67.7129 529.00
68.0172 516.00
68.3214 488.00
68.6257 459.00
68.9299 449.00
69.2342 430.00
69.5385 518.00
69.8427 603.00
70.147 591.00
70.4512 517.00
70.7555 426.00
71.0598 520.00
71.364 650.00
71.6683 805.00
71.9725 547.00
72.2768 491.00
72.5811 453.00
72.8853 462.00
73.1896 487.00
73.4938 462.00
73.7981 434.00
74.1024 364.00
74.4066 441.00
74.7109 424.00
75.0151 452.00
75.3194 405.00
75.6237 475.00
75.9279 410.00
76.2322 431.00
76.5364 467.00
76.8407 445.00
77.145 402.00
77.4492 428.00
77.7535 461.00
78.0577 468.00
78.362 491.00
78.6663 653.00
78.9705 1629.00
79.2748 817.00
79.579 591.00
79.8833 537.00
80.1876 454.00
80.4918 428.00
80.7961 441.00
81.1003 510.00
81.4046 676.00
81.7089 488.00
82.0131 464.00
82.3174 446.00
82.6217 499.00
82.9259 502.00
83.2302 445.00
83.5344 500.00
83.8387 849.00
84.143 867.00
84.4472 521.00
84.7515 516.00
85.0557 563.00
85.36 463.00
85.6643 422.00
85.9685 423.00
86.2728 422.00
86.577 426.00
86.8813 470.00
87.1856 478.00
87.4898 731.00
87.7941 507.00
88.0983 430.00
88.4026 487.00
88.7069 457.00
89.0111 504.00
89.3154 493.00
89.6196 605.00
89.9239 1135.00
90.2282 890.00
90.5324 586.00
90.8367 758.00
91.1409 1178.00
91.4452 814.00
91.7495 526.00
92.0537 530.00
92.358 464.00
92.6622 458.00
92.9665 488.00
93.2708 519.00
93.575 643.00
93.8793 542.00
94.1835 475.00
94.4878 456.00
94.7921 424.00
95.0963 409.00
95.4006 414.00
95.7048 473.00
96.0091 478.00
96.3134 528.00
96.6176 487.00
96.9219 451.00
97.2261 399.00
97.5304 355.00
97.8347 457.00
98.1389 397.00
98.4432 461.00
98.7474 451.00
99.0517 415.00
99.356 387.00
99.6602 369.00
99.9645 381.00
100.095 369.00