File: data/xrd_creation/results/Na_66.xy
9.903433 2702.00
10.2077 2642.00
10.512 2567.00
10.8162 2559.00
11.1205 2596.00
11.4247 2323.00
11.729 2206.00
12.0333 2068.00
12.3375 2014.00
12.6418 2048.00
12.946 1947.00
13.2503 1950.00
13.5546 1849.00
13.8588 1868.00
14.1631 2004.00
14.4673 1754.00
14.7716 1732.00
15.0759 1687.00
15.3801 1718.00
15.6844 1630.00
15.9886 1672.00
16.2929 1690.00
16.5972 1544.00
16.9014 1539.00
17.2057 1507.00
17.5099 1534.00
17.8142 1528.00
18.1185 1506.00
18.4227 1462.00
18.727 1392.00
19.0312 1521.00
19.3355 1621.00
19.6398 1528.00
19.944 1438.00
20.2483 1874.00
20.5525 1574.00
20.8568 1841.00
21.1611 1641.00
21.4653 1801.00
21.7696 1765.00
22.0738 2079.00
22.3781 1338.00
22.6824 2579.00
22.9866 1447.00
23.2909 1311.00
23.5951 1607.00
23.8994 2530.00
24.2037 1888.00
24.5079 1933.00
24.8122 1167.00
25.1164 1270.00
25.4207 1236.00
25.725 1295.00
26.0292 1706.00
26.3335 5476.00
26.6378 2316.00
26.942 2013.00
27.2463 2476.00
27.5505 6337.00
27.8548 1934.00
28.1591 1200.00
28.4633 1179.00
28.7676 1130.00
29.0718 1469.00
29.3761 1109.00
29.6804 1150.00
29.9846 1082.00
30.2889 1219.00
30.5931 1490.00
30.8974 2606.00
31.2017 1048.00
31.5059 1291.00
31.8102 1114.00
32.1144 1213.00
32.4187 1393.00
32.723 975.00
33.0272 996.00
33.3315 1022.00
33.6357 1517.00
33.94 1256.00
34.2443 1350.00
34.5485 1088.00
34.8528 1013.00
35.157 896.00
35.4613 1031.00
35.7656 856.00
36.0698 879.00
36.3741 1258.00
36.6783 991.00
36.9826 1158.00
37.2869 1062.00
37.5911 1121.00
37.8954 1192.00
38.1996 1678.00
38.5039 1394.00
38.8082 943.00
39.1124 948.00
39.4167 921.00
39.7209 1055.00
40.0252 921.00
40.3295 791.00
40.6337 852.00
40.938 1260.00
41.2422 865.00
41.5465 951.00
41.8508 705.00
42.155 779.00
42.4593 735.00
42.7635 759.00
43.0678 767.00
43.3721 1021.00
43.6763 869.00
43.9806 924.00
44.2849 1249.00
44.5891 1045.00
44.8934 1070.00
45.1976 1771.00
45.5019 751.00
45.8062 879.00
46.1104 1089.00
46.4147 838.00
46.7189 730.00
47.0232 1198.00
47.3275 905.00
47.6317 783.00
47.936 643.00
48.2402 712.00
48.5445 785.00
48.8488 1030.00
49.153 1016.00
49.4573 847.00
49.7615 786.00
50.0658 651.00
50.3701 682.00
50.6743 709.00
50.9786 711.00
51.2828 792.00
51.5871 844.00
51.8914 981.00
52.1956 997.00
52.4999 930.00
52.8041 830.00
53.1084 844.00
53.4127 941.00
53.7169 735.00
54.0212 840.00
54.3254 701.00
54.6297 729.00
54.934 732.00
55.2382 716.00
55.5425 774.00
55.8467 616.00
56.151 672.00
56.4553 724.00
56.7595 705.00
57.0638 769.00
57.368 889.00
57.6723 813.00
57.9766 813.00
58.2808 833.00
58.5851 865.00
58.8893 742.00
59.1936 648.00
59.4979 651.00
59.8021 716.00
60.1064 672.00
60.4106 578.00
60.7149 605.00
61.0192 872.00
61.3234 803.00
61.6277 710.00
61.932 716.00
62.2362 770.00
62.5405 812.00
62.8447 793.00
63.149 708.00
63.4533 677.00
63.7575 707.00
64.0618 665.00
64.366 628.00
64.6703 696.00
64.9745 900.00
65.2788 679.00
65.5831 605.00
65.8873 621.00
66.1916 663.00
66.4959 669.00
66.8001 618.00
67.1044 611.00
67.4086 613.00
67.7129 628.00
68.0172 628.00
68.3214 584.00
68.6257 525.00
68.9299 568.00
69.2342 553.00
69.5385 585.00
69.8427 513.00
70.147 500.00
70.4512 482.00
70.7555 567.00
71.0598 532.00
71.364 613.00
71.6683 641.00
71.9725 581.00
72.2768 572.00
72.5811 632.00
72.8853 635.00
73.1896 547.00
73.4938 585.00
73.7981 501.00
74.1024 481.00
74.4066 490.00
74.7109 447.00
75.0151 474.00
75.3194 497.00
75.6237 526.00
75.9279 513.00
76.2322 510.00
76.5364 444.00
76.8407 439.00
77.145 438.00
77.4492 434.00
77.7535 425.00
78.0577 459.00
78.362 503.00
78.6663 473.00
78.9705 550.00
79.2748 518.00
79.579 548.00
79.8833 546.00
80.1876 493.00
80.4918 495.00
80.7961 561.00
81.1003 505.00
81.4046 491.00
81.7089 508.00
82.0131 489.00
82.3174 483.00
82.6217 490.00
82.9259 465.00
83.2302 416.00
83.5344 455.00
83.8387 485.00
84.143 480.00
84.4472 463.00
84.7515 436.00
85.0557 457.00
85.36 433.00
85.6643 460.00
85.9685 456.00
86.2728 447.00
86.577 466.00
86.8813 463.00
87.1856 437.00
87.4898 466.00
87.7941 458.00
88.0983 506.00
88.4026 537.00
88.7069 510.00
89.0111 516.00
89.3154 509.00
89.6196 621.00
89.9239 563.00
90.2282 534.00
90.5324 530.00
90.8367 513.00
91.1409 536.00
91.4452 499.00
91.7495 473.00
92.0537 455.00
92.358 457.00
92.6622 486.00
92.9665 431.00
93.2708 441.00
93.575 417.00
93.8793 413.00
94.1835 484.00
94.4878 447.00
94.7921 454.00
95.0963 478.00
95.4006 486.00
95.7048 487.00
96.0091 499.00
96.3134 479.00
96.6176 471.00
96.9219 454.00
97.2261 449.00
97.5304 461.00
97.8347 510.00
98.1389 425.00
98.4432 489.00
98.7474 422.00
99.0517 455.00
99.356 434.00
99.6602 407.00
99.9645 423.00
100.095 429.00