File: data/xrd_creation/results/Na_69.xy
9.903433 2550.00
10.2077 2494.00
10.512 2446.00
10.8162 2331.00
11.1205 2230.00
11.4247 2177.00
11.729 2090.00
12.0333 1973.00
12.3375 1887.00
12.6418 1869.00
12.946 1776.00
13.2503 1830.00
13.5546 1635.00
13.8588 1635.00
14.1631 1609.00
14.4673 1522.00
14.7716 1491.00
15.0759 1465.00
15.3801 1421.00
15.6844 1480.00
15.9886 1399.00
16.2929 1390.00
16.5972 1314.00
16.9014 1305.00
17.2057 1318.00
17.5099 1347.00
17.8142 1301.00
18.1185 1187.00
18.4227 1251.00
18.727 1294.00
19.0312 1371.00
19.3355 1341.00
19.6398 1412.00
19.944 2221.00
20.2483 3752.00
20.5525 2318.00
20.8568 1528.00
21.1611 1568.00
21.4653 2242.00
21.7696 2694.00
22.0738 1462.00
22.3781 1244.00
22.6824 1328.00
22.9866 1762.00
23.2909 1853.00
23.5951 1178.00
23.8994 1049.00
24.2037 985.00
24.5079 952.00
24.8122 915.00
25.1164 910.00
25.4207 944.00
25.725 1012.00
26.0292 938.00
26.3335 1133.00
26.6378 1659.00
26.942 1011.00
27.2463 1019.00
27.5505 974.00
27.8548 934.00
28.1591 946.00
28.4633 975.00
28.7676 947.00
29.0718 1112.00
29.3761 3858.00
29.6804 3083.00
29.9846 1187.00
30.2889 1046.00
30.5931 1122.00
30.8974 1008.00
31.2017 1000.00
31.5059 1020.00
31.8102 993.00
32.1144 992.00
32.4187 1372.00
32.723 1881.00
33.0272 2898.00
33.3315 3235.00
33.6357 1283.00
33.94 1218.00
34.2443 894.00
34.5485 822.00
34.8528 808.00
35.157 784.00
35.4613 1112.00
35.7656 1299.00
36.0698 1323.00
36.3741 735.00
36.6783 718.00
36.9826 713.00
37.2869 723.00
37.5911 716.00
37.8954 646.00
38.1996 739.00
38.5039 906.00
38.8082 873.00
39.1124 829.00
39.4167 1317.00
39.7209 895.00
40.0252 569.00
40.3295 592.00
40.6337 574.00
40.938 667.00
41.2422 630.00
41.5465 620.00
41.8508 629.00
42.155 618.00
42.4593 596.00
42.7635 643.00
43.0678 995.00
43.3721 1215.00
43.6763 768.00
43.9806 644.00
44.2849 594.00
44.5891 575.00
44.8934 632.00
45.1976 689.00
45.5019 615.00
45.8062 688.00
46.1104 624.00
46.4147 596.00
46.7189 599.00
47.0232 813.00
47.3275 1281.00
47.6317 1476.00
47.936 754.00
48.2402 614.00
48.5445 1204.00
48.8488 704.00
49.153 428.00
49.4573 478.00
49.7615 466.00
50.0658 483.00
50.3701 424.00
50.6743 419.00
50.9786 444.00
51.2828 447.00
51.5871 514.00
51.8914 529.00
52.1956 586.00
52.4999 527.00
52.8041 459.00
53.1084 488.00
53.4127 476.00
53.7169 495.00
54.0212 470.00
54.3254 429.00
54.6297 464.00
54.934 525.00
55.2382 442.00
55.5425 447.00
55.8467 487.00
56.151 468.00
56.4553 539.00
56.7595 627.00
57.0638 453.00
57.368 710.00
57.6723 612.00
57.9766 501.00
58.2808 489.00
58.5851 453.00
58.8893 561.00
59.1936 691.00
59.4979 702.00
59.8021 608.00
60.1064 466.00
60.4106 467.00
60.7149 618.00
61.0192 561.00
61.3234 516.00
61.6277 472.00
61.932 390.00
62.2362 368.00
62.5405 374.00
62.8447 414.00
63.149 511.00
63.4533 442.00
63.7575 389.00
64.0618 381.00
64.366 381.00
64.6703 553.00
64.9745 505.00
65.2788 453.00
65.5831 582.00
65.8873 485.00
66.1916 412.00
66.4959 368.00
66.8001 301.00
67.1044 300.00
67.4086 337.00
67.7129 318.00
68.0172 302.00
68.3214 342.00
68.6257 310.00
68.9299 325.00
69.2342 390.00
69.5385 453.00
69.8427 394.00
70.147 471.00
70.4512 363.00
70.7555 329.00
71.0598 330.00
71.364 303.00
71.6683 338.00
71.9725 297.00
72.2768 291.00
72.5811 350.00
72.8853 448.00
73.1896 369.00
73.4938 303.00
73.7981 308.00
74.1024 312.00
74.4066 317.00
74.7109 325.00
75.0151 299.00
75.3194 326.00
75.6237 286.00
75.9279 302.00
76.2322 359.00
76.5364 400.00
76.8407 330.00
77.145 380.00
77.4492 361.00
77.7535 321.00
78.0577 320.00
78.362 314.00
78.6663 307.00
78.9705 315.00
79.2748 327.00
79.579 334.00
79.8833 330.00
80.1876 319.00
80.4918 318.00
80.7961 325.00
81.1003 341.00
81.4046 387.00
81.7089 375.00
82.0131 329.00
82.3174 301.00
82.6217 325.00
82.9259 294.00
83.2302 302.00
83.5344 346.00
83.8387 455.00
84.143 378.00
84.4472 310.00
84.7515 399.00
85.0557 360.00
85.36 308.00
85.6643 245.00
85.9685 287.00
86.2728 285.00
86.577 297.00
86.8813 280.00
87.1856 248.00
87.4898 244.00
87.7941 271.00
88.0983 280.00
88.4026 262.00
88.7069 284.00
89.0111 285.00
89.3154 263.00
89.6196 226.00
89.9239 243.00
90.2282 240.00
90.5324 262.00
90.8367 283.00
91.1409 248.00
91.4452 281.00
91.7495 286.00
92.0537 258.00
92.358 300.00
92.6622 291.00
92.9665 289.00
93.2708 272.00
93.575 261.00
93.8793 273.00
94.1835 244.00
94.4878 274.00
94.7921 361.00
95.0963 375.00
95.4006 331.00
95.7048 264.00
96.0091 264.00
96.3134 294.00
96.6176 260.00
96.9219 262.00
97.2261 291.00
97.5304 287.00
97.8347 283.00
98.1389 301.00
98.4432 279.00
98.7474 298.00
99.0517 337.00
99.356 290.00
99.6602 287.00
99.9645 249.00
100.095 247.00