File: data/xrd_creation/results/Na_68.xy
9.903433 2865.00
10.2077 2735.00
10.512 2709.00
10.8162 2605.00
11.1205 2557.00
11.4247 2648.00
11.729 2888.00
12.0333 2516.00
12.3375 2186.00
12.6418 2159.00
12.946 2116.00
13.2503 2019.00
13.5546 1861.00
13.8588 1997.00
14.1631 1923.00
14.4673 1888.00
14.7716 1800.00
15.0759 1897.00
15.3801 1865.00
15.6844 1790.00
15.9886 1847.00
16.2929 1864.00
16.5972 1827.00
16.9014 1744.00
17.2057 1738.00
17.5099 1618.00
17.8142 1589.00
18.1185 1635.00
18.4227 1686.00
18.727 1529.00
19.0312 1699.00
19.3355 1781.00
19.6398 1471.00
19.944 1588.00
20.2483 3669.00
20.5525 2383.00
20.8568 1475.00
21.1611 1413.00
21.4653 1459.00
21.7696 1390.00
22.0738 1289.00
22.3781 1298.00
22.6824 1332.00
22.9866 1309.00
23.2909 1363.00
23.5951 1328.00
23.8994 1245.00
24.2037 1347.00
24.5079 1501.00
24.8122 1460.00
25.1164 1429.00
25.4207 1365.00
25.725 1377.00
26.0292 1869.00
26.3335 1938.00
26.6378 4144.00
26.942 10753.00
27.2463 2575.00
27.5505 1653.00
27.8548 1705.00
28.1591 1523.00
28.4633 1260.00
28.7676 1228.00
29.0718 1230.00
29.3761 1206.00
29.6804 1489.00
29.9846 2223.00
30.2889 1981.00
30.5931 1318.00
30.8974 1347.00
31.2017 1172.00
31.5059 1250.00
31.8102 1174.00
32.1144 1120.00
32.4187 1315.00
32.723 1642.00
33.0272 4203.00
33.3315 3912.00
33.6357 2853.00
33.94 3106.00
34.2443 7893.00
34.5485 2598.00
34.8528 1814.00
35.157 1268.00
35.4613 1189.00
35.7656 1251.00
36.0698 1488.00
36.3741 1004.00
36.6783 951.00
36.9826 1015.00
37.2869 1029.00
37.5911 1177.00
37.8954 1226.00
38.1996 3206.00
38.5039 1313.00
38.8082 1917.00
39.1124 1125.00
39.4167 1161.00
39.7209 809.00
40.0252 705.00
40.3295 745.00
40.6337 681.00
40.938 689.00
41.2422 696.00
41.5465 698.00
41.8508 700.00
42.155 811.00
42.4593 807.00
42.7635 833.00
43.0678 847.00
43.3721 667.00
43.6763 773.00
43.9806 1038.00
44.2849 743.00
44.5891 609.00
44.8934 752.00
45.1976 919.00
45.5019 706.00
45.8062 641.00
46.1104 678.00
46.4147 657.00
46.7189 622.00
47.0232 672.00
47.3275 855.00
47.6317 1374.00
47.936 789.00
48.2402 671.00
48.5445 643.00
48.8488 633.00
49.153 667.00
49.4573 639.00
49.7615 636.00
50.0658 711.00
50.3701 724.00
50.6743 750.00
50.9786 888.00
51.2828 837.00
51.5871 1296.00
51.8914 3229.00
52.1956 5387.00
52.4999 1733.00
52.8041 1071.00
53.1084 916.00
53.4127 934.00
53.7169 870.00
54.0212 803.00
54.3254 772.00
54.6297 895.00
54.934 1643.00
55.2382 1090.00
55.5425 773.00
55.8467 731.00
56.151 712.00
56.4553 631.00
56.7595 625.00
57.0638 683.00
57.368 655.00
57.6723 755.00
57.9766 815.00
58.2808 942.00
58.5851 801.00
58.8893 808.00
59.1936 1109.00
59.4979 1166.00
59.8021 856.00
60.1064 771.00
60.4106 574.00
60.7149 583.00
61.0192 613.00
61.3234 609.00
61.6277 684.00
61.932 893.00
62.2362 1421.00
62.5405 849.00
62.8447 866.00
63.149 942.00
63.4533 749.00
63.7575 737.00
64.0618 762.00
64.366 711.00
64.6703 795.00
64.9745 2160.00
65.2788 971.00
65.5831 1083.00
65.8873 967.00
66.1916 2356.00
66.4959 1046.00
66.8001 624.00
67.1044 536.00
67.4086 487.00
67.7129 466.00
68.0172 498.00
68.3214 464.00
68.6257 452.00
68.9299 453.00
69.2342 430.00
69.5385 515.00
69.8427 606.00
70.147 553.00
70.4512 514.00
70.7555 481.00
71.0598 470.00
71.364 629.00
71.6683 795.00
71.9725 488.00
72.2768 486.00
72.5811 520.00
72.8853 469.00
73.1896 490.00
73.4938 447.00
73.7981 465.00
74.1024 383.00
74.4066 399.00
74.7109 413.00
75.0151 403.00
75.3194 425.00
75.6237 440.00
75.9279 439.00
76.2322 441.00
76.5364 399.00
76.8407 415.00
77.145 376.00
77.4492 408.00
77.7535 437.00
78.0577 422.00
78.362 468.00
78.6663 648.00
78.9705 1306.00
79.2748 804.00
79.579 614.00
79.8833 451.00
80.1876 441.00
80.4918 439.00
80.7961 487.00
81.1003 488.00
81.4046 643.00
81.7089 491.00
82.0131 428.00
82.3174 434.00
82.6217 458.00
82.9259 457.00
83.2302 467.00
83.5344 511.00
83.8387 814.00
84.143 826.00
84.4472 530.00
84.7515 538.00
85.0557 586.00
85.36 468.00
85.6643 447.00
85.9685 383.00
86.2728 401.00
86.577 450.00
86.8813 459.00
87.1856 449.00
87.4898 644.00
87.7941 542.00
88.0983 462.00
88.4026 464.00
88.7069 494.00
89.0111 462.00
89.3154 510.00
89.6196 597.00
89.9239 1096.00
90.2282 919.00
90.5324 628.00
90.8367 662.00
91.1409 1081.00
91.4452 779.00
91.7495 527.00
92.0537 542.00
92.358 467.00
92.6622 465.00
92.9665 465.00
93.2708 500.00
93.575 592.00
93.8793 531.00
94.1835 468.00
94.4878 429.00
94.7921 413.00
95.0963 422.00
95.4006 407.00
95.7048 436.00
96.0091 487.00
96.3134 517.00
96.6176 486.00
96.9219 420.00
97.2261 389.00
97.5304 395.00
97.8347 392.00
98.1389 458.00
98.4432 452.00
98.7474 462.00
99.0517 443.00
99.356 420.00
99.6602 426.00
99.9645 418.00
100.095 394.00