File: data/xrd_creation/results/Na_65.xy
9.903433 2778.00
10.2077 2712.00
10.512 2530.00
10.8162 2507.00
11.1205 2417.00
11.4247 2262.00
11.729 2265.00
12.0333 2137.00
12.3375 2105.00
12.6418 2042.00
12.946 1961.00
13.2503 1803.00
13.5546 1941.00
13.8588 1742.00
14.1631 1762.00
14.4673 1765.00
14.7716 1692.00
15.0759 1681.00
15.3801 1686.00
15.6844 1703.00
15.9886 1665.00
16.2929 1671.00
16.5972 1608.00
16.9014 1622.00
17.2057 1569.00
17.5099 1494.00
17.8142 1532.00
18.1185 1549.00
18.4227 1416.00
18.727 1403.00
19.0312 1489.00
19.3355 1451.00
19.6398 1313.00
19.944 1646.00
20.2483 2777.00
20.5525 1496.00
20.8568 1241.00
21.1611 1285.00
21.4653 1209.00
21.7696 1270.00
22.0738 1170.00
22.3781 1117.00
22.6824 1173.00
22.9866 1103.00
23.2909 1183.00
23.5951 1139.00
23.8994 1085.00
24.2037 1146.00
24.5079 1064.00
24.8122 1067.00
25.1164 1017.00
25.4207 1007.00
25.725 1026.00
26.0292 1153.00
26.3335 1603.00
26.6378 5989.00
26.942 7305.00
27.2463 1378.00
27.5505 1101.00
27.8548 986.00
28.1591 933.00
28.4633 822.00
28.7676 895.00
29.0718 803.00
29.3761 861.00
29.6804 834.00
29.9846 859.00
30.2889 862.00
30.5931 794.00
30.8974 811.00
31.2017 788.00
31.5059 762.00
31.8102 744.00
32.1144 808.00
32.4187 829.00
32.723 1210.00
33.0272 2077.00
33.3315 2861.00
33.6357 1543.00
33.94 4837.00
34.2443 5796.00
34.5485 1201.00
34.8528 934.00
35.157 810.00
35.4613 827.00
35.7656 818.00
36.0698 795.00
36.3741 660.00
36.6783 664.00
36.9826 798.00
37.2869 768.00
37.5911 791.00
37.8954 1033.00
38.1996 3644.00
38.5039 937.00
38.8082 1117.00
39.1124 988.00
39.4167 755.00
39.7209 619.00
40.0252 567.00
40.3295 610.00
40.6337 544.00
40.938 533.00
41.2422 534.00
41.5465 484.00
41.8508 497.00
42.155 503.00
42.4593 535.00
42.7635 674.00
43.0678 567.00
43.3721 552.00
43.6763 683.00
43.9806 671.00
44.2849 535.00
44.5891 492.00
44.8934 595.00
45.1976 574.00
45.5019 517.00
45.8062 526.00
46.1104 498.00
46.4147 473.00
46.7189 473.00
47.0232 444.00
47.3275 641.00
47.6317 786.00
47.936 503.00
48.2402 498.00
48.5445 449.00
48.8488 472.00
49.153 483.00
49.4573 436.00
49.7615 440.00
50.0658 422.00
50.3701 466.00
50.6743 492.00
50.9786 517.00
51.2828 561.00
51.5871 906.00
51.8914 5788.00
52.1956 4040.00
52.4999 883.00
52.8041 543.00
53.1084 540.00
53.4127 440.00
53.7169 508.00
54.0212 463.00
54.3254 480.00
54.6297 667.00
54.934 2364.00
55.2382 869.00
55.5425 529.00
55.8467 441.00
56.151 473.00
56.4553 400.00
56.7595 433.00
57.0638 458.00
57.368 474.00
57.6723 570.00
57.9766 1184.00
58.2808 719.00
58.5851 446.00
58.8893 446.00
59.1936 681.00
59.4979 674.00
59.8021 537.00
60.1064 433.00
60.4106 385.00
60.7149 403.00
61.0192 388.00
61.3234 373.00
61.6277 481.00
61.932 1063.00
62.2362 1610.00
62.5405 554.00
62.8447 506.00
63.149 546.00
63.4533 440.00
63.7575 398.00
64.0618 386.00
64.366 429.00
64.6703 713.00
64.9745 2198.00
65.2788 774.00
65.5831 705.00
65.8873 775.00
66.1916 2731.00
66.4959 796.00
66.8001 432.00
67.1044 346.00
67.4086 370.00
67.7129 338.00
68.0172 330.00
68.3214 341.00
68.6257 325.00
68.9299 326.00
69.2342 308.00
69.5385 359.00
69.8427 410.00
70.147 419.00
70.4512 326.00
70.7555 352.00
71.0598 407.00
71.364 929.00
71.6683 904.00
71.9725 396.00
72.2768 338.00
72.5811 337.00
72.8853 358.00
73.1896 371.00
73.4938 300.00
73.7981 295.00
74.1024 285.00
74.4066 278.00
74.7109 320.00
75.0151 307.00
75.3194 308.00
75.6237 337.00
75.9279 310.00
76.2322 295.00
76.5364 298.00
76.8407 324.00
77.145 292.00
77.4492 307.00
77.7535 297.00
78.0577 309.00
78.362 375.00
78.6663 634.00
78.9705 1394.00
79.2748 661.00
79.579 369.00
79.8833 294.00
80.1876 289.00
80.4918 311.00
80.7961 315.00
81.1003 449.00
81.4046 646.00
81.7089 384.00
82.0131 293.00
82.3174 311.00
82.6217 356.00
82.9259 296.00
83.2302 326.00
83.5344 422.00
83.8387 1173.00
84.143 889.00
84.4472 390.00
84.7515 349.00
85.0557 344.00
85.36 326.00
85.6643 314.00
85.9685 273.00
86.2728 314.00
86.577 304.00
86.8813 323.00
87.1856 391.00
87.4898 595.00
87.7941 447.00
88.0983 304.00
88.4026 312.00
88.7069 375.00
89.0111 331.00
89.3154 337.00
89.6196 500.00
89.9239 1388.00
90.2282 922.00
90.5324 428.00
90.8367 640.00
91.1409 1162.00
91.4452 731.00
91.7495 375.00
92.0537 331.00
92.358 349.00
92.6622 325.00
92.9665 353.00
93.2708 474.00
93.575 656.00
93.8793 455.00
94.1835 311.00
94.4878 302.00
94.7921 309.00
95.0963 293.00
95.4006 300.00
95.7048 313.00
96.0091 536.00
96.3134 563.00
96.6176 432.00
96.9219 288.00
97.2261 276.00
97.5304 216.00
97.8347 285.00
98.1389 309.00
98.4432 334.00
98.7474 334.00
99.0517 324.00
99.356 305.00
99.6602 266.00
99.9645 266.00
100.095 266.00