File: data/xrd_creation/results/Na_73.xy
9.903433 2794.00
10.2077 2776.00
10.512 2686.00
10.8162 2705.00
11.1205 2543.00
11.4247 2447.00
11.729 2870.00
12.0333 2168.00
12.3375 2091.00
12.6418 2080.00
12.946 2111.00
13.2503 2018.00
13.5546 1947.00
13.8588 1938.00
14.1631 1918.00
14.4673 1861.00
14.7716 1692.00
15.0759 1755.00
15.3801 1777.00
15.6844 1702.00
15.9886 1664.00
16.2929 1818.00
16.5972 1639.00
16.9014 1641.00
17.2057 1784.00
17.5099 1896.00
17.8142 3848.00
18.1185 1570.00
18.4227 1496.00
18.727 1742.00
19.0312 1604.00
19.3355 1819.00
19.6398 1382.00
19.944 1462.00
20.2483 2846.00
20.5525 1856.00
20.8568 1407.00
21.1611 1526.00
21.4653 1607.00
21.7696 1594.00
22.0738 1334.00
22.3781 1318.00
22.6824 4993.00
22.9866 1375.00
23.2909 3982.00
23.5951 2548.00
23.8994 1146.00
24.2037 1055.00
24.5079 1120.00
24.8122 1073.00
25.1164 1043.00
25.4207 3529.00
25.725 2441.00
26.0292 1712.00
26.3335 1163.00
26.6378 1368.00
26.942 2104.00
27.2463 1338.00
27.5505 1171.00
27.8548 950.00
28.1591 1499.00
28.4633 953.00
28.7676 946.00
29.0718 1433.00
29.3761 1270.00
29.6804 2997.00
29.9846 1100.00
30.2889 992.00
30.5931 808.00
30.8974 944.00
31.2017 1674.00
31.5059 1432.00
31.8102 4123.00
32.1144 2092.00
32.4187 3751.00
32.723 3471.00
33.0272 2712.00
33.3315 3627.00
33.6357 1739.00
33.94 1492.00
34.2443 1806.00
34.5485 1771.00
34.8528 1418.00
35.157 1158.00
35.4613 965.00
35.7656 1129.00
36.0698 884.00
36.3741 1407.00
36.6783 750.00
36.9826 812.00
37.2869 728.00
37.5911 1583.00
37.8954 721.00
38.1996 598.00
38.5039 701.00
38.8082 925.00
39.1124 704.00
39.4167 921.00
39.7209 892.00
40.0252 716.00
40.3295 1038.00
40.6337 561.00
40.938 1002.00
41.2422 1328.00
41.5465 757.00
41.8508 1376.00
42.155 762.00
42.4593 803.00
42.7635 799.00
43.0678 646.00
43.3721 954.00
43.6763 1275.00
43.9806 1685.00
44.2849 777.00
44.5891 619.00
44.8934 689.00
45.1976 687.00
45.5019 774.00
45.8062 904.00
46.1104 1429.00
46.4147 792.00
46.7189 655.00
47.0232 1115.00
47.3275 1880.00
47.6317 1776.00
47.936 1326.00
48.2402 734.00
48.5445 694.00
48.8488 684.00
49.153 567.00
49.4573 625.00
49.7615 636.00
50.0658 631.00
50.3701 528.00
50.6743 541.00
50.9786 700.00
51.2828 698.00
51.5871 630.00
51.8914 807.00
52.1956 671.00
52.4999 885.00
52.8041 1459.00
53.1084 762.00
53.4127 1022.00
53.7169 787.00
54.0212 719.00
54.3254 655.00
54.6297 849.00
54.934 870.00
55.2382 614.00
55.5425 483.00
55.8467 439.00
56.151 595.00
56.4553 748.00
56.7595 727.00
57.0638 916.00
57.368 1029.00
57.6723 814.00
57.9766 771.00
58.2808 513.00
58.5851 460.00
58.8893 654.00
59.1936 655.00
59.4979 676.00
59.8021 1054.00
60.1064 736.00
60.4106 528.00
60.7149 846.00
61.0192 761.00
61.3234 528.00
61.6277 492.00
61.932 391.00
62.2362 457.00
62.5405 511.00
62.8447 519.00
63.149 658.00
63.4533 677.00
63.7575 635.00
64.0618 542.00
64.366 666.00
64.6703 545.00
64.9745 614.00
65.2788 484.00
65.5831 637.00
65.8873 672.00
66.1916 690.00
66.4959 716.00
66.8001 559.00
67.1044 455.00
67.4086 466.00
67.7129 733.00
68.0172 623.00
68.3214 370.00
68.6257 390.00
68.9299 402.00
69.2342 609.00
69.5385 587.00
69.8427 479.00
70.147 372.00
70.4512 503.00
70.7555 577.00
71.0598 462.00
71.364 405.00
71.6683 450.00
71.9725 702.00
72.2768 544.00
72.5811 536.00
72.8853 597.00
73.1896 478.00
73.4938 433.00
73.7981 385.00
74.1024 376.00
74.4066 389.00
74.7109 390.00
75.0151 410.00
75.3194 489.00
75.6237 438.00
75.9279 386.00
76.2322 516.00
76.5364 437.00
76.8407 393.00
77.145 437.00
77.4492 379.00
77.7535 425.00
78.0577 485.00
78.362 427.00
78.6663 386.00
78.9705 360.00
79.2748 437.00
79.579 519.00
79.8833 429.00
80.1876 426.00
80.4918 501.00
80.7961 458.00
81.1003 511.00
81.4046 533.00
81.7089 426.00
82.0131 393.00
82.3174 347.00
82.6217 334.00
82.9259 321.00
83.2302 351.00
83.5344 433.00
83.8387 396.00
84.143 410.00
84.4472 392.00
84.7515 393.00
85.0557 410.00
85.36 402.00
85.6643 346.00
85.9685 384.00
86.2728 464.00
86.577 379.00
86.8813 444.00
87.1856 412.00
87.4898 360.00
87.7941 378.00
88.0983 397.00
88.4026 428.00
88.7069 456.00
89.0111 416.00
89.3154 370.00
89.6196 348.00
89.9239 368.00
90.2282 360.00
90.5324 421.00
90.8367 365.00
91.1409 324.00
91.4452 341.00
91.7495 400.00
92.0537 421.00
92.358 381.00
92.6622 413.00
92.9665 397.00
93.2708 348.00
93.575 407.00
93.8793 405.00
94.1835 392.00
94.4878 351.00
94.7921 408.00
95.0963 416.00
95.4006 501.00
95.7048 476.00
96.0091 449.00
96.3134 389.00
96.6176 356.00
96.9219 336.00
97.2261 342.00
97.5304 296.00
97.8347 349.00
98.1389 347.00
98.4432 362.00
98.7474 358.00
99.0517 359.00
99.356 359.00
99.6602 344.00
99.9645 364.00
100.095 378.00