File: data/xrd_creation/results/Na_78.xy
9.903433 2681.00
10.2077 2655.00
10.512 2526.00
10.8162 2468.00
11.1205 2362.00
11.4247 2220.00
11.729 2185.00
12.0333 2072.00
12.3375 2001.00
12.6418 1989.00
12.946 1920.00
13.2503 1796.00
13.5546 1887.00
13.8588 1783.00
14.1631 1813.00
14.4673 1764.00
14.7716 1751.00
15.0759 1695.00
15.3801 1631.00
15.6844 1567.00
15.9886 1581.00
16.2929 1518.00
16.5972 1509.00
16.9014 1571.00
17.2057 1523.00
17.5099 1515.00
17.8142 1414.00
18.1185 1500.00
18.4227 1447.00
18.727 1346.00
19.0312 1327.00
19.3355 1365.00
19.6398 1394.00
19.944 1506.00
20.2483 1248.00
20.5525 1347.00
20.8568 1528.00
21.1611 1207.00
21.4653 1154.00
21.7696 1202.00
22.0738 1100.00
22.3781 1059.00
22.6824 1078.00
22.9866 1028.00
23.2909 1064.00
23.5951 1053.00
23.8994 1145.00
24.2037 1109.00
24.5079 1138.00
24.8122 1029.00
25.1164 1043.00
25.4207 1083.00
25.725 1082.00
26.0292 1279.00
26.3335 1934.00
26.6378 4829.00
26.942 1565.00
27.2463 1175.00
27.5505 970.00
27.8548 1053.00
28.1591 928.00
28.4633 876.00
28.7676 980.00
29.0718 891.00
29.3761 973.00
29.6804 1297.00
29.9846 1434.00
30.2889 1070.00
30.5931 846.00
30.8974 843.00
31.2017 939.00
31.5059 882.00
31.8102 1191.00
32.1144 1220.00
32.4187 976.00
32.723 970.00
33.0272 946.00
33.3315 1070.00
33.6357 1660.00
33.94 4554.00
34.2443 1504.00
34.5485 1110.00
34.8528 865.00
35.157 912.00
35.4613 817.00
35.7656 854.00
36.0698 723.00
36.3741 781.00
36.6783 697.00
36.9826 671.00
37.2869 720.00
37.5911 772.00
37.8954 1821.00
38.1996 1131.00
38.5039 713.00
38.8082 724.00
39.1124 758.00
39.4167 675.00
39.7209 604.00
40.0252 636.00
40.3295 576.00
40.6337 565.00
40.938 593.00
41.2422 581.00
41.5465 647.00
41.8508 508.00
42.155 607.00
42.4593 581.00
42.7635 625.00
43.0678 513.00
43.3721 530.00
43.6763 513.00
43.9806 560.00
44.2849 502.00
44.5891 528.00
44.8934 517.00
45.1976 513.00
45.5019 463.00
45.8062 492.00
46.1104 480.00
46.4147 498.00
46.7189 476.00
47.0232 556.00
47.3275 524.00
47.6317 466.00
47.936 441.00
48.2402 549.00
48.5445 495.00
48.8488 441.00
49.153 491.00
49.4573 455.00
49.7615 437.00
50.0658 477.00
50.3701 540.00
50.6743 490.00
50.9786 592.00
51.2828 782.00
51.5871 1694.00
51.8914 3504.00
52.1956 1142.00
52.4999 767.00
52.8041 614.00
53.1084 585.00
53.4127 648.00
53.7169 540.00
54.0212 540.00
54.3254 562.00
54.6297 854.00
54.934 925.00
55.2382 464.00
55.5425 503.00
55.8467 442.00
56.151 418.00
56.4553 444.00
56.7595 484.00
57.0638 447.00
57.368 460.00
57.6723 557.00
57.9766 768.00
58.2808 568.00
58.5851 535.00
58.8893 525.00
59.1936 421.00
59.4979 455.00
59.8021 404.00
60.1064 434.00
60.4106 385.00
60.7149 412.00
61.0192 425.00
61.3234 500.00
61.6277 546.00
61.932 1130.00
62.2362 667.00
62.5405 544.00
62.8447 531.00
63.149 460.00
63.4533 526.00
63.7575 535.00
64.0618 492.00
64.366 519.00
64.6703 1018.00
64.9745 799.00
65.2788 523.00
65.5831 566.00
65.8873 1058.00
66.1916 854.00
66.4959 454.00
66.8001 411.00
67.1044 345.00
67.4086 398.00
67.7129 348.00
68.0172 372.00
68.3214 328.00
68.6257 305.00
68.9299 331.00
69.2342 339.00
69.5385 336.00
69.8427 307.00
70.147 321.00
70.4512 311.00
70.7555 328.00
71.0598 385.00
71.364 662.00
71.6683 415.00
71.9725 359.00
72.2768 345.00
72.5811 328.00
72.8853 293.00
73.1896 280.00
73.4938 262.00
73.7981 273.00
74.1024 288.00
74.4066 292.00
74.7109 307.00
75.0151 290.00
75.3194 328.00
75.6237 302.00
75.9279 302.00
76.2322 302.00
76.5364 273.00
76.8407 279.00
77.145 302.00
77.4492 287.00
77.7535 295.00
78.0577 324.00
78.362 369.00
78.6663 874.00
78.9705 702.00
79.2748 373.00
79.579 287.00
79.8833 323.00
80.1876 309.00
80.4918 339.00
80.7961 379.00
81.1003 442.00
81.4046 460.00
81.7089 317.00
82.0131 327.00
82.3174 285.00
82.6217 295.00
82.9259 313.00
83.2302 370.00
83.5344 390.00
83.8387 553.00
84.143 396.00
84.4472 342.00
84.7515 311.00
85.0557 321.00
85.36 272.00
85.6643 283.00
85.9685 256.00
86.2728 297.00
86.577 294.00
86.8813 297.00
87.1856 404.00
87.4898 440.00
87.7941 329.00
88.0983 357.00
88.4026 338.00
88.7069 325.00
89.0111 354.00
89.3154 354.00
89.6196 476.00
89.9239 624.00
90.2282 481.00
90.5324 452.00
90.8367 711.00
91.1409 655.00
91.4452 367.00
91.7495 322.00
92.0537 328.00
92.358 299.00
92.6622 323.00
92.9665 351.00
93.2708 541.00
93.575 398.00
93.8793 322.00
94.1835 364.00
94.4878 281.00
94.7921 356.00
95.0963 283.00
95.4006 302.00
95.7048 323.00
96.0091 499.00
96.3134 406.00
96.6176 317.00
96.9219 319.00
97.2261 277.00
97.5304 243.00
97.8347 241.00
98.1389 271.00
98.4432 277.00
98.7474 256.00
99.0517 262.00
99.356 239.00
99.6602 268.00
99.9645 296.00
100.095 269.00