File: data/xrd_creation/results/Na_72.xy
9.903433 2793.00
10.2077 2776.00
10.512 2667.00
10.8162 2682.00
11.1205 2578.00
11.4247 2560.00
11.729 2410.00
12.0333 2325.00
12.3375 2313.00
12.6418 2193.00
12.946 2114.00
13.2503 2075.00
13.5546 2206.00
13.8588 2030.00
14.1631 2001.00
14.4673 1996.00
14.7716 1947.00
15.0759 1870.00
15.3801 1945.00
15.6844 1940.00
15.9886 1852.00
16.2929 1786.00
16.5972 1810.00
16.9014 1795.00
17.2057 1739.00
17.5099 1715.00
17.8142 1804.00
18.1185 1716.00
18.4227 1720.00
18.727 1701.00
19.0312 1752.00
19.3355 1831.00
19.6398 1824.00
19.944 1950.00
20.2483 3166.00
20.5525 2209.00
20.8568 1687.00
21.1611 2002.00
21.4653 2116.00
21.7696 2065.00
22.0738 1562.00
22.3781 1610.00
22.6824 1593.00
22.9866 1562.00
23.2909 2347.00
23.5951 1563.00
23.8994 1434.00
24.2037 1400.00
24.5079 1365.00
24.8122 1391.00
25.1164 1381.00
25.4207 1405.00
25.725 1427.00
26.0292 1451.00
26.3335 1509.00
26.6378 1862.00
26.942 1636.00
27.2463 1592.00
27.5505 1574.00
27.8548 1548.00
28.1591 1594.00
28.4633 1452.00
28.7676 1462.00
29.0718 1543.00
29.3761 1864.00
29.6804 11345.00
29.9846 1884.00
30.2889 1780.00
30.5931 1850.00
30.8974 1780.00
31.2017 1601.00
31.5059 1587.00
31.8102 1601.00
32.1144 1550.00
32.4187 1647.00
32.723 1899.00
33.0272 2381.00
33.3315 4020.00
33.6357 1750.00
33.94 1722.00
34.2443 1399.00
34.5485 1319.00
34.8528 1251.00
35.157 1203.00
35.4613 1253.00
35.7656 1319.00
36.0698 1232.00
36.3741 1387.00
36.6783 1033.00
36.9826 1070.00
37.2869 1038.00
37.5911 976.00
37.8954 928.00
38.1996 964.00
38.5039 1125.00
38.8082 1117.00
39.1124 984.00
39.4167 1007.00
39.7209 2184.00
40.0252 833.00
40.3295 881.00
40.6337 815.00
40.938 876.00
41.2422 961.00
41.5465 817.00
41.8508 851.00
42.155 825.00
42.4593 773.00
42.7635 822.00
43.0678 874.00
43.3721 2097.00
43.6763 1001.00
43.9806 933.00
44.2849 832.00
44.5891 837.00
44.8934 932.00
45.1976 872.00
45.5019 928.00
45.8062 836.00
46.1104 952.00
46.4147 817.00
46.7189 872.00
47.0232 851.00
47.3275 1542.00
47.6317 1539.00
47.936 1182.00
48.2402 815.00
48.5445 961.00
48.8488 1707.00
49.153 748.00
49.4573 720.00
49.7615 704.00
50.0658 702.00
50.3701 650.00
50.6743 658.00
50.9786 640.00
51.2828 673.00
51.5871 725.00
51.8914 687.00
52.1956 804.00
52.4999 711.00
52.8041 671.00
53.1084 675.00
53.4127 650.00
53.7169 685.00
54.0212 673.00
54.3254 612.00
54.6297 642.00
54.934 674.00
55.2382 642.00
55.5425 667.00
55.8467 647.00
56.151 674.00
56.4553 603.00
56.7595 805.00
57.0638 635.00
57.368 657.00
57.6723 1225.00
57.9766 663.00
58.2808 737.00
58.5851 628.00
58.8893 670.00
59.1936 817.00
59.4979 802.00
59.8021 715.00
60.1064 598.00
60.4106 608.00
60.7149 629.00
61.0192 835.00
61.3234 691.00
61.6277 792.00
61.932 634.00
62.2362 584.00
62.5405 570.00
62.8447 604.00
63.149 626.00
63.4533 735.00
63.7575 515.00
64.0618 535.00
64.366 544.00
64.6703 568.00
64.9745 774.00
65.2788 577.00
65.5831 618.00
65.8873 750.00
66.1916 593.00
66.4959 531.00
66.8001 506.00
67.1044 532.00
67.4086 517.00
67.7129 537.00
68.0172 536.00
68.3214 467.00
68.6257 451.00
68.9299 433.00
69.2342 456.00
69.5385 575.00
69.8427 543.00
70.147 525.00
70.4512 593.00
70.7555 472.00
71.0598 493.00
71.364 433.00
71.6683 456.00
71.9725 426.00
72.2768 390.00
72.5811 409.00
72.8853 462.00
73.1896 570.00
73.4938 408.00
73.7981 412.00
74.1024 438.00
74.4066 384.00
74.7109 412.00
75.0151 384.00
75.3194 412.00
75.6237 407.00
75.9279 417.00
76.2322 413.00
76.5364 456.00
76.8407 464.00
77.145 436.00
77.4492 455.00
77.7535 409.00
78.0577 341.00
78.362 412.00
78.6663 389.00
78.9705 432.00
79.2748 436.00
79.579 417.00
79.8833 429.00
80.1876 372.00
80.4918 328.00
80.7961 376.00
81.1003 431.00
81.4046 435.00
81.7089 574.00
82.0131 476.00
82.3174 402.00
82.6217 407.00
82.9259 379.00
83.2302 409.00
83.5344 363.00
83.8387 546.00
84.143 523.00
84.4472 398.00
84.7515 422.00
85.0557 492.00
85.36 383.00
85.6643 349.00
85.9685 375.00
86.2728 361.00
86.577 431.00
86.8813 338.00
87.1856 377.00
87.4898 364.00
87.7941 348.00
88.0983 354.00
88.4026 340.00
88.7069 328.00
89.0111 370.00
89.3154 369.00
89.6196 309.00
89.9239 362.00
90.2282 359.00
90.5324 334.00
90.8367 317.00
91.1409 358.00
91.4452 348.00
91.7495 367.00
92.0537 367.00
92.358 340.00
92.6622 378.00
92.9665 350.00
93.2708 384.00
93.575 394.00
93.8793 355.00
94.1835 366.00
94.4878 372.00
94.7921 427.00
95.0963 569.00
95.4006 475.00
95.7048 354.00
96.0091 334.00
96.3134 450.00
96.6176 384.00
96.9219 349.00
97.2261 331.00
97.5304 370.00
97.8347 375.00
98.1389 398.00
98.4432 361.00
98.7474 386.00
99.0517 328.00
99.356 498.00
99.6602 401.00
99.9645 329.00
100.095 315.00