File: data/xrd_creation/results/Na_71.xy
9.903433 2674.00
10.2077 2481.00
10.512 2259.00
10.8162 2276.00
11.1205 2256.00
11.4247 2070.00
11.729 1914.00
12.0333 1887.00
12.3375 1768.00
12.6418 1768.00
12.946 1657.00
13.2503 1605.00
13.5546 1587.00
13.8588 1565.00
14.1631 1479.00
14.4673 1378.00
14.7716 1435.00
15.0759 1289.00
15.3801 1338.00
15.6844 1308.00
15.9886 1293.00
16.2929 1275.00
16.5972 1223.00
16.9014 1180.00
17.2057 1240.00
17.5099 1124.00
17.8142 1096.00
18.1185 1085.00
18.4227 1122.00
18.727 1095.00
19.0312 1066.00
19.3355 1021.00
19.6398 981.00
19.944 1014.00
20.2483 958.00
20.5525 945.00
20.8568 917.00
21.1611 975.00
21.4653 851.00
21.7696 871.00
22.0738 851.00
22.3781 796.00
22.6824 853.00
22.9866 793.00
23.2909 803.00
23.5951 777.00
23.8994 736.00
24.2037 748.00
24.5079 767.00
24.8122 673.00
25.1164 850.00
25.4207 687.00
25.725 768.00
26.0292 717.00
26.3335 832.00
26.6378 722.00
26.942 663.00
27.2463 642.00
27.5505 684.00
27.8548 646.00
28.1591 707.00
28.4633 621.00
28.7676 690.00
29.0718 628.00
29.3761 634.00
29.6804 652.00
29.9846 679.00
30.2889 600.00
30.5931 590.00
30.8974 530.00
31.2017 597.00
31.5059 519.00
31.8102 569.00
32.1144 556.00
32.4187 508.00
32.723 579.00
33.0272 538.00
33.3315 562.00
33.6357 580.00
33.94 503.00
34.2443 453.00
34.5485 450.00
34.8528 474.00
35.157 521.00
35.4613 482.00
35.7656 472.00
36.0698 443.00
36.3741 452.00
36.6783 396.00
36.9826 402.00
37.2869 435.00
37.5911 461.00
37.8954 405.00
38.1996 418.00
38.5039 394.00
38.8082 397.00
39.1124 393.00
39.4167 381.00
39.7209 396.00
40.0252 371.00
40.3295 322.00
40.6337 383.00
40.938 331.00
41.2422 372.00
41.5465 356.00
41.8508 356.00
42.155 362.00
42.4593 374.00
42.7635 404.00
43.0678 348.00
43.3721 381.00
43.6763 364.00
43.9806 354.00
44.2849 323.00
44.5891 349.00
44.8934 330.00
45.1976 336.00
45.5019 326.00
45.8062 314.00
46.1104 328.00
46.4147 328.00
46.7189 283.00
47.0232 309.00
47.3275 304.00
47.6317 298.00
47.936 323.00
48.2402 327.00
48.5445 302.00
48.8488 315.00
49.153 311.00
49.4573 275.00
49.7615 272.00
50.0658 298.00
50.3701 327.00
50.6743 291.00
50.9786 278.00
51.2828 337.00
51.5871 327.00
51.8914 286.00
52.1956 281.00
52.4999 296.00
52.8041 286.00
53.1084 247.00
53.4127 302.00
53.7169 260.00
54.0212 270.00
54.3254 269.00
54.6297 268.00
54.934 245.00
55.2382 277.00
55.5425 245.00
55.8467 294.00
56.151 249.00
56.4553 242.00
56.7595 246.00
57.0638 269.00
57.368 234.00
57.6723 256.00
57.9766 226.00
58.2808 237.00
58.5851 241.00
58.8893 225.00
59.1936 212.00
59.4979 229.00
59.8021 221.00
60.1064 202.00
60.4106 212.00
60.7149 217.00
61.0192 208.00
61.3234 225.00
61.6277 248.00
61.932 226.00
62.2362 221.00
62.5405 206.00
62.8447 234.00
63.149 214.00
63.4533 222.00
63.7575 209.00
64.0618 220.00
64.366 221.00
64.6703 216.00
64.9745 196.00
65.2788 200.00
65.5831 205.00
65.8873 202.00
66.1916 196.00
66.4959 203.00
66.8001 203.00
67.1044 180.00
67.4086 224.00
67.7129 214.00
68.0172 206.00
68.3214 177.00
68.6257 200.00
68.9299 183.00
69.2342 197.00
69.5385 201.00
69.8427 195.00
70.147 217.00
70.4512 197.00
70.7555 204.00
71.0598 207.00
71.364 213.00
71.6683 212.00
71.9725 198.00
72.2768 189.00
72.5811 183.00
72.8853 185.00
73.1896 180.00
73.4938 197.00
73.7981 223.00
74.1024 207.00
74.4066 204.00
74.7109 226.00
75.0151 213.00
75.3194 208.00
75.6237 214.00
75.9279 192.00
76.2322 271.00
76.5364 209.00
76.8407 228.00
77.145 219.00
77.4492 248.00
77.7535 217.00
78.0577 219.00
78.362 245.00
78.6663 217.00
78.9705 246.00
79.2748 269.00
79.579 223.00
79.8833 245.00
80.1876 217.00
80.4918 256.00
80.7961 239.00
81.1003 246.00
81.4046 261.00
81.7089 269.00
82.0131 240.00
82.3174 264.00
82.6217 230.00
82.9259 229.00
83.2302 217.00
83.5344 192.00
83.8387 189.00
84.143 202.00
84.4472 218.00
84.7515 234.00
85.0557 180.00
85.36 199.00
85.6643 229.00
85.9685 188.00
86.2728 201.00
86.577 205.00
86.8813 201.00
87.1856 210.00
87.4898 169.00
87.7941 229.00
88.0983 202.00
88.4026 208.00
88.7069 178.00
89.0111 172.00
89.3154 196.00
89.6196 181.00
89.9239 194.00
90.2282 188.00
90.5324 188.00
90.8367 194.00
91.1409 210.00
91.4452 185.00
91.7495 195.00
92.0537 193.00
92.358 189.00
92.6622 198.00
92.9665 157.00
93.2708 199.00
93.575 177.00
93.8793 211.00
94.1835 195.00
94.4878 153.00
94.7921 179.00
95.0963 201.00
95.4006 176.00
95.7048 156.00
96.0091 194.00
96.3134 189.00
96.6176 186.00
96.9219 205.00
97.2261 172.00
97.5304 236.00
97.8347 188.00
98.1389 196.00
98.4432 178.00
98.7474 190.00
99.0517 175.00
99.356 180.00
99.6602 204.00
99.9645 183.00
100.095 172.00