File: data/xrd_creation/results/Na_76.xy
9.903433 2841.00
10.2077 2791.00
10.512 2588.00
10.8162 2581.00
11.1205 2565.00
11.4247 2399.00
11.729 2959.00
12.0333 2230.00
12.3375 2220.00
12.6418 2168.00
12.946 2080.00
13.2503 2003.00
13.5546 1971.00
13.8588 1875.00
14.1631 1862.00
14.4673 1934.00
14.7716 1878.00
15.0759 1857.00
15.3801 1716.00
15.6844 1680.00
15.9886 1798.00
16.2929 1763.00
16.5972 1660.00
16.9014 1708.00
17.2057 1579.00
17.5099 1888.00
17.8142 3747.00
18.1185 1602.00
18.4227 1619.00
18.727 1844.00
19.0312 1593.00
19.3355 1645.00
19.6398 1386.00
19.944 1413.00
20.2483 1832.00
20.5525 1534.00
20.8568 1336.00
21.1611 1648.00
21.4653 1558.00
21.7696 1412.00
22.0738 1275.00
22.3781 1448.00
22.6824 5128.00
22.9866 1549.00
23.2909 3862.00
23.5951 2356.00
23.8994 1141.00
24.2037 1112.00
24.5079 1142.00
24.8122 1128.00
25.1164 1112.00
25.4207 3905.00
25.725 2596.00
26.0292 1367.00
26.3335 1238.00
26.6378 1147.00
26.942 2224.00
27.2463 1070.00
27.5505 974.00
27.8548 961.00
28.1591 1494.00
28.4633 1068.00
28.7676 960.00
29.0718 1539.00
29.3761 1405.00
29.6804 2860.00
29.9846 1184.00
30.2889 919.00
30.5931 858.00
30.8974 1054.00
31.2017 1866.00
31.5059 1594.00
31.8102 4818.00
32.1144 1693.00
32.4187 3765.00
32.723 3100.00
33.0272 2282.00
33.3315 2502.00
33.6357 1773.00
33.94 1125.00
34.2443 2157.00
34.5485 1622.00
34.8528 1211.00
35.157 1117.00
35.4613 925.00
35.7656 1102.00
36.0698 826.00
36.3741 1407.00
36.6783 762.00
36.9826 807.00
37.2869 776.00
37.5911 1605.00
37.8954 679.00
38.1996 631.00
38.5039 657.00
38.8082 711.00
39.1124 657.00
39.4167 919.00
39.7209 829.00
40.0252 643.00
40.3295 1028.00
40.6337 576.00
40.938 1127.00
41.2422 1228.00
41.5465 690.00
41.8508 1386.00
42.155 720.00
42.4593 821.00
42.7635 659.00
43.0678 629.00
43.3721 897.00
43.6763 1329.00
43.9806 1614.00
44.2849 782.00
44.5891 557.00
44.8934 544.00
45.1976 536.00
45.5019 764.00
45.8062 944.00
46.1104 1291.00
46.4147 761.00
46.7189 730.00
47.0232 1183.00
47.3275 1817.00
47.6317 1741.00
47.936 1291.00
48.2402 727.00
48.5445 658.00
48.8488 623.00
49.153 561.00
49.4573 562.00
49.7615 628.00
50.0658 695.00
50.3701 602.00
50.6743 520.00
50.9786 754.00
51.2828 620.00
51.5871 607.00
51.8914 754.00
52.1956 700.00
52.4999 826.00
52.8041 1388.00
53.1084 741.00
53.4127 978.00
53.7169 747.00
54.0212 740.00
54.3254 657.00
54.6297 856.00
54.934 899.00
55.2382 553.00
55.5425 416.00
55.8467 450.00
56.151 570.00
56.4553 726.00
56.7595 696.00
57.0638 880.00
57.368 1058.00
57.6723 857.00
57.9766 791.00
58.2808 464.00
58.5851 536.00
58.8893 700.00
59.1936 539.00
59.4979 565.00
59.8021 941.00
60.1064 675.00
60.4106 496.00
60.7149 770.00
61.0192 760.00
61.3234 536.00
61.6277 470.00
61.932 435.00
62.2362 445.00
62.5405 487.00
62.8447 501.00
63.149 610.00
63.4533 614.00
63.7575 651.00
64.0618 536.00
64.366 607.00
64.6703 595.00
64.9745 583.00
65.2788 446.00
65.5831 607.00
65.8873 607.00
66.1916 696.00
66.4959 658.00
66.8001 536.00
67.1044 451.00
67.4086 434.00
67.7129 726.00
68.0172 560.00
68.3214 391.00
68.6257 337.00
68.9299 371.00
69.2342 667.00
69.5385 567.00
69.8427 418.00
70.147 411.00
70.4512 497.00
70.7555 538.00
71.0598 435.00
71.364 379.00
71.6683 474.00
71.9725 767.00
72.2768 530.00
72.5811 476.00
72.8853 547.00
73.1896 418.00
73.4938 402.00
73.7981 352.00
74.1024 368.00
74.4066 341.00
74.7109 326.00
75.0151 392.00
75.3194 419.00
75.6237 388.00
75.9279 359.00
76.2322 515.00
76.5364 399.00
76.8407 400.00
77.145 483.00
77.4492 382.00
77.7535 428.00
78.0577 482.00
78.362 415.00
78.6663 363.00
78.9705 324.00
79.2748 402.00
79.579 470.00
79.8833 394.00
80.1876 406.00
80.4918 478.00
80.7961 482.00
81.1003 451.00
81.4046 536.00
81.7089 452.00
82.0131 344.00
82.3174 397.00
82.6217 361.00
82.9259 316.00
83.2302 372.00
83.5344 411.00
83.8387 346.00
84.143 395.00
84.4472 355.00
84.7515 406.00
85.0557 379.00
85.36 399.00
85.6643 367.00
85.9685 436.00
86.2728 458.00
86.577 411.00
86.8813 436.00
87.1856 385.00
87.4898 414.00
87.7941 372.00
88.0983 372.00
88.4026 463.00
88.7069 448.00
89.0111 399.00
89.3154 389.00
89.6196 316.00
89.9239 339.00
90.2282 328.00
90.5324 364.00
90.8367 380.00
91.1409 338.00
91.4452 382.00
91.7495 376.00
92.0537 358.00
92.358 385.00
92.6622 387.00
92.9665 379.00
93.2708 397.00
93.575 343.00
93.8793 367.00
94.1835 389.00
94.4878 300.00
94.7921 386.00
95.0963 367.00
95.4006 471.00
95.7048 486.00
96.0091 408.00
96.3134 387.00
96.6176 378.00
96.9219 338.00
97.2261 383.00
97.5304 291.00
97.8347 286.00
98.1389 320.00
98.4432 283.00
98.7474 318.00
99.0517 318.00
99.356 346.00
99.6602 344.00
99.9645 366.00
100.095 361.00