File: data/xrd_creation/results/Na_75.xy
9.903433 2565.00
10.2077 2497.00
10.512 2330.00
10.8162 2233.00
11.1205 2204.00
11.4247 2057.00
11.729 2008.00
12.0333 1897.00
12.3375 1869.00
12.6418 1684.00
12.946 1644.00
13.2503 1655.00
13.5546 1566.00
13.8588 1585.00
14.1631 1460.00
14.4673 1491.00
14.7716 1429.00
15.0759 1405.00
15.3801 1312.00
15.6844 1303.00
15.9886 1269.00
16.2929 1235.00
16.5972 1189.00
16.9014 1195.00
17.2057 1264.00
17.5099 1201.00
17.8142 1150.00
18.1185 1067.00
18.4227 1063.00
18.727 1059.00
19.0312 1000.00
19.3355 1015.00
19.6398 1001.00
19.944 1037.00
20.2483 992.00
20.5525 972.00
20.8568 940.00
21.1611 937.00
21.4653 882.00
21.7696 863.00
22.0738 845.00
22.3781 886.00
22.6824 840.00
22.9866 896.00
23.2909 846.00
23.5951 773.00
23.8994 790.00
24.2037 731.00
24.5079 780.00
24.8122 747.00
25.1164 924.00
25.4207 866.00
25.725 758.00
26.0292 654.00
26.3335 747.00
26.6378 734.00
26.942 659.00
27.2463 667.00
27.5505 678.00
27.8548 584.00
28.1591 642.00
28.4633 666.00
28.7676 633.00
29.0718 626.00
29.3761 728.00
29.6804 588.00
29.9846 545.00
30.2889 576.00
30.5931 559.00
30.8974 566.00
31.2017 569.00
31.5059 789.00
31.8102 547.00
32.1144 692.00
32.4187 551.00
32.723 669.00
33.0272 598.00
33.3315 538.00
33.6357 523.00
33.94 587.00
34.2443 482.00
34.5485 505.00
34.8528 503.00
35.157 433.00
35.4613 440.00
35.7656 467.00
36.0698 455.00
36.3741 415.00
36.6783 428.00
36.9826 427.00
37.2869 457.00
37.5911 428.00
37.8954 419.00
38.1996 343.00
38.5039 376.00
38.8082 361.00
39.1124 370.00
39.4167 362.00
39.7209 407.00
40.0252 374.00
40.3295 366.00
40.6337 405.00
40.938 386.00
41.2422 373.00
41.5465 381.00
41.8508 346.00
42.155 366.00
42.4593 355.00
42.7635 336.00
43.0678 354.00
43.3721 396.00
43.6763 335.00
43.9806 306.00
44.2849 370.00
44.5891 333.00
44.8934 329.00
45.1976 297.00
45.5019 372.00
45.8062 336.00
46.1104 328.00
46.4147 332.00
46.7189 296.00
47.0232 319.00
47.3275 371.00
47.6317 313.00
47.936 314.00
48.2402 240.00
48.5445 321.00
48.8488 293.00
49.153 282.00
49.4573 314.00
49.7615 276.00
50.0658 280.00
50.3701 301.00
50.6743 293.00
50.9786 290.00
51.2828 298.00
51.5871 310.00
51.8914 249.00
52.1956 283.00
52.4999 295.00
52.8041 287.00
53.1084 261.00
53.4127 281.00
53.7169 292.00
54.0212 267.00
54.3254 264.00
54.6297 242.00
54.934 282.00
55.2382 233.00
55.5425 277.00
55.8467 267.00
56.151 249.00
56.4553 237.00
56.7595 258.00
57.0638 263.00
57.368 273.00
57.6723 220.00
57.9766 220.00
58.2808 229.00
58.5851 245.00
58.8893 223.00
59.1936 256.00
59.4979 224.00
59.8021 226.00
60.1064 207.00
60.4106 225.00
60.7149 232.00
61.0192 206.00
61.3234 205.00
61.6277 257.00
61.932 228.00
62.2362 211.00
62.5405 221.00
62.8447 244.00
63.149 229.00
63.4533 228.00
63.7575 225.00
64.0618 187.00
64.366 228.00
64.6703 205.00
64.9745 216.00
65.2788 223.00
65.5831 182.00
65.8873 209.00
66.1916 203.00
66.4959 210.00
66.8001 174.00
67.1044 196.00
67.4086 201.00
67.7129 201.00
68.0172 176.00
68.3214 228.00
68.6257 210.00
68.9299 226.00
69.2342 210.00
69.5385 202.00
69.8427 210.00
70.147 203.00
70.4512 200.00
70.7555 205.00
71.0598 171.00
71.364 203.00
71.6683 206.00
71.9725 189.00
72.2768 183.00
72.5811 197.00
72.8853 226.00
73.1896 218.00
73.4938 215.00
73.7981 208.00
74.1024 201.00
74.4066 216.00
74.7109 161.00
75.0151 224.00
75.3194 195.00
75.6237 203.00
75.9279 205.00
76.2322 212.00
76.5364 230.00
76.8407 241.00
77.145 226.00
77.4492 214.00
77.7535 243.00
78.0577 204.00
78.362 227.00
78.6663 204.00
78.9705 226.00
79.2748 214.00
79.579 241.00
79.8833 223.00
80.1876 249.00
80.4918 243.00
80.7961 262.00
81.1003 224.00
81.4046 205.00
81.7089 218.00
82.0131 221.00
82.3174 267.00
82.6217 260.00
82.9259 245.00
83.2302 232.00
83.5344 268.00
83.8387 203.00
84.143 201.00
84.4472 240.00
84.7515 217.00
85.0557 201.00
85.36 201.00
85.6643 215.00
85.9685 204.00
86.2728 203.00
86.577 195.00
86.8813 201.00
87.1856 221.00
87.4898 198.00
87.7941 229.00
88.0983 212.00
88.4026 194.00
88.7069 192.00
89.0111 221.00
89.3154 192.00
89.6196 192.00
89.9239 195.00
90.2282 182.00
90.5324 199.00
90.8367 188.00
91.1409 199.00
91.4452 197.00
91.7495 185.00
92.0537 172.00
92.358 207.00
92.6622 189.00
92.9665 180.00
93.2708 200.00
93.575 173.00
93.8793 165.00
94.1835 191.00
94.4878 200.00
94.7921 204.00
95.0963 174.00
95.4006 181.00
95.7048 175.00
96.0091 193.00
96.3134 200.00
96.6176 197.00
96.9219 182.00
97.2261 188.00
97.5304 222.00
97.8347 197.00
98.1389 181.00
98.4432 174.00
98.7474 231.00
99.0517 183.00
99.356 184.00
99.6602 193.00
99.9645 192.00
100.095 173.00