File: data/xrd_creation/results/Na_77.xy
9.903433 2851.00
10.2077 2799.00
10.512 2713.00
10.8162 2675.00
11.1205 2462.00
11.4247 2515.00
11.729 2461.00
12.0333 2312.00
12.3375 2264.00
12.6418 2243.00
12.946 2198.00
13.2503 2038.00
13.5546 2016.00
13.8588 2150.00
14.1631 2091.00
14.4673 1965.00
14.7716 1987.00
15.0759 1914.00
15.3801 1943.00
15.6844 1887.00
15.9886 1744.00
16.2929 1799.00
16.5972 1742.00
16.9014 1701.00
17.2057 1676.00
17.5099 1680.00
17.8142 1676.00
18.1185 1628.00
18.4227 1646.00
18.727 1487.00
19.0312 1641.00
19.3355 2039.00
19.6398 1529.00
19.944 1605.00
20.2483 3553.00
20.5525 2738.00
20.8568 1526.00
21.1611 1492.00
21.4653 1417.00
21.7696 1477.00
22.0738 1404.00
22.3781 1407.00
22.6824 1281.00
22.9866 1339.00
23.2909 1600.00
23.5951 1340.00
23.8994 1257.00
24.2037 1288.00
24.5079 1168.00
24.8122 1303.00
25.1164 1117.00
25.4207 1083.00
25.725 1125.00
26.0292 1290.00
26.3335 1626.00
26.6378 3935.00
26.942 22271.00
27.2463 2449.00
27.5505 1524.00
27.8548 1307.00
28.1591 1183.00
28.4633 1377.00
28.7676 1157.00
29.0718 1063.00
29.3761 1020.00
29.6804 1049.00
29.9846 1059.00
30.2889 981.00
30.5931 1101.00
30.8974 1045.00
31.2017 929.00
31.5059 1077.00
31.8102 1019.00
32.1144 993.00
32.4187 1194.00
32.723 1144.00
33.0272 4670.00
33.3315 2724.00
33.6357 2826.00
33.94 2908.00
34.2443 16154.00
34.5485 2073.00
34.8528 1438.00
35.157 1028.00
35.4613 1017.00
35.7656 883.00
36.0698 961.00
36.3741 866.00
36.6783 952.00
36.9826 970.00
37.2869 1096.00
37.5911 1097.00
37.8954 984.00
38.1996 3551.00
38.5039 1749.00
38.8082 2255.00
39.1124 1163.00
39.4167 1371.00
39.7209 848.00
40.0252 704.00
40.3295 790.00
40.6337 741.00
40.938 690.00
41.2422 619.00
41.5465 662.00
41.8508 690.00
42.155 605.00
42.4593 757.00
42.7635 722.00
43.0678 890.00
43.3721 707.00
43.6763 749.00
43.9806 1107.00
44.2849 753.00
44.5891 641.00
44.8934 721.00
45.1976 825.00
45.5019 636.00
45.8062 604.00
46.1104 653.00
46.4147 562.00
46.7189 614.00
47.0232 616.00
47.3275 705.00
47.6317 1444.00
47.936 729.00
48.2402 684.00
48.5445 584.00
48.8488 584.00
49.153 613.00
49.4573 519.00
49.7615 517.00
50.0658 510.00
50.3701 514.00
50.6743 642.00
50.9786 606.00
51.2828 684.00
51.5871 937.00
51.8914 2817.00
52.1956 9503.00
52.4999 1739.00
52.8041 828.00
53.1084 609.00
53.4127 627.00
53.7169 616.00
54.0212 623.00
54.3254 605.00
54.6297 770.00
54.934 1552.00
55.2382 2105.00
55.5425 742.00
55.8467 590.00
56.151 667.00
56.4553 515.00
56.7595 565.00
57.0638 600.00
57.368 616.00
57.6723 670.00
57.9766 921.00
58.2808 1359.00
58.5851 607.00
58.8893 596.00
59.1936 861.00
59.4979 1222.00
59.8021 700.00
60.1064 650.00
60.4106 527.00
60.7149 500.00
61.0192 504.00
61.3234 501.00
61.6277 513.00
61.932 814.00
62.2362 2226.00
62.5405 942.00
62.8447 618.00
63.149 809.00
63.4533 606.00
63.7575 538.00
64.0618 507.00
64.366 498.00
64.6703 630.00
64.9745 2455.00
65.2788 1458.00
65.5831 1123.00
65.8873 886.00
66.1916 2630.00
66.4959 1826.00
66.8001 614.00
67.1044 466.00
67.4086 454.00
67.7129 482.00
68.0172 408.00
68.3214 384.00
68.6257 391.00
68.9299 407.00
69.2342 380.00
69.5385 383.00
69.8427 694.00
70.147 580.00
70.4512 490.00
70.7555 381.00
71.0598 450.00
71.364 653.00
71.6683 1143.00
71.9725 545.00
72.2768 433.00
72.5811 407.00
72.8853 438.00
73.1896 441.00
73.4938 431.00
73.7981 400.00
74.1024 349.00
74.4066 383.00
74.7109 486.00
75.0151 416.00
75.3194 358.00
75.6237 451.00
75.9279 416.00
76.2322 411.00
76.5364 378.00
76.8407 413.00
77.145 372.00
77.4492 391.00
77.7535 358.00
78.0577 368.00
78.362 390.00
78.6663 594.00
78.9705 1913.00
79.2748 1275.00
79.579 588.00
79.8833 377.00
80.1876 383.00
80.4918 384.00
80.7961 407.00
81.1003 426.00
81.4046 759.00
81.7089 589.00
82.0131 419.00
82.3174 413.00
82.6217 424.00
82.9259 432.00
83.2302 424.00
83.5344 410.00
83.8387 810.00
84.143 1173.00
84.4472 633.00
84.7515 478.00
85.0557 503.00
85.36 405.00
85.6643 379.00
85.9685 369.00
86.2728 341.00
86.577 343.00
86.8813 426.00
87.1856 464.00
87.4898 835.00
87.7941 662.00
88.0983 419.00
88.4026 392.00
88.7069 394.00
89.0111 371.00
89.3154 383.00
89.6196 462.00
89.9239 1121.00
90.2282 1183.00
90.5324 718.00
90.8367 587.00
91.1409 1529.00
91.4452 1098.00
91.7495 582.00
92.0537 482.00
92.358 430.00
92.6622 373.00
92.9665 416.00
93.2708 466.00
93.575 851.00
93.8793 637.00
94.1835 420.00
94.4878 381.00
94.7921 371.00
95.0963 332.00
95.4006 424.00
95.7048 411.00
96.0091 545.00
96.3134 710.00
96.6176 652.00
96.9219 381.00
97.2261 373.00
97.5304 348.00
97.8347 375.00
98.1389 372.00
98.4432 437.00
98.7474 391.00
99.0517 403.00
99.356 415.00
99.6602 369.00
99.9645 352.00
100.095 356.00