File: data/xrd_creation/results/Na_74.xy
9.903433 2884.00
10.2077 2795.00
10.512 2690.00
10.8162 2689.00
11.1205 2456.00
11.4247 2476.00
11.729 2917.00
12.0333 2181.00
12.3375 2147.00
12.6418 2189.00
12.946 2155.00
13.2503 2027.00
13.5546 1988.00
13.8588 1983.00
14.1631 1887.00
14.4673 1934.00
14.7716 1808.00
15.0759 1782.00
15.3801 1702.00
15.6844 1716.00
15.9886 1836.00
16.2929 1777.00
16.5972 1625.00
16.9014 1645.00
17.2057 1791.00
17.5099 1967.00
17.8142 3776.00
18.1185 1541.00
18.4227 1619.00
18.727 1884.00
19.0312 1599.00
19.3355 1785.00
19.6398 1407.00
19.944 1423.00
20.2483 2798.00
20.5525 1610.00
20.8568 1370.00
21.1611 1600.00
21.4653 1514.00
21.7696 1380.00
22.0738 1283.00
22.3781 1412.00
22.6824 4876.00
22.9866 1452.00
23.2909 3563.00
23.5951 2550.00
23.8994 1196.00
24.2037 1118.00
24.5079 1117.00
24.8122 1114.00
25.1164 1124.00
25.4207 3662.00
25.725 2549.00
26.0292 1511.00
26.3335 1283.00
26.6378 1335.00
26.942 2056.00
27.2463 1263.00
27.5505 1140.00
27.8548 927.00
28.1591 1454.00
28.4633 979.00
28.7676 943.00
29.0718 1579.00
29.3761 1493.00
29.6804 2688.00
29.9846 1044.00
30.2889 1044.00
30.5931 874.00
30.8974 1072.00
31.2017 2031.00
31.5059 1511.00
31.8102 4455.00
32.1144 1940.00
32.4187 3747.00
32.723 3404.00
33.0272 2581.00
33.3315 3771.00
33.6357 1734.00
33.94 1373.00
34.2443 2067.00
34.5485 1830.00
34.8528 1348.00
35.157 1064.00
35.4613 994.00
35.7656 1077.00
36.0698 901.00
36.3741 1412.00
36.6783 803.00
36.9826 715.00
37.2869 784.00
37.5911 1634.00
37.8954 623.00
38.1996 602.00
38.5039 690.00
38.8082 882.00
39.1124 687.00
39.4167 805.00
39.7209 789.00
40.0252 666.00
40.3295 1074.00
40.6337 597.00
40.938 1003.00
41.2422 1246.00
41.5465 758.00
41.8508 1432.00
42.155 715.00
42.4593 878.00
42.7635 754.00
43.0678 669.00
43.3721 884.00
43.6763 1418.00
43.9806 1651.00
44.2849 767.00
44.5891 627.00
44.8934 639.00
45.1976 644.00
45.5019 785.00
45.8062 941.00
46.1104 1245.00
46.4147 775.00
46.7189 666.00
47.0232 1291.00
47.3275 1818.00
47.6317 1776.00
47.936 1484.00
48.2402 689.00
48.5445 624.00
48.8488 612.00
49.153 551.00
49.4573 603.00
49.7615 594.00
50.0658 671.00
50.3701 518.00
50.6743 478.00
50.9786 772.00
51.2828 614.00
51.5871 581.00
51.8914 879.00
52.1956 726.00
52.4999 884.00
52.8041 1390.00
53.1084 792.00
53.4127 1021.00
53.7169 803.00
54.0212 759.00
54.3254 628.00
54.6297 856.00
54.934 902.00
55.2382 636.00
55.5425 456.00
55.8467 489.00
56.151 629.00
56.4553 745.00
56.7595 804.00
57.0638 888.00
57.368 1098.00
57.6723 803.00
57.9766 799.00
58.2808 497.00
58.5851 521.00
58.8893 749.00
59.1936 642.00
59.4979 630.00
59.8021 961.00
60.1064 706.00
60.4106 536.00
60.7149 799.00
61.0192 693.00
61.3234 558.00
61.6277 428.00
61.932 390.00
62.2362 457.00
62.5405 495.00
62.8447 517.00
63.149 630.00
63.4533 665.00
63.7575 671.00
64.0618 561.00
64.366 634.00
64.6703 621.00
64.9745 620.00
65.2788 443.00
65.5831 548.00
65.8873 662.00
66.1916 694.00
66.4959 669.00
66.8001 532.00
67.1044 483.00
67.4086 463.00
67.7129 713.00
68.0172 604.00
68.3214 426.00
68.6257 345.00
68.9299 364.00
69.2342 630.00
69.5385 580.00
69.8427 458.00
70.147 407.00
70.4512 491.00
70.7555 613.00
71.0598 458.00
71.364 393.00
71.6683 475.00
71.9725 748.00
72.2768 496.00
72.5811 442.00
72.8853 566.00
73.1896 523.00
73.4938 405.00
73.7981 381.00
74.1024 384.00
74.4066 428.00
74.7109 393.00
75.0151 407.00
75.3194 431.00
75.6237 428.00
75.9279 368.00
76.2322 515.00
76.5364 449.00
76.8407 355.00
77.145 432.00
77.4492 368.00
77.7535 427.00
78.0577 493.00
78.362 442.00
78.6663 357.00
78.9705 377.00
79.2748 407.00
79.579 470.00
79.8833 391.00
80.1876 421.00
80.4918 503.00
80.7961 485.00
81.1003 511.00
81.4046 532.00
81.7089 392.00
82.0131 357.00
82.3174 382.00
82.6217 356.00
82.9259 286.00
83.2302 340.00
83.5344 443.00
83.8387 374.00
84.143 389.00
84.4472 400.00
84.7515 353.00
85.0557 391.00
85.36 409.00
85.6643 342.00
85.9685 422.00
86.2728 465.00
86.577 355.00
86.8813 462.00
87.1856 362.00
87.4898 397.00
87.7941 355.00
88.0983 406.00
88.4026 459.00
88.7069 414.00
89.0111 401.00
89.3154 352.00
89.6196 342.00
89.9239 337.00
90.2282 348.00
90.5324 441.00
90.8367 380.00
91.1409 308.00
91.4452 376.00
91.7495 419.00
92.0537 435.00
92.358 359.00
92.6622 426.00
92.9665 381.00
93.2708 350.00
93.575 362.00
93.8793 377.00
94.1835 371.00
94.4878 327.00
94.7921 388.00
95.0963 379.00
95.4006 457.00
95.7048 487.00
96.0091 435.00
96.3134 369.00
96.6176 321.00
96.9219 348.00
97.2261 355.00
97.5304 319.00
97.8347 309.00
98.1389 326.00
98.4432 305.00
98.7474 372.00
99.0517 329.00
99.356 328.00
99.6602 332.00
99.9645 415.00
100.095 384.00