File: data/xrd_creation/results/Na_70.xy
9.903433 3000.00
10.2077 2770.00
10.512 2765.00
10.8162 2700.00
11.1205 2643.00
11.4247 2431.00
11.729 2423.00
12.0333 2340.00
12.3375 2290.00
12.6418 2202.00
12.946 2160.00
13.2503 2208.00
13.5546 2136.00
13.8588 2037.00
14.1631 2014.00
14.4673 1925.00
14.7716 1858.00
15.0759 1953.00
15.3801 1855.00
15.6844 1854.00
15.9886 1759.00
16.2929 1793.00
16.5972 1812.00
16.9014 1769.00
17.2057 1792.00
17.5099 1688.00
17.8142 1732.00
18.1185 1595.00
18.4227 1555.00
18.727 1607.00
19.0312 1695.00
19.3355 1825.00
19.6398 1945.00
19.944 2062.00
20.2483 3419.00
20.5525 2454.00
20.8568 1770.00
21.1611 1974.00
21.4653 2433.00
21.7696 2211.00
22.0738 1665.00
22.3781 1634.00
22.6824 1519.00
22.9866 1494.00
23.2909 2203.00
23.5951 1489.00
23.8994 1486.00
24.2037 1456.00
24.5079 1394.00
24.8122 1366.00
25.1164 1407.00
25.4207 1323.00
25.725 1427.00
26.0292 1468.00
26.3335 1459.00
26.6378 1808.00
26.942 1863.00
27.2463 1720.00
27.5505 1484.00
27.8548 1396.00
28.1591 1582.00
28.4633 1447.00
28.7676 1423.00
29.0718 1523.00
29.3761 1782.00
29.6804 9611.00
29.9846 1890.00
30.2889 1727.00
30.5931 1956.00
30.8974 1871.00
31.2017 1568.00
31.5059 1563.00
31.8102 1651.00
32.1144 1590.00
32.4187 1672.00
32.723 2133.00
33.0272 2535.00
33.3315 4955.00
33.6357 2002.00
33.94 1800.00
34.2443 1365.00
34.5485 1307.00
34.8528 1186.00
35.157 1219.00
35.4613 1182.00
35.7656 1506.00
36.0698 1258.00
36.3741 1294.00
36.6783 1034.00
36.9826 1129.00
37.2869 1044.00
37.5911 1059.00
37.8954 972.00
38.1996 970.00
38.5039 1100.00
38.8082 1181.00
39.1124 1081.00
39.4167 1054.00
39.7209 1938.00
40.0252 836.00
40.3295 836.00
40.6337 791.00
40.938 798.00
41.2422 1012.00
41.5465 839.00
41.8508 878.00
42.155 850.00
42.4593 877.00
42.7635 864.00
43.0678 983.00
43.3721 1853.00
43.6763 1114.00
43.9806 962.00
44.2849 917.00
44.5891 889.00
44.8934 936.00
45.1976 953.00
45.5019 940.00
45.8062 946.00
46.1104 978.00
46.4147 891.00
46.7189 851.00
47.0232 887.00
47.3275 1410.00
47.6317 1524.00
47.936 1239.00
48.2402 853.00
48.5445 923.00
48.8488 1499.00
49.153 735.00
49.4573 693.00
49.7615 659.00
50.0658 716.00
50.3701 685.00
50.6743 615.00
50.9786 623.00
51.2828 684.00
51.5871 666.00
51.8914 743.00
52.1956 806.00
52.4999 776.00
52.8041 722.00
53.1084 698.00
53.4127 743.00
53.7169 634.00
54.0212 657.00
54.3254 636.00
54.6297 607.00
54.934 743.00
55.2382 680.00
55.5425 615.00
55.8467 655.00
56.151 656.00
56.4553 647.00
56.7595 811.00
57.0638 707.00
57.368 620.00
57.6723 1182.00
57.9766 694.00
58.2808 731.00
58.5851 654.00
58.8893 638.00
59.1936 894.00
59.4979 844.00
59.8021 826.00
60.1064 667.00
60.4106 660.00
60.7149 652.00
61.0192 871.00
61.3234 697.00
61.6277 701.00
61.932 671.00
62.2362 594.00
62.5405 590.00
62.8447 584.00
63.149 661.00
63.4533 648.00
63.7575 558.00
64.0618 529.00
64.366 512.00
64.6703 531.00
64.9745 707.00
65.2788 588.00
65.5831 665.00
65.8873 704.00
66.1916 559.00
66.4959 558.00
66.8001 582.00
67.1044 524.00
67.4086 508.00
67.7129 527.00
68.0172 496.00
68.3214 478.00
68.6257 478.00
68.9299 453.00
69.2342 458.00
69.5385 568.00
69.8427 581.00
70.147 503.00
70.4512 592.00
70.7555 465.00
71.0598 498.00
71.364 430.00
71.6683 461.00
71.9725 425.00
72.2768 446.00
72.5811 427.00
72.8853 501.00
73.1896 521.00
73.4938 417.00
73.7981 394.00
74.1024 417.00
74.4066 383.00
74.7109 420.00
75.0151 413.00
75.3194 402.00
75.6237 369.00
75.9279 394.00
76.2322 424.00
76.5364 461.00
76.8407 442.00
77.145 410.00
77.4492 459.00
77.7535 388.00
78.0577 356.00
78.362 423.00
78.6663 369.00
78.9705 373.00
79.2748 444.00
79.579 386.00
79.8833 377.00
80.1876 390.00
80.4918 403.00
80.7961 381.00
81.1003 393.00
81.4046 420.00
81.7089 539.00
82.0131 458.00
82.3174 415.00
82.6217 376.00
82.9259 404.00
83.2302 439.00
83.5344 416.00
83.8387 520.00
84.143 504.00
84.4472 404.00
84.7515 420.00
85.0557 465.00
85.36 394.00
85.6643 359.00
85.9685 372.00
86.2728 397.00
86.577 418.00
86.8813 407.00
87.1856 407.00
87.4898 385.00
87.7941 355.00
88.0983 361.00
88.4026 356.00
88.7069 392.00
89.0111 362.00
89.3154 379.00
89.6196 347.00
89.9239 309.00
90.2282 327.00
90.5324 321.00
90.8367 338.00
91.1409 329.00
91.4452 363.00
91.7495 356.00
92.0537 390.00
92.358 348.00
92.6622 365.00
92.9665 341.00
93.2708 356.00
93.575 374.00
93.8793 309.00
94.1835 366.00
94.4878 355.00
94.7921 468.00
95.0963 537.00
95.4006 428.00
95.7048 405.00
96.0091 361.00
96.3134 392.00
96.6176 408.00
96.9219 323.00
97.2261 346.00
97.5304 360.00
97.8347 364.00
98.1389 401.00
98.4432 401.00
98.7474 347.00
99.0517 371.00
99.356 526.00
99.6602 399.00
99.9645 351.00
100.095 357.00