File: data/xrd_creation/results/Na_79.xy
9.903433 2657.00
10.2077 2503.00
10.512 2435.00
10.8162 2352.00
11.1205 2166.00
11.4247 2140.00
11.729 1979.00
12.0333 1961.00
12.3375 1795.00
12.6418 1842.00
12.946 1757.00
13.2503 1681.00
13.5546 1561.00
13.8588 1580.00
14.1631 1563.00
14.4673 1502.00
14.7716 1413.00
15.0759 1424.00
15.3801 1448.00
15.6844 1342.00
15.9886 1310.00
16.2929 1376.00
16.5972 1261.00
16.9014 1201.00
17.2057 1214.00
17.5099 1196.00
17.8142 1117.00
18.1185 1167.00
18.4227 1061.00
18.727 1116.00
19.0312 1025.00
19.3355 980.00
19.6398 1000.00
19.944 1231.00
20.2483 973.00
20.5525 948.00
20.8568 866.00
21.1611 900.00
21.4653 913.00
21.7696 891.00
22.0738 850.00
22.3781 851.00
22.6824 811.00
22.9866 805.00
23.2909 811.00
23.5951 783.00
23.8994 745.00
24.2037 735.00
24.5079 793.00
24.8122 736.00
25.1164 720.00
25.4207 712.00
25.725 719.00
26.0292 709.00
26.3335 1089.00
26.6378 1510.00
26.942 686.00
27.2463 622.00
27.5505 658.00
27.8548 581.00
28.1591 615.00
28.4633 643.00
28.7676 584.00
29.0718 563.00
29.3761 586.00
29.6804 596.00
29.9846 551.00
30.2889 522.00
30.5931 546.00
30.8974 503.00
31.2017 568.00
31.5059 513.00
31.8102 501.00
32.1144 506.00
32.4187 536.00
32.723 697.00
33.0272 680.00
33.3315 534.00
33.6357 730.00
33.94 1064.00
34.2443 497.00
34.5485 452.00
34.8528 481.00
35.157 440.00
35.4613 386.00
35.7656 458.00
36.0698 440.00
36.3741 389.00
36.6783 433.00
36.9826 361.00
37.2869 441.00
37.5911 428.00
37.8954 757.00
38.1996 441.00
38.5039 484.00
38.8082 396.00
39.1124 380.00
39.4167 329.00
39.7209 325.00
40.0252 366.00
40.3295 348.00
40.6337 343.00
40.938 359.00
41.2422 323.00
41.5465 352.00
41.8508 333.00
42.155 311.00
42.4593 356.00
42.7635 344.00
43.0678 370.00
43.3721 372.00
43.6763 351.00
43.9806 342.00
44.2849 310.00
44.5891 321.00
44.8934 328.00
45.1976 318.00
45.5019 303.00
45.8062 304.00
46.1104 287.00
46.4147 284.00
46.7189 278.00
47.0232 319.00
47.3275 324.00
47.6317 298.00
47.936 277.00
48.2402 288.00
48.5445 304.00
48.8488 272.00
49.153 292.00
49.4573 290.00
49.7615 278.00
50.0658 279.00
50.3701 266.00
50.6743 277.00
50.9786 239.00
51.2828 310.00
51.5871 558.00
51.8914 715.00
52.1956 304.00
52.4999 259.00
52.8041 238.00
53.1084 261.00
53.4127 294.00
53.7169 265.00
54.0212 222.00
54.3254 277.00
54.6297 379.00
54.934 288.00
55.2382 247.00
55.5425 211.00
55.8467 215.00
56.151 240.00
56.4553 244.00
56.7595 230.00
57.0638 224.00
57.368 273.00
57.6723 299.00
57.9766 296.00
58.2808 201.00
58.5851 206.00
58.8893 211.00
59.1936 244.00
59.4979 215.00
59.8021 217.00
60.1064 200.00
60.4106 183.00
60.7149 224.00
61.0192 193.00
61.3234 237.00
61.6277 237.00
61.932 330.00
62.2362 223.00
62.5405 184.00
62.8447 201.00
63.149 205.00
63.4533 174.00
63.7575 231.00
64.0618 195.00
64.366 213.00
64.6703 360.00
64.9745 237.00
65.2788 249.00
65.5831 232.00
65.8873 377.00
66.1916 226.00
66.4959 201.00
66.8001 191.00
67.1044 195.00
67.4086 227.00
67.7129 183.00
68.0172 181.00
68.3214 179.00
68.6257 198.00
68.9299 216.00
69.2342 204.00
69.5385 171.00
69.8427 188.00
70.147 193.00
70.4512 203.00
70.7555 196.00
71.0598 225.00
71.364 260.00
71.6683 201.00
71.9725 200.00
72.2768 193.00
72.5811 206.00
72.8853 190.00
73.1896 168.00
73.4938 208.00
73.7981 217.00
74.1024 201.00
74.4066 199.00
74.7109 195.00
75.0151 222.00
75.3194 188.00
75.6237 167.00
75.9279 194.00
76.2322 230.00
76.5364 190.00
76.8407 191.00
77.145 190.00
77.4492 198.00
77.7535 223.00
78.0577 243.00
78.362 241.00
78.6663 323.00
78.9705 269.00
79.2748 234.00
79.579 239.00
79.8833 240.00
80.1876 203.00
80.4918 228.00
80.7961 198.00
81.1003 266.00
81.4046 239.00
81.7089 210.00
82.0131 239.00
82.3174 224.00
82.6217 212.00
82.9259 227.00
83.2302 218.00
83.5344 271.00
83.8387 219.00
84.143 278.00
84.4472 222.00
84.7515 239.00
85.0557 223.00
85.36 220.00
85.6643 214.00
85.9685 197.00
86.2728 192.00
86.577 180.00
86.8813 199.00
87.1856 233.00
87.4898 196.00
87.7941 183.00
88.0983 215.00
88.4026 202.00
88.7069 200.00
89.0111 192.00
89.3154 193.00
89.6196 239.00
89.9239 210.00
90.2282 194.00
90.5324 205.00
90.8367 313.00
91.1409 228.00
91.4452 215.00
91.7495 206.00
92.0537 189.00
92.358 191.00
92.6622 200.00
92.9665 179.00
93.2708 226.00
93.575 209.00
93.8793 182.00
94.1835 186.00
94.4878 208.00
94.7921 203.00
95.0963 185.00
95.4006 180.00
95.7048 185.00
96.0091 211.00
96.3134 185.00
96.6176 170.00
96.9219 174.00
97.2261 176.00
97.5304 179.00
97.8347 188.00
98.1389 186.00
98.4432 180.00
98.7474 176.00
99.0517 177.00
99.356 172.00
99.6602 187.00
99.9645 186.00
100.095 175.00