File: data/xrd_creation/results/Na_80.xy
9.903433 2820.00
10.2077 2735.00
10.512 2524.00
10.8162 2499.00
11.1205 2472.00
11.4247 2503.00
11.729 2614.00
12.0333 2231.00
12.3375 2176.00
12.6418 2061.00
12.946 1972.00
13.2503 1927.00
13.5546 1891.00
13.8588 1977.00
14.1631 1830.00
14.4673 1857.00
14.7716 1809.00
15.0759 1705.00
15.3801 1662.00
15.6844 1740.00
15.9886 1683.00
16.2929 1706.00
16.5972 1691.00
16.9014 1537.00
17.2057 1556.00
17.5099 1519.00
17.8142 1520.00
18.1185 1527.00
18.4227 1507.00
18.727 1403.00
19.0312 1457.00
19.3355 1557.00
19.6398 1369.00
19.944 1520.00
20.2483 3102.00
20.5525 1715.00
20.8568 1359.00
21.1611 1312.00
21.4653 1271.00
21.7696 1258.00
22.0738 1263.00
22.3781 1164.00
22.6824 1104.00
22.9866 1148.00
23.2909 1183.00
23.5951 1156.00
23.8994 1177.00
24.2037 1237.00
24.5079 1333.00
24.8122 1267.00
25.1164 1236.00
25.4207 1255.00
25.725 1270.00
26.0292 1474.00
26.3335 1781.00
26.6378 3935.00
26.942 5460.00
27.2463 1895.00
27.5505 1402.00
27.8548 1424.00
28.1591 1217.00
28.4633 1099.00
28.7676 1052.00
29.0718 1033.00
29.3761 1072.00
29.6804 1250.00
29.9846 1722.00
30.2889 1603.00
30.5931 1108.00
30.8974 1067.00
31.2017 992.00
31.5059 1020.00
31.8102 1009.00
32.1144 1031.00
32.4187 1059.00
32.723 1476.00
33.0272 3211.00
33.3315 2895.00
33.6357 2126.00
33.94 3152.00
34.2443 4490.00
34.5485 2026.00
34.8528 1388.00
35.157 1059.00
35.4613 972.00
35.7656 1016.00
36.0698 1163.00
36.3741 834.00
36.6783 819.00
36.9826 869.00
37.2869 834.00
37.5911 949.00
37.8954 1046.00
38.1996 2145.00
38.5039 1105.00
38.8082 1445.00
39.1124 902.00
39.4167 864.00
39.7209 735.00
40.0252 629.00
40.3295 663.00
40.6337 606.00
40.938 617.00
41.2422 582.00
41.5465 640.00
41.8508 691.00
42.155 616.00
42.4593 680.00
42.7635 787.00
43.0678 703.00
43.3721 580.00
43.6763 646.00
43.9806 808.00
44.2849 577.00
44.5891 547.00
44.8934 668.00
45.1976 754.00
45.5019 551.00
45.8062 558.00
46.1104 546.00
46.4147 523.00
46.7189 522.00
47.0232 596.00
47.3275 770.00
47.6317 1099.00
47.936 660.00
48.2402 591.00
48.5445 525.00
48.8488 503.00
49.153 573.00
49.4573 500.00
49.7615 558.00
50.0658 557.00
50.3701 622.00
50.6743 627.00
50.9786 630.00
51.2828 668.00
51.5871 1136.00
51.8914 2968.00
52.1956 3032.00
52.4999 1338.00
52.8041 825.00
53.1084 791.00
53.4127 776.00
53.7169 769.00
54.0212 647.00
54.3254 614.00
54.6297 798.00
54.934 1319.00
55.2382 826.00
55.5425 682.00
55.8467 557.00
56.151 579.00
56.4553 509.00
56.7595 530.00
57.0638 589.00
57.368 557.00
57.6723 552.00
57.9766 733.00
58.2808 725.00
58.5851 660.00
58.8893 731.00
59.1936 1016.00
59.4979 1050.00
59.8021 704.00
60.1064 594.00
60.4106 499.00
60.7149 496.00
61.0192 414.00
61.3234 536.00
61.6277 584.00
61.932 844.00
62.2362 1022.00
62.5405 760.00
62.8447 708.00
63.149 776.00
63.4533 616.00
63.7575 649.00
64.0618 557.00
64.366 612.00
64.6703 680.00
64.9745 1269.00
65.2788 810.00
65.5831 924.00
65.8873 788.00
66.1916 1421.00
66.4959 661.00
66.8001 532.00
67.1044 411.00
67.4086 437.00
67.7129 414.00
68.0172 377.00
68.3214 358.00
68.6257 376.00
68.9299 365.00
69.2342 372.00
69.5385 370.00
69.8427 535.00
70.147 436.00
70.4512 406.00
70.7555 315.00
71.0598 390.00
71.364 523.00
71.6683 593.00
71.9725 428.00
72.2768 389.00
72.5811 373.00
72.8853 376.00
73.1896 393.00
73.4938 396.00
73.7981 345.00
74.1024 335.00
74.4066 353.00
74.7109 343.00
75.0151 350.00
75.3194 334.00
75.6237 377.00
75.9279 355.00
76.2322 325.00
76.5364 351.00
76.8407 322.00
77.145 319.00
77.4492 329.00
77.7535 340.00
78.0577 400.00
78.362 363.00
78.6663 510.00
78.9705 942.00
79.2748 642.00
79.579 461.00
79.8833 360.00
80.1876 342.00
80.4918 350.00
80.7961 378.00
81.1003 396.00
81.4046 440.00
81.7089 419.00
82.0131 374.00
82.3174 365.00
82.6217 381.00
82.9259 367.00
83.2302 374.00
83.5344 419.00
83.8387 675.00
84.143 617.00
84.4472 488.00
84.7515 442.00
85.0557 448.00
85.36 376.00
85.6643 287.00
85.9685 338.00
86.2728 360.00
86.577 349.00
86.8813 381.00
87.1856 362.00
87.4898 480.00
87.7941 369.00
88.0983 389.00
88.4026 429.00
88.7069 422.00
89.0111 385.00
89.3154 403.00
89.6196 448.00
89.9239 757.00
90.2282 713.00
90.5324 444.00
90.8367 559.00
91.1409 828.00
91.4452 530.00
91.7495 411.00
92.0537 462.00
92.358 438.00
92.6622 320.00
92.9665 362.00
93.2708 464.00
93.575 484.00
93.8793 402.00
94.1835 401.00
94.4878 370.00
94.7921 378.00
95.0963 352.00
95.4006 339.00
95.7048 362.00
96.0091 407.00
96.3134 428.00
96.6176 371.00
96.9219 327.00
97.2261 354.00
97.5304 341.00
97.8347 328.00
98.1389 371.00
98.4432 370.00
98.7474 371.00
99.0517 347.00
99.356 325.00
99.6602 302.00
99.9645 301.00
100.095 329.00