File: data/xrd_creation/results/Na_89.xy
9.903433 2696.00
10.2077 2712.00
10.512 2647.00
10.8162 2511.00
11.1205 2689.00
11.4247 4285.00
11.729 15778.00
12.0333 2573.00
12.3375 2277.00
12.6418 2303.00
12.946 2153.00
13.2503 2053.00
13.5546 2016.00
13.8588 1907.00
14.1631 1910.00
14.4673 1960.00
14.7716 2067.00
15.0759 2014.00
15.3801 2089.00
15.6844 1898.00
15.9886 1891.00
16.2929 2892.00
16.5972 6218.00
16.9014 1751.00
17.2057 1733.00
17.5099 1649.00
17.8142 1717.00
18.1185 2905.00
18.4227 1702.00
18.727 1531.00
19.0312 1511.00
19.3355 1472.00
19.6398 1399.00
19.944 1391.00
20.2483 1580.00
20.5525 1462.00
20.8568 1441.00
21.1611 1542.00
21.4653 1288.00
21.7696 1236.00
22.0738 1447.00
22.3781 1242.00
22.6824 1219.00
22.9866 1336.00
23.2909 1297.00
23.5951 1271.00
23.8994 1182.00
24.2037 1364.00
24.5079 2188.00
24.8122 1842.00
25.1164 1214.00
25.4207 1479.00
25.725 1495.00
26.0292 8539.00
26.3335 1725.00
26.6378 1491.00
26.942 3843.00
27.2463 1490.00
27.5505 1235.00
27.8548 5338.00
28.1591 4385.00
28.4633 1353.00
28.7676 996.00
29.0718 1009.00
29.3761 1004.00
29.6804 1059.00
29.9846 1014.00
30.2889 2312.00
30.5931 1332.00
30.8974 916.00
31.2017 916.00
31.5059 2146.00
31.8102 1475.00
32.1144 1408.00
32.4187 1133.00
32.723 1149.00
33.0272 7679.00
33.3315 1352.00
33.6357 1004.00
33.94 1483.00
34.2443 3338.00
34.5485 10293.00
34.8528 2820.00
35.157 1130.00
35.4613 942.00
35.7656 771.00
36.0698 818.00
36.3741 1283.00
36.6783 1287.00
36.9826 1378.00
37.2869 1399.00
37.5911 781.00
37.8954 1092.00
38.1996 1156.00
38.5039 876.00
38.8082 816.00
39.1124 897.00
39.4167 815.00
39.7209 768.00
40.0252 668.00
40.3295 636.00
40.6337 781.00
40.938 783.00
41.2422 829.00
41.5465 745.00
41.8508 1438.00
42.155 1378.00
42.4593 1687.00
42.7635 767.00
43.0678 693.00
43.3721 720.00
43.6763 1146.00
43.9806 767.00
44.2849 751.00
44.5891 688.00
44.8934 718.00
45.1976 1154.00
45.5019 958.00
45.8062 798.00
46.1104 604.00
46.4147 705.00
46.7189 682.00
47.0232 1141.00
47.3275 1695.00
47.6317 2554.00
47.936 717.00
48.2402 643.00
48.5445 773.00
48.8488 773.00
49.153 1283.00
49.4573 778.00
49.7615 1957.00
50.0658 1677.00
50.3701 1862.00
50.6743 712.00
50.9786 689.00
51.2828 806.00
51.5871 642.00
51.8914 1744.00
52.1956 1705.00
52.4999 813.00
52.8041 564.00
53.1084 1193.00
53.4127 1009.00
53.7169 672.00
54.0212 718.00
54.3254 725.00
54.6297 738.00
54.934 984.00
55.2382 854.00
55.5425 1265.00
55.8467 668.00
56.151 795.00
56.4553 920.00
56.7595 762.00
57.0638 995.00
57.368 1125.00
57.6723 642.00
57.9766 793.00
58.2808 927.00
58.5851 1594.00
58.8893 1135.00
59.1936 977.00
59.4979 1750.00
59.8021 1967.00
60.1064 1212.00
60.4106 1240.00
60.7149 688.00
61.0192 712.00
61.3234 536.00
61.6277 712.00
61.932 806.00
62.2362 786.00
62.5405 893.00
62.8447 670.00
63.149 995.00
63.4533 565.00
63.7575 612.00
64.0618 714.00
64.366 696.00
64.6703 657.00
64.9745 1081.00
65.2788 831.00
65.5831 828.00
65.8873 1008.00
66.1916 995.00
66.4959 819.00
66.8001 730.00
67.1044 643.00
67.4086 680.00
67.7129 584.00
68.0172 750.00
68.3214 582.00
68.6257 701.00
68.9299 788.00
69.2342 629.00
69.5385 468.00
69.8427 520.00
70.147 435.00
70.4512 458.00
70.7555 493.00
71.0598 529.00
71.364 480.00
71.6683 519.00
71.9725 529.00
72.2768 713.00
72.5811 542.00
72.8853 382.00
73.1896 533.00
73.4938 670.00
73.7981 424.00
74.1024 471.00
74.4066 594.00
74.7109 494.00
75.0151 515.00
75.3194 536.00
75.6237 479.00
75.9279 445.00
76.2322 533.00
76.5364 493.00
76.8407 581.00
77.145 582.00
77.4492 641.00
77.7535 460.00
78.0577 525.00
78.362 507.00
78.6663 568.00
78.9705 793.00
79.2748 685.00
79.579 521.00
79.8833 466.00
80.1876 604.00
80.4918 617.00
80.7961 513.00
81.1003 497.00
81.4046 527.00
81.7089 490.00
82.0131 452.00
82.3174 430.00
82.6217 499.00
82.9259 480.00
83.2302 453.00
83.5344 426.00
83.8387 585.00
84.143 546.00
84.4472 484.00
84.7515 562.00
85.0557 541.00
85.36 505.00
85.6643 445.00
85.9685 476.00
86.2728 508.00
86.577 578.00
86.8813 542.00
87.1856 525.00
87.4898 549.00
87.7941 429.00
88.0983 446.00
88.4026 561.00
88.7069 617.00
89.0111 525.00
89.3154 484.00
89.6196 516.00
89.9239 612.00
90.2282 586.00
90.5324 631.00
90.8367 515.00
91.1409 560.00
91.4452 594.00
91.7495 587.00
92.0537 635.00
92.358 487.00
92.6622 541.00
92.9665 453.00
93.2708 442.00
93.575 452.00
93.8793 429.00
94.1835 441.00
94.4878 481.00
94.7921 378.00
95.0963 423.00
95.4006 465.00
95.7048 481.00
96.0091 554.00
96.3134 549.00
96.6176 468.00
96.9219 584.00
97.2261 630.00
97.5304 626.00
97.8347 552.00
98.1389 532.00
98.4432 452.00
98.7474 474.00
99.0517 424.00
99.356 466.00
99.6602 574.00
99.9645 524.00
100.095 553.00