File: data/xrd_creation/results/Na_92.xy
9.903433 2725.00
10.2077 2602.00
10.512 2474.00
10.8162 2373.00
11.1205 2555.00
11.4247 4475.00
11.729 4152.00
12.0333 2116.00
12.3375 2064.00
12.6418 2026.00
12.946 1963.00
13.2503 1850.00
13.5546 1787.00
13.8588 1679.00
14.1631 1674.00
14.4673 1655.00
14.7716 1793.00
15.0759 1583.00
15.3801 1637.00
15.6844 1510.00
15.9886 1795.00
16.2929 2959.00
16.5972 1977.00
16.9014 1474.00
17.2057 1413.00
17.5099 1390.00
17.8142 1626.00
18.1185 1663.00
18.4227 1347.00
18.727 1297.00
19.0312 1254.00
19.3355 1157.00
19.6398 1162.00
19.944 1162.00
20.2483 1175.00
20.5525 1091.00
20.8568 1131.00
21.1611 1103.00
21.4653 1062.00
21.7696 1072.00
22.0738 1013.00
22.3781 1021.00
22.6824 1050.00
22.9866 996.00
23.2909 993.00
23.5951 963.00
23.8994 937.00
24.2037 1202.00
24.5079 1450.00
24.8122 1032.00
25.1164 1041.00
25.4207 1085.00
25.725 2724.00
26.0292 3050.00
26.3335 1199.00
26.6378 2161.00
26.942 1314.00
27.2463 1049.00
27.5505 2057.00
27.8548 3540.00
28.1591 1242.00
28.4633 837.00
28.7676 786.00
29.0718 755.00
29.3761 733.00
29.6804 812.00
29.9846 1322.00
30.2889 1327.00
30.5931 764.00
30.8974 744.00
31.2017 994.00
31.5059 1074.00
31.8102 1070.00
32.1144 676.00
32.4187 786.00
32.723 2051.00
33.0272 2554.00
33.3315 744.00
33.6357 844.00
33.94 2138.00
34.2443 3696.00
34.5485 2624.00
34.8528 1448.00
35.157 756.00
35.4613 586.00
35.7656 563.00
36.0698 746.00
36.3741 826.00
36.6783 836.00
36.9826 754.00
37.2869 650.00
37.5911 626.00
37.8954 688.00
38.1996 773.00
38.5039 512.00
38.8082 521.00
39.1124 641.00
39.4167 517.00
39.7209 491.00
40.0252 455.00
40.3295 532.00
40.6337 495.00
40.938 512.00
41.2422 508.00
41.5465 752.00
41.8508 806.00
42.155 1086.00
42.4593 778.00
42.7635 484.00
43.0678 476.00
43.3721 721.00
43.6763 554.00
43.9806 465.00
44.2849 435.00
44.5891 446.00
44.8934 597.00
45.1976 643.00
45.5019 571.00
45.8062 455.00
46.1104 442.00
46.4147 433.00
46.7189 558.00
47.0232 768.00
47.3275 1324.00
47.6317 754.00
47.936 412.00
48.2402 485.00
48.5445 564.00
48.8488 696.00
49.153 607.00
49.4573 752.00
49.7615 1001.00
50.0658 1034.00
50.3701 717.00
50.6743 440.00
50.9786 414.00
51.2828 419.00
51.5871 1034.00
51.8914 1630.00
52.1956 615.00
52.4999 339.00
52.8041 542.00
53.1084 710.00
53.4127 576.00
53.7169 505.00
54.0212 477.00
54.3254 492.00
54.6297 534.00
54.934 630.00
55.2382 581.00
55.5425 656.00
55.8467 462.00
56.151 495.00
56.4553 470.00
56.7595 578.00
57.0638 632.00
57.368 554.00
57.6723 474.00
57.9766 637.00
58.2808 824.00
58.5851 764.00
58.8893 685.00
59.1936 823.00
59.4979 1340.00
59.8021 844.00
60.1064 880.00
60.4106 502.00
60.7149 444.00
61.0192 369.00
61.3234 356.00
61.6277 468.00
61.932 619.00
62.2362 668.00
62.5405 437.00
62.8447 607.00
63.149 426.00
63.4533 370.00
63.7575 408.00
64.0618 489.00
64.366 462.00
64.6703 560.00
64.9745 638.00
65.2788 498.00
65.5831 518.00
65.8873 575.00
66.1916 633.00
66.4959 460.00
66.8001 393.00
67.1044 384.00
67.4086 385.00
67.7129 368.00
68.0172 424.00
68.3214 395.00
68.6257 423.00
68.9299 350.00
69.2342 346.00
69.5385 313.00
69.8427 301.00
70.147 298.00
70.4512 310.00
70.7555 328.00
71.0598 284.00
71.364 392.00
71.6683 325.00
71.9725 363.00
72.2768 439.00
72.5811 322.00
72.8853 296.00
73.1896 434.00
73.4938 324.00
73.7981 279.00
74.1024 292.00
74.4066 355.00
74.7109 308.00
75.0151 281.00
75.3194 305.00
75.6237 287.00
75.9279 270.00
76.2322 281.00
76.5364 336.00
76.8407 339.00
77.145 411.00
77.4492 326.00
77.7535 272.00
78.0577 298.00
78.362 280.00
78.6663 526.00
78.9705 521.00
79.2748 352.00
79.579 322.00
79.8833 318.00
80.1876 351.00
80.4918 335.00
80.7961 311.00
81.1003 317.00
81.4046 364.00
81.7089 317.00
82.0131 245.00
82.3174 295.00
82.6217 322.00
82.9259 318.00
83.2302 337.00
83.5344 380.00
83.8387 449.00
84.143 338.00
84.4472 332.00
84.7515 340.00
85.0557 344.00
85.36 343.00
85.6643 309.00
85.9685 402.00
86.2728 347.00
86.577 312.00
86.8813 365.00
87.1856 368.00
87.4898 335.00
87.7941 259.00
88.0983 277.00
88.4026 369.00
88.7069 358.00
89.0111 303.00
89.3154 359.00
89.6196 326.00
89.9239 395.00
90.2282 403.00
90.5324 305.00
90.8367 381.00
91.1409 349.00
91.4452 367.00
91.7495 350.00
92.0537 333.00
92.358 293.00
92.6622 286.00
92.9665 286.00
93.2708 318.00
93.575 339.00
93.8793 267.00
94.1835 266.00
94.4878 287.00
94.7921 248.00
95.0963 290.00
95.4006 282.00
95.7048 314.00
96.0091 360.00
96.3134 357.00
96.6176 330.00
96.9219 362.00
97.2261 391.00
97.5304 323.00
97.8347 315.00
98.1389 338.00
98.4432 307.00
98.7474 278.00
99.0517 321.00
99.356 336.00
99.6602 356.00
99.9645 318.00
100.095 330.00