File: data/xrd_creation/results/Na_90.xy
9.903433 2696.00
10.2077 2591.00
10.512 2504.00
10.8162 2508.00
11.1205 2390.00
11.4247 2401.00
11.729 2560.00
12.0333 2099.00
12.3375 2027.00
12.6418 1933.00
12.946 1930.00
13.2503 1843.00
13.5546 1938.00
13.8588 1765.00
14.1631 1819.00
14.4673 1773.00
14.7716 1747.00
15.0759 1761.00
15.3801 1696.00
15.6844 1642.00
15.9886 1806.00
16.2929 2349.00
16.5972 2746.00
16.9014 1680.00
17.2057 1529.00
17.5099 1538.00
17.8142 1546.00
18.1185 1509.00
18.4227 1454.00
18.727 1634.00
19.0312 1694.00
19.3355 1566.00
19.6398 1570.00
19.944 1561.00
20.2483 1458.00
20.5525 1367.00
20.8568 1536.00
21.1611 1635.00
21.4653 1365.00
21.7696 1317.00
22.0738 1282.00
22.3781 1214.00
22.6824 1319.00
22.9866 1191.00
23.2909 1247.00
23.5951 1280.00
23.8994 1082.00
24.2037 1218.00
24.5079 1145.00
24.8122 1108.00
25.1164 1058.00
25.4207 1048.00
25.725 1107.00
26.0292 1459.00
26.3335 1395.00
26.6378 3208.00
26.942 10467.00
27.2463 1579.00
27.5505 1260.00
27.8548 1263.00
28.1591 1210.00
28.4633 987.00
28.7676 958.00
29.0718 932.00
29.3761 961.00
29.6804 906.00
29.9846 876.00
30.2889 964.00
30.5931 889.00
30.8974 873.00
31.2017 857.00
31.5059 844.00
31.8102 901.00
32.1144 929.00
32.4187 893.00
32.723 989.00
33.0272 2475.00
33.3315 1399.00
33.6357 1317.00
33.94 2660.00
34.2443 8896.00
34.5485 3461.00
34.8528 1248.00
35.157 910.00
35.4613 1274.00
35.7656 827.00
36.0698 767.00
36.3741 796.00
36.6783 703.00
36.9826 796.00
37.2869 777.00
37.5911 782.00
37.8954 1031.00
38.1996 3137.00
38.5039 1054.00
38.8082 752.00
39.1124 1060.00
39.4167 2422.00
39.7209 2298.00
40.0252 820.00
40.3295 772.00
40.6337 682.00
40.938 634.00
41.2422 604.00
41.5465 634.00
41.8508 665.00
42.155 619.00
42.4593 618.00
42.7635 732.00
43.0678 1027.00
43.3721 637.00
43.6763 621.00
43.9806 579.00
44.2849 637.00
44.5891 552.00
44.8934 601.00
45.1976 561.00
45.5019 517.00
45.8062 546.00
46.1104 537.00
46.4147 463.00
46.7189 551.00
47.0232 488.00
47.3275 555.00
47.6317 615.00
47.936 588.00
48.2402 542.00
48.5445 494.00
48.8488 523.00
49.153 560.00
49.4573 519.00
49.7615 530.00
50.0658 564.00
50.3701 634.00
50.6743 633.00
50.9786 700.00
51.2828 981.00
51.5871 1049.00
51.8914 2930.00
52.1956 5486.00
52.4999 983.00
52.8041 679.00
53.1084 601.00
53.4127 566.00
53.7169 569.00
54.0212 550.00
54.3254 536.00
54.6297 614.00
54.934 1551.00
55.2382 1169.00
55.5425 690.00
55.8467 761.00
56.151 1125.00
56.4553 561.00
56.7595 523.00
57.0638 517.00
57.368 502.00
57.6723 706.00
57.9766 1578.00
58.2808 1244.00
58.5851 619.00
58.8893 569.00
59.1936 516.00
59.4979 497.00
59.8021 525.00
60.1064 517.00
60.4106 619.00
60.7149 867.00
61.0192 559.00
61.3234 483.00
61.6277 546.00
61.932 847.00
62.2362 1452.00
62.5405 625.00
62.8447 504.00
63.149 424.00
63.4533 427.00
63.7575 439.00
64.0618 466.00
64.366 448.00
64.6703 690.00
64.9745 2089.00
65.2788 915.00
65.5831 561.00
65.8873 737.00
66.1916 2334.00
66.4959 1179.00
66.8001 572.00
67.1044 448.00
67.4086 419.00
67.7129 408.00
68.0172 542.00
68.3214 725.00
68.6257 521.00
68.9299 592.00
69.2342 558.00
69.5385 431.00
69.8427 362.00
70.147 355.00
70.4512 416.00
70.7555 391.00
71.0598 422.00
71.364 692.00
71.6683 931.00
71.9725 646.00
72.2768 844.00
72.5811 569.00
72.8853 418.00
73.1896 367.00
73.4938 386.00
73.7981 352.00
74.1024 364.00
74.4066 355.00
74.7109 445.00
75.0151 385.00
75.3194 351.00
75.6237 321.00
75.9279 342.00
76.2322 346.00
76.5364 350.00
76.8407 312.00
77.145 331.00
77.4492 318.00
77.7535 305.00
78.0577 344.00
78.362 378.00
78.6663 550.00
78.9705 1505.00
79.2748 672.00
79.579 439.00
79.8833 341.00
80.1876 410.00
80.4918 432.00
80.7961 407.00
81.1003 483.00
81.4046 627.00
81.7089 430.00
82.0131 359.00
82.3174 324.00
82.6217 310.00
82.9259 351.00
83.2302 362.00
83.5344 379.00
83.8387 787.00
84.143 857.00
84.4472 503.00
84.7515 490.00
85.0557 374.00
85.36 338.00
85.6643 301.00
85.9685 307.00
86.2728 349.00
86.577 331.00
86.8813 321.00
87.1856 414.00
87.4898 635.00
87.7941 427.00
88.0983 367.00
88.4026 333.00
88.7069 347.00
89.0111 311.00
89.3154 388.00
89.6196 453.00
89.9239 984.00
90.2282 896.00
90.5324 490.00
90.8367 594.00
91.1409 1157.00
91.4452 847.00
91.7495 434.00
92.0537 362.00
92.358 328.00
92.6622 373.00
92.9665 365.00
93.2708 450.00
93.575 665.00
93.8793 555.00
94.1835 381.00
94.4878 366.00
94.7921 349.00
95.0963 375.00
95.4006 400.00
95.7048 467.00
96.0091 657.00
96.3134 697.00
96.6176 553.00
96.9219 370.00
97.2261 311.00
97.5304 315.00
97.8347 312.00
98.1389 313.00
98.4432 323.00
98.7474 348.00
99.0517 458.00
99.356 477.00
99.6602 475.00
99.9645 351.00
100.095 328.00