File: data/xrd_creation/results/NSC_78.xy
9.903433 2899.00
10.2077 2778.00
10.512 2691.00
10.8162 2699.00
11.1205 2599.00
11.4247 2480.00
11.729 2480.00
12.0333 2313.00
12.3375 2214.00
12.6418 2233.00
12.946 2126.00
13.2503 2017.00
13.5546 2097.00
13.8588 2028.00
14.1631 1932.00
14.4673 1961.00
14.7716 1964.00
15.0759 1902.00
15.3801 1935.00
15.6844 1788.00
15.9886 1776.00
16.2929 1774.00
16.5972 1853.00
16.9014 1744.00
17.2057 1755.00
17.5099 1734.00
17.8142 1818.00
18.1185 1716.00
18.4227 1736.00
18.727 1725.00
19.0312 1623.00
19.3355 2161.00
19.6398 2516.00
19.944 1656.00
20.2483 1605.00
20.5525 1595.00
20.8568 1680.00
21.1611 1662.00
21.4653 2376.00
21.7696 1805.00
22.0738 1569.00
22.3781 1504.00
22.6824 1523.00
22.9866 1557.00
23.2909 1549.00
23.5951 1466.00
23.8994 1456.00
24.2037 1397.00
24.5079 1433.00
24.8122 1491.00
25.1164 1678.00
25.4207 3069.00
25.725 15373.00
26.0292 1800.00
26.3335 1496.00
26.6378 1501.00
26.942 1467.00
27.2463 1540.00
27.5505 2129.00
27.8548 10319.00
28.1591 1676.00
28.4633 1445.00
28.7676 1470.00
29.0718 2023.00
29.3761 3380.00
29.6804 1957.00
29.9846 1637.00
30.2889 1339.00
30.5931 1321.00
30.8974 1220.00
31.2017 1327.00
31.5059 1268.00
31.8102 1231.00
32.1144 1153.00
32.4187 1128.00
32.723 1130.00
33.0272 1141.00
33.3315 1106.00
33.6357 1096.00
33.94 1048.00
34.2443 1077.00
34.5485 992.00
34.8528 942.00
35.157 1008.00
35.4613 1093.00
35.7656 959.00
36.0698 950.00
36.3741 928.00
36.6783 867.00
36.9826 857.00
37.2869 923.00
37.5911 850.00
37.8954 909.00
38.1996 2330.00
38.5039 1003.00
38.8082 827.00
39.1124 809.00
39.4167 816.00
39.7209 1883.00
40.0252 893.00
40.3295 767.00
40.6337 763.00
40.938 754.00
41.2422 780.00
41.5465 801.00
41.8508 814.00
42.155 820.00
42.4593 814.00
42.7635 852.00
43.0678 890.00
43.3721 831.00
43.6763 950.00
43.9806 3357.00
44.2849 1063.00
44.5891 1430.00
44.8934 1405.00
45.1976 839.00
45.5019 818.00
45.8062 765.00
46.1104 728.00
46.4147 898.00
46.7189 760.00
47.0232 763.00
47.3275 775.00
47.6317 848.00
47.936 3529.00
48.2402 1265.00
48.5445 4786.00
48.8488 1146.00
49.153 745.00
49.4573 733.00
49.7615 707.00
50.0658 909.00
50.3701 910.00
50.6743 673.00
50.9786 697.00
51.2828 696.00
51.5871 702.00
51.8914 666.00
52.1956 699.00
52.4999 726.00
52.8041 1371.00
53.1084 918.00
53.4127 709.00
53.7169 681.00
54.0212 700.00
54.3254 645.00
54.6297 690.00
54.934 1302.00
55.2382 724.00
55.5425 653.00
55.8467 697.00
56.151 775.00
56.4553 1849.00
56.7595 725.00
57.0638 683.00
57.368 810.00
57.6723 1431.00
57.9766 638.00
58.2808 625.00
58.5851 620.00
58.8893 570.00
59.1936 590.00
59.4979 600.00
59.8021 621.00
60.1064 621.00
60.4106 608.00
60.7149 669.00
61.0192 627.00
61.3234 750.00
61.6277 771.00
61.932 521.00
62.2362 580.00
62.5405 545.00
62.8447 601.00
63.149 628.00
63.4533 596.00
63.7575 586.00
64.0618 1459.00
64.366 1090.00
64.6703 2380.00
64.9745 870.00
65.2788 1109.00
65.5831 581.00
65.8873 599.00
66.1916 525.00
66.4959 462.00
66.8001 537.00
67.1044 480.00
67.4086 506.00
67.7129 487.00
68.0172 496.00
68.3214 567.00
68.6257 560.00
68.9299 537.00
69.2342 505.00
69.5385 509.00
69.8427 569.00
70.147 1184.00
70.4512 811.00
70.7555 522.00
71.0598 527.00
71.364 469.00
71.6683 521.00
71.9725 641.00
72.2768 495.00
72.5811 505.00
72.8853 502.00
73.1896 481.00
73.4938 485.00
73.7981 457.00
74.1024 452.00
74.4066 475.00
74.7109 467.00
75.0151 532.00
75.3194 845.00
75.6237 860.00
75.9279 520.00
76.2322 496.00
76.5364 473.00
76.8407 545.00
77.145 795.00
77.4492 565.00
77.7535 495.00
78.0577 645.00
78.362 886.00
78.6663 1185.00
78.9705 698.00
79.2748 456.00
79.579 507.00
79.8833 668.00
80.1876 542.00
80.4918 423.00
80.7961 437.00
81.1003 490.00
81.4046 442.00
81.7089 490.00
82.0131 685.00
82.3174 814.00
82.6217 536.00
82.9259 458.00
83.2302 453.00
83.5344 444.00
83.8387 700.00
84.143 612.00
84.4472 424.00
84.7515 407.00
85.0557 498.00
85.36 445.00
85.6643 477.00
85.9685 603.00
86.2728 439.00
86.577 424.00
86.8813 394.00
87.1856 388.00
87.4898 420.00
87.7941 415.00
88.0983 440.00
88.4026 422.00
88.7069 408.00
89.0111 429.00
89.3154 504.00
89.6196 428.00
89.9239 417.00
90.2282 456.00
90.5324 688.00
90.8367 589.00
91.1409 424.00
91.4452 433.00
91.7495 406.00
92.0537 803.00
92.358 636.00
92.6622 528.00
92.9665 468.00
93.2708 481.00
93.575 444.00
93.8793 388.00
94.1835 389.00
94.4878 387.00
94.7921 425.00
95.0963 436.00
95.4006 418.00
95.7048 501.00
96.0091 432.00
96.3134 378.00
96.6176 421.00
96.9219 464.00
97.2261 686.00
97.5304 557.00
97.8347 450.00
98.1389 456.00
98.4432 495.00
98.7474 490.00
99.0517 475.00
99.356 548.00
99.6602 485.00
99.9645 408.00
100.095 402.00