File: data/xrd_creation/results/NSC_141.xy
9.903433 2723.00
10.2077 2643.00
10.512 2377.00
10.8162 2373.00
11.1205 2368.00
11.4247 2230.00
11.729 2148.00
12.0333 2101.00
12.3375 1999.00
12.6418 1900.00
12.946 1847.00
13.2503 1747.00
13.5546 1714.00
13.8588 1713.00
14.1631 1647.00
14.4673 1850.00
14.7716 3370.00
15.0759 1600.00
15.3801 1560.00
15.6844 1569.00
15.9886 1551.00
16.2929 1477.00
16.5972 1438.00
16.9014 1436.00
17.2057 1395.00
17.5099 1345.00
17.8142 1362.00
18.1185 1318.00
18.4227 1288.00
18.727 1258.00
19.0312 1268.00
19.3355 1219.00
19.6398 1247.00
19.944 1273.00
20.2483 1228.00
20.5525 5175.00
20.8568 1405.00
21.1611 5416.00
21.4653 1251.00
21.7696 1213.00
22.0738 1163.00
22.3781 1007.00
22.6824 1058.00
22.9866 999.00
23.2909 1157.00
23.5951 1023.00
23.8994 1135.00
24.2037 1267.00
24.5079 12629.00
24.8122 2340.00
25.1164 998.00
25.4207 943.00
25.725 1072.00
26.0292 985.00
26.3335 869.00
26.6378 856.00
26.942 863.00
27.2463 879.00
27.5505 931.00
27.8548 1493.00
28.1591 788.00
28.4633 703.00
28.7676 772.00
29.0718 754.00
29.3761 932.00
29.6804 4781.00
29.9846 772.00
30.2889 739.00
30.5931 661.00
30.8974 648.00
31.2017 628.00
31.5059 623.00
31.8102 656.00
32.1144 727.00
32.4187 860.00
32.723 15409.00
33.0272 969.00
33.3315 650.00
33.6357 830.00
33.94 577.00
34.2443 556.00
34.5485 565.00
34.8528 527.00
35.157 517.00
35.4613 607.00
35.7656 559.00
36.0698 547.00
36.3741 1212.00
36.6783 819.00
36.9826 4375.00
37.2869 544.00
37.5911 499.00
37.8954 486.00
38.1996 427.00
38.5039 458.00
38.8082 460.00
39.1124 457.00
39.4167 454.00
39.7209 404.00
40.0252 431.00
40.3295 394.00
40.6337 391.00
40.938 424.00
41.2422 426.00
41.5465 1333.00
41.8508 427.00
42.155 402.00
42.4593 422.00
42.7635 387.00
43.0678 452.00
43.3721 1341.00
43.6763 439.00
43.9806 834.00
44.2849 487.00
44.5891 455.00
44.8934 1484.00
45.1976 390.00
45.5019 457.00
45.8062 352.00
46.1104 377.00
46.4147 363.00
46.7189 475.00
47.0232 2321.00
47.3275 432.00
47.6317 345.00
47.936 736.00
48.2402 355.00
48.5445 343.00
48.8488 730.00
49.153 357.00
49.4573 362.00
49.7615 622.00
50.0658 2891.00
50.3701 547.00
50.6743 1079.00
50.9786 348.00
51.2828 344.00
51.5871 319.00
51.8914 318.00
52.1956 290.00
52.4999 305.00
52.8041 440.00
53.1084 319.00
53.4127 399.00
53.7169 2180.00
54.0212 1670.00
54.3254 324.00
54.6297 1253.00
54.934 372.00
55.2382 368.00
55.5425 335.00
55.8467 275.00
56.151 294.00
56.4553 428.00
56.7595 1120.00
57.0638 498.00
57.368 868.00
57.6723 3071.00
57.9766 640.00
58.2808 304.00
58.5851 304.00
58.8893 588.00
59.1936 1279.00
59.4979 319.00
59.8021 309.00
60.1064 264.00
60.4106 243.00
60.7149 306.00
61.0192 1454.00
61.3234 365.00
61.6277 250.00
61.932 282.00
62.2362 284.00
62.5405 897.00
62.8447 862.00
63.149 372.00
63.4533 336.00
63.7575 967.00
64.0618 708.00
64.366 395.00
64.6703 269.00
64.9745 312.00
65.2788 1446.00
65.5831 449.00
65.8873 527.00
66.1916 825.00
66.4959 355.00
66.8001 884.00
67.1044 284.00
67.4086 220.00
67.7129 322.00
68.0172 302.00
68.3214 386.00
68.6257 724.00
68.9299 271.00
69.2342 542.00
69.5385 618.00
69.8427 258.00
70.147 338.00
70.4512 225.00
70.7555 388.00
71.0598 315.00
71.364 266.00
71.6683 390.00
71.9725 527.00
72.2768 279.00
72.5811 227.00
72.8853 207.00
73.1896 280.00
73.4938 336.00
73.7981 233.00
74.1024 685.00
74.4066 279.00
74.7109 236.00
75.0151 316.00
75.3194 349.00
75.6237 401.00
75.9279 207.00
76.2322 193.00
76.5364 201.00
76.8407 256.00
77.145 282.00
77.4492 465.00
77.7535 225.00
78.0577 374.00
78.362 688.00
78.6663 287.00
78.9705 506.00
79.2748 667.00
79.579 378.00
79.8833 237.00
80.1876 283.00
80.4918 213.00
80.7961 211.00
81.1003 365.00
81.4046 227.00
81.7089 216.00
82.0131 436.00
82.3174 224.00
82.6217 269.00
82.9259 226.00
83.2302 370.00
83.5344 301.00
83.8387 214.00
84.143 172.00
84.4472 244.00
84.7515 292.00
85.0557 354.00
85.36 248.00
85.6643 185.00
85.9685 200.00
86.2728 223.00
86.577 270.00
86.8813 247.00
87.1856 778.00
87.4898 434.00
87.7941 234.00
88.0983 205.00
88.4026 209.00
88.7069 668.00
89.0111 365.00
89.3154 675.00
89.6196 403.00
89.9239 240.00
90.2282 198.00
90.5324 228.00
90.8367 268.00
91.1409 248.00
91.4452 420.00
91.7495 321.00
92.0537 183.00
92.358 356.00
92.6622 321.00
92.9665 215.00
93.2708 242.00
93.575 316.00
93.8793 574.00
94.1835 352.00
94.4878 225.00
94.7921 245.00
95.0963 284.00
95.4006 303.00
95.7048 243.00
96.0091 250.00
96.3134 364.00
96.6176 307.00
96.9219 280.00
97.2261 264.00
97.5304 194.00
97.8347 172.00
98.1389 211.00
98.4432 275.00
98.7474 226.00
99.0517 343.00
99.356 280.00
99.6602 225.00
99.9645 493.00
100.095 641.00