File: data/xrd_creation/results/NSC_98.xy
9.903433 2638.00
10.2077 2626.00
10.512 2562.00
10.8162 2333.00
11.1205 2294.00
11.4247 2216.00
11.729 2222.00
12.0333 2104.00
12.3375 2032.00
12.6418 2022.00
12.946 1930.00
13.2503 1710.00
13.5546 1803.00
13.8588 1795.00
14.1631 1993.00
14.4673 2347.00
14.7716 1699.00
15.0759 1619.00
15.3801 1642.00
15.6844 1631.00
15.9886 1481.00
16.2929 1470.00
16.5972 1517.00
16.9014 1537.00
17.2057 1546.00
17.5099 1438.00
17.8142 1451.00
18.1185 1330.00
18.4227 1347.00
18.727 1381.00
19.0312 1409.00
19.3355 1537.00
19.6398 2166.00
19.944 4231.00
20.2483 1701.00
20.5525 1605.00
20.8568 4093.00
21.1611 3467.00
21.4653 1367.00
21.7696 1306.00
22.0738 1329.00
22.3781 1654.00
22.6824 1417.00
22.9866 1177.00
23.2909 1129.00
23.5951 1216.00
23.8994 1930.00
24.2037 3345.00
24.5079 1140.00
24.8122 1038.00
25.1164 1171.00
25.4207 1030.00
25.725 1007.00
26.0292 922.00
26.3335 938.00
26.6378 1009.00
26.942 848.00
27.2463 965.00
27.5505 1038.00
27.8548 917.00
28.1591 940.00
28.4633 897.00
28.7676 1294.00
29.0718 3497.00
29.3761 1159.00
29.6804 817.00
29.9846 890.00
30.2889 811.00
30.5931 802.00
30.8974 864.00
31.2017 850.00
31.5059 1021.00
31.8102 3549.00
32.1144 3001.00
32.4187 1121.00
32.723 886.00
33.0272 742.00
33.3315 739.00
33.6357 752.00
33.94 754.00
34.2443 938.00
34.5485 653.00
34.8528 676.00
35.157 664.00
35.4613 665.00
35.7656 814.00
36.0698 2037.00
36.3741 1089.00
36.6783 2617.00
36.9826 952.00
37.2869 729.00
37.5911 1022.00
37.8954 770.00
38.1996 601.00
38.5039 613.00
38.8082 720.00
39.1124 608.00
39.4167 721.00
39.7209 553.00
40.0252 586.00
40.3295 740.00
40.6337 763.00
40.938 588.00
41.2422 530.00
41.5465 528.00
41.8508 641.00
42.155 1044.00
42.4593 760.00
42.7635 911.00
43.0678 630.00
43.3721 565.00
43.6763 559.00
43.9806 706.00
44.2849 1335.00
44.5891 556.00
44.8934 521.00
45.1976 677.00
45.5019 583.00
45.8062 865.00
46.1104 1207.00
46.4147 543.00
46.7189 514.00
47.0232 503.00
47.3275 1308.00
47.6317 1441.00
47.936 521.00
48.2402 487.00
48.5445 551.00
48.8488 564.00
49.153 865.00
49.4573 2082.00
49.7615 577.00
50.0658 612.00
50.3701 675.00
50.6743 465.00
50.9786 444.00
51.2828 515.00
51.5871 578.00
51.8914 524.00
52.1956 1000.00
52.4999 1886.00
52.8041 524.00
53.1084 502.00
53.4127 493.00
53.7169 420.00
54.0212 405.00
54.3254 442.00
54.6297 460.00
54.934 428.00
55.2382 410.00
55.5425 588.00
55.8467 772.00
56.151 449.00
56.4553 479.00
56.7595 716.00
57.0638 1405.00
57.368 1681.00
57.6723 955.00
57.9766 476.00
58.2808 456.00
58.5851 489.00
58.8893 827.00
59.1936 604.00
59.4979 421.00
59.8021 390.00
60.1064 612.00
60.4106 505.00
60.7149 572.00
61.0192 544.00
61.3234 1220.00
61.6277 810.00
61.932 454.00
62.2362 511.00
62.5405 541.00
62.8447 993.00
63.149 1573.00
63.4533 724.00
63.7575 439.00
64.0618 428.00
64.366 524.00
64.6703 448.00
64.9745 356.00
65.2788 512.00
65.5831 1048.00
65.8873 896.00
66.1916 714.00
66.4959 475.00
66.8001 464.00
67.1044 546.00
67.4086 962.00
67.7129 472.00
68.0172 414.00
68.3214 410.00
68.6257 356.00
68.9299 331.00
69.2342 407.00
69.5385 795.00
69.8427 790.00
70.147 399.00
70.4512 384.00
70.7555 394.00
71.0598 513.00
71.364 523.00
71.6683 378.00
71.9725 411.00
72.2768 352.00
72.5811 350.00
72.8853 395.00
73.1896 338.00
73.4938 621.00
73.7981 603.00
74.1024 399.00
74.4066 353.00
74.7109 352.00
75.0151 400.00
75.3194 665.00
75.6237 511.00
75.9279 516.00
76.2322 509.00
76.5364 407.00
76.8407 342.00
77.145 345.00
77.4492 393.00
77.7535 541.00
78.0577 541.00
78.362 387.00
78.6663 340.00
78.9705 395.00
79.2748 447.00
79.579 418.00
79.8833 402.00
80.1876 404.00
80.4918 356.00
80.7961 344.00
81.1003 433.00
81.4046 675.00
81.7089 562.00
82.0131 403.00
82.3174 336.00
82.6217 423.00
82.9259 774.00
83.2302 571.00
83.5344 360.00
83.8387 320.00
84.143 311.00
84.4472 299.00
84.7515 325.00
85.0557 357.00
85.36 364.00
85.6643 312.00
85.9685 327.00
86.2728 422.00
86.577 603.00
86.8813 452.00
87.1856 376.00
87.4898 491.00
87.7941 738.00
88.0983 544.00
88.4026 360.00
88.7069 415.00
89.0111 429.00
89.3154 368.00
89.6196 329.00
89.9239 366.00
90.2282 371.00
90.5324 439.00
90.8367 410.00
91.1409 418.00
91.4452 382.00
91.7495 368.00
92.0537 344.00
92.358 415.00
92.6622 639.00
92.9665 575.00
93.2708 349.00
93.575 318.00
93.8793 330.00
94.1835 509.00
94.4878 425.00
94.7921 329.00
95.0963 385.00
95.4006 469.00
95.7048 423.00
96.0091 340.00
96.3134 428.00
96.6176 408.00
96.9219 341.00
97.2261 349.00
97.5304 372.00
97.8347 538.00
98.1389 566.00
98.4432 477.00
98.7474 316.00
99.0517 340.00
99.356 321.00
99.6602 348.00
99.9645 440.00
100.095 587.00