File: data/xrd_creation/results/NSC_74.xy
9.903433 2745.00
10.2077 2746.00
10.512 2690.00
10.8162 2459.00
11.1205 2294.00
11.4247 2154.00
11.729 2113.00
12.0333 1984.00
12.3375 1970.00
12.6418 1790.00
12.946 2060.00
13.2503 1750.00
13.5546 1652.00
13.8588 1657.00
14.1631 1600.00
14.4673 1564.00
14.7716 1520.00
15.0759 1447.00
15.3801 1494.00
15.6844 1455.00
15.9886 1417.00
16.2929 1334.00
16.5972 1365.00
16.9014 1294.00
17.2057 1276.00
17.5099 1246.00
17.8142 1232.00
18.1185 1184.00
18.4227 1155.00
18.727 1145.00
19.0312 1234.00
19.3355 1154.00
19.6398 1085.00
19.944 1375.00
20.2483 1107.00
20.5525 1471.00
20.8568 5486.00
21.1611 3345.00
21.4653 1128.00
21.7696 1025.00
22.0738 1024.00
22.3781 1071.00
22.6824 1302.00
22.9866 954.00
23.2909 1156.00
23.5951 1045.00
23.8994 971.00
24.2037 924.00
24.5079 918.00
24.8122 892.00
25.1164 1152.00
25.4207 866.00
25.725 902.00
26.0292 861.00
26.3335 840.00
26.6378 898.00
26.942 739.00
27.2463 726.00
27.5505 827.00
27.8548 728.00
28.1591 768.00
28.4633 730.00
28.7676 763.00
29.0718 766.00
29.3761 747.00
29.6804 730.00
29.9846 730.00
30.2889 740.00
30.5931 687.00
30.8974 703.00
31.2017 723.00
31.5059 733.00
31.8102 746.00
32.1144 899.00
32.4187 1325.00
32.723 736.00
33.0272 683.00
33.3315 600.00
33.6357 648.00
33.94 674.00
34.2443 1294.00
34.5485 1835.00
34.8528 1355.00
35.157 820.00
35.4613 617.00
35.7656 592.00
36.0698 558.00
36.3741 581.00
36.6783 527.00
36.9826 511.00
37.2869 519.00
37.5911 506.00
37.8954 604.00
38.1996 519.00
38.5039 534.00
38.8082 504.00
39.1124 465.00
39.4167 436.00
39.7209 520.00
40.0252 528.00
40.3295 496.00
40.6337 640.00
40.938 483.00
41.2422 463.00
41.5465 484.00
41.8508 443.00
42.155 466.00
42.4593 502.00
42.7635 527.00
43.0678 494.00
43.3721 393.00
43.6763 451.00
43.9806 444.00
44.2849 450.00
44.5891 514.00
44.8934 464.00
45.1976 426.00
45.5019 426.00
45.8062 381.00
46.1104 413.00
46.4147 500.00
46.7189 438.00
47.0232 416.00
47.3275 382.00
47.6317 384.00
47.936 439.00
48.2402 404.00
48.5445 427.00
48.8488 411.00
49.153 395.00
49.4573 394.00
49.7615 408.00
50.0658 460.00
50.3701 481.00
50.6743 435.00
50.9786 317.00
51.2828 353.00
51.5871 359.00
51.8914 392.00
52.1956 402.00
52.4999 410.00
52.8041 361.00
53.1084 405.00
53.4127 380.00
53.7169 379.00
54.0212 352.00
54.3254 367.00
54.6297 385.00
54.934 354.00
55.2382 306.00
55.5425 356.00
55.8467 329.00
56.151 360.00
56.4553 341.00
56.7595 302.00
57.0638 329.00
57.368 350.00
57.6723 403.00
57.9766 384.00
58.2808 316.00
58.5851 328.00
58.8893 332.00
59.1936 265.00
59.4979 313.00
59.8021 298.00
60.1064 324.00
60.4106 315.00
60.7149 302.00
61.0192 283.00
61.3234 324.00
61.6277 353.00
61.932 357.00
62.2362 445.00
62.5405 357.00
62.8447 345.00
63.149 300.00
63.4533 257.00
63.7575 309.00
64.0618 288.00
64.366 291.00
64.6703 258.00
64.9745 260.00
65.2788 279.00
65.5831 242.00
65.8873 246.00
66.1916 308.00
66.4959 308.00
66.8001 296.00
67.1044 267.00
67.4086 245.00
67.7129 270.00
68.0172 316.00
68.3214 263.00
68.6257 267.00
68.9299 283.00
69.2342 313.00
69.5385 272.00
69.8427 269.00
70.147 233.00
70.4512 237.00
70.7555 245.00
71.0598 270.00
71.364 269.00
71.6683 234.00
71.9725 276.00
72.2768 286.00
72.5811 290.00
72.8853 268.00
73.1896 290.00
73.4938 309.00
73.7981 264.00
74.1024 278.00
74.4066 262.00
74.7109 276.00
75.0151 239.00
75.3194 256.00
75.6237 247.00
75.9279 245.00
76.2322 273.00
76.5364 281.00
76.8407 291.00
77.145 298.00
77.4492 291.00
77.7535 281.00
78.0577 290.00
78.362 249.00
78.6663 286.00
78.9705 256.00
79.2748 282.00
79.579 258.00
79.8833 231.00
80.1876 273.00
80.4918 242.00
80.7961 242.00
81.1003 278.00
81.4046 276.00
81.7089 243.00
82.0131 265.00
82.3174 244.00
82.6217 264.00
82.9259 249.00
83.2302 266.00
83.5344 281.00
83.8387 271.00
84.143 264.00
84.4472 283.00
84.7515 286.00
85.0557 278.00
85.36 256.00
85.6643 210.00
85.9685 266.00
86.2728 236.00
86.577 258.00
86.8813 240.00
87.1856 273.00
87.4898 222.00
87.7941 268.00
88.0983 240.00
88.4026 238.00
88.7069 196.00
89.0111 214.00
89.3154 200.00
89.6196 205.00
89.9239 244.00
90.2282 222.00
90.5324 239.00
90.8367 195.00
91.1409 240.00
91.4452 227.00
91.7495 225.00
92.0537 200.00
92.358 211.00
92.6622 215.00
92.9665 208.00
93.2708 212.00
93.575 217.00
93.8793 236.00
94.1835 214.00
94.4878 227.00
94.7921 238.00
95.0963 234.00
95.4006 226.00
95.7048 233.00
96.0091 197.00
96.3134 229.00
96.6176 211.00
96.9219 215.00
97.2261 224.00
97.5304 241.00
97.8347 228.00
98.1389 203.00
98.4432 219.00
98.7474 226.00
99.0517 227.00
99.356 204.00
99.6602 196.00
99.9645 184.00
100.095 192.00