File: data/xrd_creation/results/NSC_52.xy
9.903433 2814.00
10.2077 2928.00
10.512 2761.00
10.8162 2530.00
11.1205 2546.00
11.4247 2287.00
11.729 2279.00
12.0333 2265.00
12.3375 2058.00
12.6418 2088.00
12.946 2019.00
13.2503 1929.00
13.5546 1983.00
13.8588 1859.00
14.1631 1860.00
14.4673 2133.00
14.7716 1898.00
15.0759 1865.00
15.3801 1748.00
15.6844 1629.00
15.9886 1686.00
16.2929 1718.00
16.5972 1619.00
16.9014 1602.00
17.2057 1650.00
17.5099 1526.00
17.8142 1547.00
18.1185 1436.00
18.4227 1482.00
18.727 1444.00
19.0312 1812.00
19.3355 1727.00
19.6398 1662.00
19.944 1451.00
20.2483 1513.00
20.5525 2201.00
20.8568 2768.00
21.1611 2924.00
21.4653 1565.00
21.7696 1501.00
22.0738 3016.00
22.3781 1553.00
22.6824 1529.00
22.9866 1269.00
23.2909 1311.00
23.5951 1379.00
23.8994 1964.00
24.2037 1238.00
24.5079 1230.00
24.8122 1202.00
25.1164 1131.00
25.4207 1436.00
25.725 1321.00
26.0292 1214.00
26.3335 1196.00
26.6378 1171.00
26.942 1244.00
27.2463 1194.00
27.5505 1443.00
27.8548 1234.00
28.1591 2208.00
28.4633 1230.00
28.7676 1075.00
29.0718 1217.00
29.3761 1123.00
29.6804 1106.00
29.9846 1105.00
30.2889 2013.00
30.5931 3616.00
30.8974 1216.00
31.2017 1393.00
31.5059 1622.00
31.8102 1330.00
32.1144 1201.00
32.4187 1312.00
32.723 2278.00
33.0272 1924.00
33.3315 1794.00
33.6357 1976.00
33.94 3020.00
34.2443 1918.00
34.5485 1032.00
34.8528 1066.00
35.157 1114.00
35.4613 1089.00
35.7656 1060.00
36.0698 933.00
36.3741 1051.00
36.6783 1001.00
36.9826 864.00
37.2869 850.00
37.5911 847.00
37.8954 833.00
38.1996 930.00
38.5039 841.00
38.8082 838.00
39.1124 877.00
39.4167 1059.00
39.7209 891.00
40.0252 855.00
40.3295 1050.00
40.6337 1414.00
40.938 1227.00
41.2422 947.00
41.5465 945.00
41.8508 862.00
42.155 763.00
42.4593 790.00
42.7635 870.00
43.0678 1164.00
43.3721 954.00
43.6763 882.00
43.9806 858.00
44.2849 1024.00
44.5891 956.00
44.8934 999.00
45.1976 1067.00
45.5019 1061.00
45.8062 956.00
46.1104 1004.00
46.4147 1098.00
46.7189 1136.00
47.0232 1064.00
47.3275 797.00
47.6317 839.00
47.936 967.00
48.2402 795.00
48.5445 762.00
48.8488 1173.00
49.153 991.00
49.4573 806.00
49.7615 774.00
50.0658 1015.00
50.3701 958.00
50.6743 971.00
50.9786 857.00
51.2828 846.00
51.5871 948.00
51.8914 959.00
52.1956 851.00
52.4999 878.00
52.8041 948.00
53.1084 1115.00
53.4127 1130.00
53.7169 947.00
54.0212 899.00
54.3254 870.00
54.6297 913.00
54.934 727.00
55.2382 886.00
55.5425 841.00
55.8467 886.00
56.151 832.00
56.4553 747.00
56.7595 817.00
57.0638 1186.00
57.368 1047.00
57.6723 876.00
57.9766 900.00
58.2808 802.00
58.5851 913.00
58.8893 869.00
59.1936 780.00
59.4979 857.00
59.8021 1073.00
60.1064 1009.00
60.4106 861.00
60.7149 929.00
61.0192 939.00
61.3234 909.00
61.6277 765.00
61.932 778.00
62.2362 783.00
62.5405 796.00
62.8447 775.00
63.149 686.00
63.4533 705.00
63.7575 710.00
64.0618 837.00
64.366 760.00
64.6703 766.00
64.9745 769.00
65.2788 878.00
65.5831 783.00
65.8873 706.00
66.1916 677.00
66.4959 673.00
66.8001 686.00
67.1044 712.00
67.4086 703.00
67.7129 559.00
68.0172 614.00
68.3214 656.00
68.6257 635.00
68.9299 662.00
69.2342 610.00
69.5385 618.00
69.8427 710.00
70.147 615.00
70.4512 611.00
70.7555 646.00
71.0598 726.00
71.364 752.00
71.6683 727.00
71.9725 729.00
72.2768 615.00
72.5811 617.00
72.8853 585.00
73.1896 620.00
73.4938 632.00
73.7981 626.00
74.1024 571.00
74.4066 581.00
74.7109 605.00
75.0151 616.00
75.3194 643.00
75.6237 642.00
75.9279 636.00
76.2322 640.00
76.5364 599.00
76.8407 573.00
77.145 587.00
77.4492 622.00
77.7535 619.00
78.0577 619.00
78.362 611.00
78.6663 617.00
78.9705 665.00
79.2748 591.00
79.579 590.00
79.8833 557.00
80.1876 613.00
80.4918 593.00
80.7961 566.00
81.1003 573.00
81.4046 625.00
81.7089 636.00
82.0131 659.00
82.3174 601.00
82.6217 612.00
82.9259 633.00
83.2302 580.00
83.5344 609.00
83.8387 527.00
84.143 514.00
84.4472 543.00
84.7515 561.00
85.0557 565.00
85.36 531.00
85.6643 550.00
85.9685 569.00
86.2728 572.00
86.577 569.00
86.8813 551.00
87.1856 525.00
87.4898 552.00
87.7941 605.00
88.0983 580.00
88.4026 635.00
88.7069 586.00
89.0111 553.00
89.3154 624.00
89.6196 594.00
89.9239 653.00
90.2282 603.00
90.5324 592.00
90.8367 553.00
91.1409 577.00
91.4452 582.00
91.7495 573.00
92.0537 577.00
92.358 548.00
92.6622 560.00
92.9665 590.00
93.2708 582.00
93.575 546.00
93.8793 553.00
94.1835 524.00
94.4878 532.00
94.7921 552.00
95.0963 561.00
95.4006 493.00
95.7048 506.00
96.0091 538.00
96.3134 558.00
96.6176 608.00
96.9219 591.00
97.2261 550.00
97.5304 518.00
97.8347 529.00
98.1389 517.00
98.4432 550.00
98.7474 537.00
99.0517 552.00
99.356 608.00
99.6602 582.00
99.9645 540.00
100.095 539.00