File: data/xrd_creation/results/NSC_217.xy
9.903433 2721.00
10.2077 2522.00
10.512 2526.00
10.8162 2457.00
11.1205 2264.00
11.4247 2257.00
11.729 2132.00
12.0333 2147.00
12.3375 2011.00
12.6418 2068.00
12.946 1965.00
13.2503 1923.00
13.5546 2085.00
13.8588 2808.00
14.1631 1857.00
14.4673 1795.00
14.7716 1898.00
15.0759 1860.00
15.3801 1673.00
15.6844 1754.00
15.9886 1645.00
16.2929 1579.00
16.5972 1685.00
16.9014 1637.00
17.2057 1601.00
17.5099 1612.00
17.8142 1652.00
18.1185 1541.00
18.4227 1471.00
18.727 1519.00
19.0312 2032.00
19.3355 4486.00
19.6398 6166.00
19.944 3371.00
20.2483 1523.00
20.5525 1590.00
20.8568 1632.00
21.1611 1669.00
21.4653 1868.00
21.7696 1583.00
22.0738 1418.00
22.3781 1662.00
22.6824 1856.00
22.9866 2532.00
23.2909 1758.00
23.5951 1355.00
23.8994 1458.00
24.2037 1740.00
24.5079 1542.00
24.8122 1599.00
25.1164 1287.00
25.4207 1259.00
25.725 1242.00
26.0292 1266.00
26.3335 1187.00
26.6378 1216.00
26.942 1209.00
27.2463 1336.00
27.5505 2114.00
27.8548 4413.00
28.1591 1799.00
28.4633 3401.00
28.7676 1754.00
29.0718 1242.00
29.3761 1174.00
29.6804 1176.00
29.9846 1241.00
30.2889 1455.00
30.5931 2855.00
30.8974 6486.00
31.2017 2770.00
31.5059 1740.00
31.8102 2801.00
32.1144 1360.00
32.4187 1240.00
32.723 1160.00
33.0272 1329.00
33.3315 1411.00
33.6357 1449.00
33.94 1815.00
34.2443 4961.00
34.5485 4660.00
34.8528 1689.00
35.157 1152.00
35.4613 1257.00
35.7656 1425.00
36.0698 1071.00
36.3741 1151.00
36.6783 1033.00
36.9826 1010.00
37.2869 958.00
37.5911 988.00
37.8954 962.00
38.1996 949.00
38.5039 951.00
38.8082 1060.00
39.1124 1151.00
39.4167 1186.00
39.7209 1154.00
40.0252 1144.00
40.3295 1009.00
40.6337 1065.00
40.938 1275.00
41.2422 1556.00
41.5465 1749.00
41.8508 1616.00
42.155 1361.00
42.4593 1103.00
42.7635 934.00
43.0678 917.00
43.3721 957.00
43.6763 1035.00
43.9806 1052.00
44.2849 1555.00
44.5891 2052.00
44.8934 1800.00
45.1976 1114.00
45.5019 1076.00
45.8062 1207.00
46.1104 1367.00
46.4147 1664.00
46.7189 2673.00
47.0232 2275.00
47.3275 1337.00
47.6317 896.00
47.936 1012.00
48.2402 975.00
48.5445 1027.00
48.8488 933.00
49.153 1159.00
49.4573 1257.00
49.7615 1352.00
50.0658 1049.00
50.3701 1821.00
50.6743 2682.00
50.9786 2116.00
51.2828 1138.00
51.5871 995.00
51.8914 990.00
52.1956 904.00
52.4999 936.00
52.8041 1040.00
53.1084 1384.00
53.4127 2064.00
53.7169 2294.00
54.0212 1424.00
54.3254 1101.00
54.6297 1138.00
54.934 990.00
55.2382 1045.00
55.5425 1148.00
55.8467 1269.00
56.151 1116.00
56.4553 1095.00
56.7595 930.00
57.0638 975.00
57.368 1198.00
57.6723 1240.00
57.9766 1106.00
58.2808 1251.00
58.5851 1588.00
58.8893 1879.00
59.1936 2136.00
59.4979 1665.00
59.8021 1196.00
60.1064 1222.00
60.4106 1362.00
60.7149 1196.00
61.0192 1278.00
61.3234 1466.00
61.6277 1760.00
61.932 1381.00
62.2362 1292.00
62.5405 1351.00
62.8447 1142.00
63.149 1070.00
63.4533 1013.00
63.7575 864.00
64.0618 832.00
64.366 996.00
64.6703 1030.00
64.9745 1192.00
65.2788 1217.00
65.5831 1288.00
65.8873 1338.00
66.1916 1544.00
66.4959 1359.00
66.8001 1096.00
67.1044 930.00
67.4086 920.00
67.7129 881.00
68.0172 887.00
68.3214 937.00
68.6257 1128.00
68.9299 1118.00
69.2342 936.00
69.5385 943.00
69.8427 901.00
70.147 920.00
70.4512 886.00
70.7555 903.00
71.0598 827.00
71.364 893.00
71.6683 1032.00
71.9725 1106.00
72.2768 1275.00
72.5811 1213.00
72.8853 1117.00
73.1896 1042.00
73.4938 925.00
73.7981 944.00
74.1024 891.00
74.4066 901.00
74.7109 884.00
75.0151 939.00
75.3194 984.00
75.6237 1098.00
75.9279 1111.00
76.2322 1015.00
76.5364 983.00
76.8407 1026.00
77.145 997.00
77.4492 896.00
77.7535 872.00
78.0577 893.00
78.362 888.00
78.6663 949.00
78.9705 924.00
79.2748 984.00
79.579 1069.00
79.8833 1021.00
80.1876 1015.00
80.4918 1129.00
80.7961 1128.00
81.1003 1015.00
81.4046 851.00
81.7089 869.00
82.0131 987.00
82.3174 997.00
82.6217 933.00
82.9259 933.00
83.2302 950.00
83.5344 891.00
83.8387 881.00
84.143 901.00
84.4472 859.00
84.7515 912.00
85.0557 866.00
85.36 949.00
85.6643 963.00
85.9685 999.00
86.2728 976.00
86.577 1119.00
86.8813 1166.00
87.1856 1020.00
87.4898 970.00
87.7941 979.00
88.0983 874.00
88.4026 899.00
88.7069 935.00
89.0111 1069.00
89.3154 1058.00
89.6196 1049.00
89.9239 967.00
90.2282 951.00
90.5324 978.00
90.8367 944.00
91.1409 874.00
91.4452 895.00
91.7495 876.00
92.0537 935.00
92.358 975.00
92.6622 1042.00
92.9665 1036.00
93.2708 1040.00
93.575 1007.00
93.8793 987.00
94.1835 898.00
94.4878 931.00
94.7921 931.00
95.0963 938.00
95.4006 956.00
95.7048 919.00
96.0091 959.00
96.3134 945.00
96.6176 915.00
96.9219 916.00
97.2261 927.00
97.5304 917.00
97.8347 952.00
98.1389 958.00
98.4432 914.00
98.7474 912.00
99.0517 1020.00
99.356 1108.00
99.6602 1174.00
99.9645 1242.00
100.095 1273.00