File: data/xrd_creation/results/NSC_150.xy
9.903433 2471.00
10.2077 2483.00
10.512 2404.00
10.8162 2244.00
11.1205 2181.00
11.4247 2049.00
11.729 2036.00
12.0333 1936.00
12.3375 1816.00
12.6418 1809.00
12.946 1718.00
13.2503 1690.00
13.5546 1636.00
13.8588 1710.00
14.1631 1566.00
14.4673 1582.00
14.7716 1481.00
15.0759 1495.00
15.3801 1488.00
15.6844 1403.00
15.9886 1435.00
16.2929 1402.00
16.5972 1317.00
16.9014 1361.00
17.2057 1335.00
17.5099 1338.00
17.8142 1307.00
18.1185 1296.00
18.4227 1305.00
18.727 1309.00
19.0312 1267.00
19.3355 1290.00
19.6398 1272.00
19.944 1182.00
20.2483 1169.00
20.5525 1215.00
20.8568 1245.00
21.1611 1207.00
21.4653 1139.00
21.7696 1076.00
22.0738 1138.00
22.3781 1403.00
22.6824 6208.00
22.9866 6765.00
23.2909 2564.00
23.5951 1172.00
23.8994 1117.00
24.2037 1052.00
24.5079 1123.00
24.8122 1038.00
25.1164 1080.00
25.4207 1030.00
25.725 1052.00
26.0292 1029.00
26.3335 1037.00
26.6378 1011.00
26.942 1012.00
27.2463 988.00
27.5505 970.00
27.8548 968.00
28.1591 962.00
28.4633 907.00
28.7676 902.00
29.0718 924.00
29.3761 883.00
29.6804 878.00
29.9846 890.00
30.2889 951.00
30.5931 843.00
30.8974 905.00
31.2017 887.00
31.5059 911.00
31.8102 1029.00
32.1144 1329.00
32.4187 8928.00
32.723 10672.00
33.0272 2118.00
33.3315 1005.00
33.6357 822.00
33.94 788.00
34.2443 818.00
34.5485 801.00
34.8528 861.00
35.157 760.00
35.4613 801.00
35.7656 778.00
36.0698 759.00
36.3741 743.00
36.6783 765.00
36.9826 753.00
37.2869 781.00
37.5911 709.00
37.8954 693.00
38.1996 696.00
38.5039 788.00
38.8082 723.00
39.1124 670.00
39.4167 731.00
39.7209 754.00
40.0252 1678.00
40.3295 2026.00
40.6337 988.00
40.938 686.00
41.2422 652.00
41.5465 703.00
41.8508 662.00
42.155 681.00
42.4593 620.00
42.7635 640.00
43.0678 655.00
43.3721 677.00
43.6763 690.00
43.9806 637.00
44.2849 716.00
44.5891 640.00
44.8934 639.00
45.1976 645.00
45.5019 688.00
45.8062 727.00
46.1104 715.00
46.4147 1323.00
46.7189 4104.00
47.0232 2975.00
47.3275 736.00
47.6317 719.00
47.936 689.00
48.2402 680.00
48.5445 685.00
48.8488 641.00
49.153 682.00
49.4573 658.00
49.7615 633.00
50.0658 691.00
50.3701 665.00
50.6743 673.00
50.9786 698.00
51.2828 704.00
51.5871 706.00
51.8914 744.00
52.1956 1103.00
52.4999 4744.00
52.8041 6017.00
53.1084 1281.00
53.4127 712.00
53.7169 702.00
54.0212 652.00
54.3254 682.00
54.6297 636.00
54.934 669.00
55.2382 627.00
55.5425 639.00
55.8467 637.00
56.151 650.00
56.4553 641.00
56.7595 693.00
57.0638 667.00
57.368 799.00
57.6723 1317.00
57.9766 4686.00
58.2808 5150.00
58.5851 1468.00
58.8893 701.00
59.1936 655.00
59.4979 624.00
59.8021 658.00
60.1064 658.00
60.4106 656.00
60.7149 688.00
61.0192 683.00
61.3234 624.00
61.6277 617.00
61.932 609.00
62.2362 629.00
62.5405 650.00
62.8447 652.00
63.149 700.00
63.4533 663.00
63.7575 672.00
64.0618 650.00
64.366 596.00
64.6703 633.00
64.9745 630.00
65.2788 630.00
65.5831 615.00
65.8873 641.00
66.1916 634.00
66.4959 655.00
66.8001 694.00
67.1044 613.00
67.4086 638.00
67.7129 877.00
68.0172 2225.00
68.3214 2771.00
68.6257 1122.00
68.9299 695.00
69.2342 649.00
69.5385 597.00
69.8427 610.00
70.147 675.00
70.4512 599.00
70.7555 661.00
71.0598 666.00
71.364 640.00
71.6683 684.00
71.9725 667.00
72.2768 742.00
72.5811 1332.00
72.8853 2878.00
73.1896 2327.00
73.4938 1001.00
73.7981 671.00
74.1024 639.00
74.4066 665.00
74.7109 643.00
75.0151 694.00
75.3194 670.00
75.6237 677.00
75.9279 661.00
76.2322 671.00
76.5364 623.00
76.8407 645.00
77.145 839.00
77.4492 2303.00
77.7535 2585.00
78.0577 1100.00
78.362 678.00
78.6663 652.00
78.9705 696.00
79.2748 643.00
79.579 633.00
79.8833 587.00
80.1876 599.00
80.4918 622.00
80.7961 677.00
81.1003 655.00
81.4046 682.00
81.7089 803.00
82.0131 1460.00
82.3174 1516.00
82.6217 962.00
82.9259 737.00
83.2302 668.00
83.5344 641.00
83.8387 655.00
84.143 630.00
84.4472 624.00
84.7515 648.00
85.0557 677.00
85.36 644.00
85.6643 627.00
85.9685 750.00
86.2728 926.00
86.577 1071.00
86.8813 1073.00
87.1856 852.00
87.4898 673.00
87.7941 593.00
88.0983 632.00
88.4026 622.00
88.7069 659.00
89.0111 658.00
89.3154 639.00
89.6196 622.00
89.9239 697.00
90.2282 635.00
90.5324 727.00
90.8367 1074.00
91.1409 1753.00
91.4452 1226.00
91.7495 883.00
92.0537 665.00
92.358 693.00
92.6622 714.00
92.9665 614.00
93.2708 638.00
93.575 666.00
93.8793 663.00
94.1835 617.00
94.4878 635.00
94.7921 794.00
95.0963 1096.00
95.4006 2254.00
95.7048 2750.00
96.0091 2124.00
96.3134 1182.00
96.6176 822.00
96.9219 693.00
97.2261 702.00
97.5304 654.00
97.8347 696.00
98.1389 662.00
98.4432 634.00
98.7474 616.00
99.0517 689.00
99.356 642.00
99.6602 691.00
99.9645 693.00
100.095 665.00