File: data/xrd_creation/results/NSC_116.xy
9.903433 2828.00
10.2077 2714.00
10.512 2585.00
10.8162 2491.00
11.1205 2719.00
11.4247 3974.00
11.729 11637.00
12.0333 2437.00
12.3375 2202.00
12.6418 2113.00
12.946 2084.00
13.2503 2028.00
13.5546 1996.00
13.8588 1878.00
14.1631 1837.00
14.4673 1848.00
14.7716 2147.00
15.0759 1837.00
15.3801 2141.00
15.6844 1815.00
15.9886 1768.00
16.2929 2813.00
16.5972 4452.00
16.9014 1776.00
17.2057 1672.00
17.5099 1607.00
17.8142 1645.00
18.1185 2423.00
18.4227 1669.00
18.727 1428.00
19.0312 1420.00
19.3355 1442.00
19.6398 1335.00
19.944 1455.00
20.2483 1648.00
20.5525 1461.00
20.8568 1525.00
21.1611 1694.00
21.4653 1247.00
21.7696 1351.00
22.0738 1527.00
22.3781 1308.00
22.6824 1253.00
22.9866 1230.00
23.2909 1294.00
23.5951 1401.00
23.8994 1184.00
24.2037 1231.00
24.5079 1893.00
24.8122 1699.00
25.1164 1208.00
25.4207 1344.00
25.725 1453.00
26.0292 7089.00
26.3335 1572.00
26.6378 1537.00
26.942 2548.00
27.2463 1491.00
27.5505 1270.00
27.8548 4756.00
28.1591 3708.00
28.4633 1233.00
28.7676 975.00
29.0718 1015.00
29.3761 976.00
29.6804 1084.00
29.9846 1124.00
30.2889 2193.00
30.5931 1226.00
30.8974 962.00
31.2017 977.00
31.5059 2176.00
31.8102 1533.00
32.1144 1410.00
32.4187 1399.00
32.723 1075.00
33.0272 7775.00
33.3315 1414.00
33.6357 1048.00
33.94 1369.00
34.2443 2609.00
34.5485 7895.00
34.8528 2695.00
35.157 1095.00
35.4613 926.00
35.7656 781.00
36.0698 835.00
36.3741 1265.00
36.6783 1097.00
36.9826 1217.00
37.2869 1359.00
37.5911 835.00
37.8954 995.00
38.1996 929.00
38.5039 806.00
38.8082 947.00
39.1124 913.00
39.4167 741.00
39.7209 760.00
40.0252 706.00
40.3295 736.00
40.6337 920.00
40.938 728.00
41.2422 765.00
41.5465 774.00
41.8508 1284.00
42.155 1462.00
42.4593 1664.00
42.7635 769.00
43.0678 717.00
43.3721 784.00
43.6763 1147.00
43.9806 821.00
44.2849 711.00
44.5891 634.00
44.8934 876.00
45.1976 1209.00
45.5019 938.00
45.8062 755.00
46.1104 706.00
46.4147 741.00
46.7189 709.00
47.0232 1192.00
47.3275 1571.00
47.6317 2483.00
47.936 761.00
48.2402 647.00
48.5445 840.00
48.8488 703.00
49.153 1138.00
49.4573 797.00
49.7615 1675.00
50.0658 1559.00
50.3701 1633.00
50.6743 688.00
50.9786 584.00
51.2828 781.00
51.5871 679.00
51.8914 1581.00
52.1956 1413.00
52.4999 936.00
52.8041 608.00
53.1084 1217.00
53.4127 989.00
53.7169 730.00
54.0212 769.00
54.3254 703.00
54.6297 690.00
54.934 853.00
55.2382 732.00
55.5425 1217.00
55.8467 635.00
56.151 764.00
56.4553 844.00
56.7595 759.00
57.0638 996.00
57.368 987.00
57.6723 684.00
57.9766 860.00
58.2808 927.00
58.5851 1504.00
58.8893 1026.00
59.1936 1021.00
59.4979 1734.00
59.8021 1675.00
60.1064 1248.00
60.4106 1181.00
60.7149 735.00
61.0192 753.00
61.3234 531.00
61.6277 732.00
61.932 757.00
62.2362 746.00
62.5405 867.00
62.8447 665.00
63.149 975.00
63.4533 543.00
63.7575 651.00
64.0618 729.00
64.366 682.00
64.6703 612.00
64.9745 920.00
65.2788 752.00
65.5831 847.00
65.8873 922.00
66.1916 951.00
66.4959 666.00
66.8001 676.00
67.1044 655.00
67.4086 684.00
67.7129 546.00
68.0172 736.00
68.3214 553.00
68.6257 631.00
68.9299 740.00
69.2342 588.00
69.5385 479.00
69.8427 518.00
70.147 473.00
70.4512 481.00
70.7555 503.00
71.0598 517.00
71.364 496.00
71.6683 533.00
71.9725 502.00
72.2768 630.00
72.5811 558.00
72.8853 439.00
73.1896 555.00
73.4938 713.00
73.7981 421.00
74.1024 478.00
74.4066 552.00
74.7109 569.00
75.0151 532.00
75.3194 647.00
75.6237 558.00
75.9279 444.00
76.2322 493.00
76.5364 532.00
76.8407 573.00
77.145 560.00
77.4492 681.00
77.7535 469.00
78.0577 519.00
78.362 510.00
78.6663 598.00
78.9705 753.00
79.2748 642.00
79.579 519.00
79.8833 446.00
80.1876 595.00
80.4918 544.00
80.7961 464.00
81.1003 468.00
81.4046 447.00
81.7089 484.00
82.0131 494.00
82.3174 426.00
82.6217 518.00
82.9259 489.00
83.2302 442.00
83.5344 443.00
83.8387 515.00
84.143 571.00
84.4472 471.00
84.7515 610.00
85.0557 526.00
85.36 482.00
85.6643 448.00
85.9685 465.00
86.2728 457.00
86.577 557.00
86.8813 511.00
87.1856 568.00
87.4898 486.00
87.7941 446.00
88.0983 434.00
88.4026 509.00
88.7069 571.00
89.0111 533.00
89.3154 529.00
89.6196 533.00
89.9239 474.00
90.2282 543.00
90.5324 560.00
90.8367 538.00
91.1409 537.00
91.4452 539.00
91.7495 545.00
92.0537 536.00
92.358 443.00
92.6622 478.00
92.9665 490.00
93.2708 430.00
93.575 439.00
93.8793 424.00
94.1835 437.00
94.4878 439.00
94.7921 434.00
95.0963 462.00
95.4006 475.00
95.7048 484.00
96.0091 530.00
96.3134 541.00
96.6176 432.00
96.9219 563.00
97.2261 578.00
97.5304 638.00
97.8347 475.00
98.1389 446.00
98.4432 470.00
98.7474 466.00
99.0517 480.00
99.356 494.00
99.6602 535.00
99.9645 513.00
100.095 515.00