File: data/xrd_creation/results/NSC_86.xy
9.903433 2781.00
10.2077 2718.00
10.512 2518.00
10.8162 2484.00
11.1205 2290.00
11.4247 2265.00
11.729 2153.00
12.0333 2173.00
12.3375 2005.00
12.6418 1945.00
12.946 1877.00
13.2503 1829.00
13.5546 1718.00
13.8588 1736.00
14.1631 1876.00
14.4673 2353.00
14.7716 1645.00
15.0759 1579.00
15.3801 1530.00
15.6844 1562.00
15.9886 1525.00
16.2929 1515.00
16.5972 1441.00
16.9014 1368.00
17.2057 1357.00
17.5099 1393.00
17.8142 1369.00
18.1185 1318.00
18.4227 1307.00
18.727 1255.00
19.0312 1283.00
19.3355 1234.00
19.6398 1360.00
19.944 3247.00
20.2483 1897.00
20.5525 1842.00
20.8568 4263.00
21.1611 1429.00
21.4653 1195.00
21.7696 1143.00
22.0738 1120.00
22.3781 1176.00
22.6824 1069.00
22.9866 1035.00
23.2909 1038.00
23.5951 1143.00
23.8994 2387.00
24.2037 3924.00
24.5079 1172.00
24.8122 977.00
25.1164 992.00
25.4207 899.00
25.725 927.00
26.0292 912.00
26.3335 1076.00
26.6378 1496.00
26.942 914.00
27.2463 824.00
27.5505 834.00
27.8548 832.00
28.1591 876.00
28.4633 865.00
28.7676 1119.00
29.0718 2969.00
29.3761 1055.00
29.6804 772.00
29.9846 803.00
30.2889 768.00
30.5931 721.00
30.8974 742.00
31.2017 715.00
31.5059 836.00
31.8102 1550.00
32.1144 3970.00
32.4187 1691.00
32.723 800.00
33.0272 714.00
33.3315 699.00
33.6357 821.00
33.94 1170.00
34.2443 678.00
34.5485 702.00
34.8528 647.00
35.157 585.00
35.4613 594.00
35.7656 785.00
36.0698 1412.00
36.3741 1601.00
36.6783 1426.00
36.9826 575.00
37.2869 571.00
37.5911 555.00
37.8954 714.00
38.1996 548.00
38.5039 572.00
38.8082 515.00
39.1124 520.00
39.4167 482.00
39.7209 438.00
40.0252 486.00
40.3295 515.00
40.6337 623.00
40.938 566.00
41.2422 513.00
41.5465 488.00
41.8508 531.00
42.155 579.00
42.4593 799.00
42.7635 579.00
43.0678 552.00
43.3721 476.00
43.6763 496.00
43.9806 621.00
44.2849 912.00
44.5891 540.00
44.8934 506.00
45.1976 437.00
45.5019 445.00
45.8062 521.00
46.1104 974.00
46.4147 871.00
46.7189 480.00
47.0232 498.00
47.3275 862.00
47.6317 615.00
47.936 627.00
48.2402 511.00
48.5445 425.00
48.8488 503.00
49.153 959.00
49.4573 1485.00
49.7615 697.00
50.0658 616.00
50.3701 454.00
50.6743 429.00
50.9786 400.00
51.2828 432.00
51.5871 572.00
51.8914 952.00
52.1956 558.00
52.4999 692.00
52.8041 1086.00
53.1084 709.00
53.4127 566.00
53.7169 449.00
54.0212 374.00
54.3254 427.00
54.6297 423.00
54.934 463.00
55.2382 375.00
55.5425 430.00
55.8467 669.00
56.151 539.00
56.4553 447.00
56.7595 878.00
57.0638 1361.00
57.368 911.00
57.6723 497.00
57.9766 437.00
58.2808 428.00
58.5851 487.00
58.8893 448.00
59.1936 372.00
59.4979 390.00
59.8021 416.00
60.1064 480.00
60.4106 476.00
60.7149 350.00
61.0192 371.00
61.3234 425.00
61.6277 790.00
61.932 750.00
62.2362 515.00
62.5405 482.00
62.8447 945.00
63.149 787.00
63.4533 481.00
63.7575 443.00
64.0618 545.00
64.366 522.00
64.6703 511.00
64.9745 467.00
65.2788 549.00
65.5831 618.00
65.8873 719.00
66.1916 563.00
66.4959 345.00
66.8001 356.00
67.1044 355.00
67.4086 401.00
67.7129 406.00
68.0172 474.00
68.3214 488.00
68.6257 424.00
68.9299 352.00
69.2342 348.00
69.5385 461.00
69.8427 463.00
70.147 365.00
70.4512 340.00
70.7555 331.00
71.0598 392.00
71.364 432.00
71.6683 318.00
71.9725 294.00
72.2768 249.00
72.5811 316.00
72.8853 309.00
73.1896 487.00
73.4938 528.00
73.7981 364.00
74.1024 260.00
74.4066 272.00
74.7109 291.00
75.0151 291.00
75.3194 309.00
75.6237 317.00
75.9279 385.00
76.2322 409.00
76.5364 352.00
76.8407 343.00
77.145 317.00
77.4492 468.00
77.7535 490.00
78.0577 457.00
78.362 344.00
78.6663 371.00
78.9705 317.00
79.2748 307.00
79.579 300.00
79.8833 317.00
80.1876 279.00
80.4918 282.00
80.7961 281.00
81.1003 399.00
81.4046 428.00
81.7089 416.00
82.0131 304.00
82.3174 282.00
82.6217 327.00
82.9259 272.00
83.2302 332.00
83.5344 401.00
83.8387 436.00
84.143 363.00
84.4472 308.00
84.7515 264.00
85.0557 278.00
85.36 274.00
85.6643 286.00
85.9685 305.00
86.2728 381.00
86.577 380.00
86.8813 326.00
87.1856 324.00
87.4898 323.00
87.7941 370.00
88.0983 366.00
88.4026 386.00
88.7069 318.00
89.0111 356.00
89.3154 304.00
89.6196 345.00
89.9239 341.00
90.2282 319.00
90.5324 280.00
90.8367 379.00
91.1409 345.00
91.4452 329.00
91.7495 297.00
92.0537 319.00
92.358 370.00
92.6622 450.00
92.9665 453.00
93.2708 401.00
93.575 323.00
93.8793 297.00
94.1835 283.00
94.4878 305.00
94.7921 319.00
95.0963 341.00
95.4006 280.00
95.7048 318.00
96.0091 339.00
96.3134 312.00
96.6176 285.00
96.9219 251.00
97.2261 285.00
97.5304 307.00
97.8347 307.00
98.1389 310.00
98.4432 330.00
98.7474 364.00
99.0517 336.00
99.356 283.00
99.6602 326.00
99.9645 381.00
100.095 389.00