File: data/xrd_creation/results/NSC_10.xy
9.903433 2714.00
10.2077 2683.00
10.512 2543.00
10.8162 2379.00
11.1205 2382.00
11.4247 2257.00
11.729 2253.00
12.0333 2227.00
12.3375 2120.00
12.6418 2027.00
12.946 2017.00
13.2503 1925.00
13.5546 1883.00
13.8588 1983.00
14.1631 2008.00
14.4673 2023.00
14.7716 1855.00
15.0759 2562.00
15.3801 2318.00
15.6844 1782.00
15.9886 1682.00
16.2929 1627.00
16.5972 1616.00
16.9014 1612.00
17.2057 1649.00
17.5099 1806.00
17.8142 1613.00
18.1185 1638.00
18.4227 1679.00
18.727 2058.00
19.0312 1827.00
19.3355 1664.00
19.6398 2584.00
19.944 2731.00
20.2483 2183.00
20.5525 4956.00
20.8568 5353.00
21.1611 2068.00
21.4653 2449.00
21.7696 7124.00
22.0738 7009.00
22.3781 1737.00
22.6824 1452.00
22.9866 1510.00
23.2909 1662.00
23.5951 2933.00
23.8994 3175.00
24.2037 2065.00
24.5079 2115.00
24.8122 1579.00
25.1164 3142.00
25.4207 6728.00
25.725 1805.00
26.0292 2710.00
26.3335 2867.00
26.6378 2507.00
26.942 1513.00
27.2463 1259.00
27.5505 1375.00
27.8548 1344.00
28.1591 1530.00
28.4633 2615.00
28.7676 2102.00
29.0718 1198.00
29.3761 1229.00
29.6804 1190.00
29.9846 1478.00
30.2889 2633.00
30.5931 3740.00
30.8974 2978.00
31.2017 1874.00
31.5059 4101.00
31.8102 1998.00
32.1144 1196.00
32.4187 1186.00
32.723 1327.00
33.0272 1752.00
33.3315 5636.00
33.6357 2343.00
33.94 1789.00
34.2443 1644.00
34.5485 1238.00
34.8528 1232.00
35.157 1394.00
35.4613 1985.00
35.7656 2354.00
36.0698 1961.00
36.3741 3248.00
36.6783 1161.00
36.9826 1076.00
37.2869 1069.00
37.5911 1281.00
37.8954 1902.00
38.1996 1818.00
38.5039 3088.00
38.8082 1234.00
39.1124 1058.00
39.4167 1097.00
39.7209 1576.00
40.0252 1204.00
40.3295 1084.00
40.6337 1288.00
40.938 1097.00
41.2422 1111.00
41.5465 1249.00
41.8508 1444.00
42.155 1359.00
42.4593 1210.00
42.7635 972.00
43.0678 1085.00
43.3721 1283.00
43.6763 1222.00
43.9806 1482.00
44.2849 1063.00
44.5891 1148.00
44.8934 1254.00
45.1976 1626.00
45.5019 1415.00
45.8062 972.00
46.1104 1323.00
46.4147 1745.00
46.7189 1199.00
47.0232 1288.00
47.3275 1048.00
47.6317 1028.00
47.936 1515.00
48.2402 2983.00
48.5445 1765.00
48.8488 1380.00
49.153 1178.00
49.4573 1749.00
49.7615 2359.00
50.0658 1155.00
50.3701 1031.00
50.6743 1137.00
50.9786 1264.00
51.2828 1246.00
51.5871 2384.00
51.8914 2276.00
52.1956 1206.00
52.4999 1024.00
52.8041 1113.00
53.1084 943.00
53.4127 999.00
53.7169 1023.00
54.0212 952.00
54.3254 1090.00
54.6297 2069.00
54.934 2122.00
55.2382 1267.00
55.5425 1578.00
55.8467 1835.00
56.151 1246.00
56.4553 954.00
56.7595 881.00
57.0638 973.00
57.368 1047.00
57.6723 945.00
57.9766 1073.00
58.2808 2387.00
58.5851 1733.00
58.8893 1424.00
59.1936 1225.00
59.4979 1113.00
59.8021 1721.00
60.1064 1947.00
60.4106 2011.00
60.7149 1192.00
61.0192 1117.00
61.3234 1432.00
61.6277 1528.00
61.932 1344.00
62.2362 1015.00
62.5405 1036.00
62.8447 1137.00
63.149 1252.00
63.4533 982.00
63.7575 1099.00
64.0618 1625.00
64.366 1809.00
64.6703 1239.00
64.9745 1021.00
65.2788 1127.00
65.5831 1188.00
65.8873 1470.00
66.1916 2524.00
66.4959 1688.00
66.8001 1140.00
67.1044 1150.00
67.4086 1187.00
67.7129 1097.00
68.0172 1093.00
68.3214 1266.00
68.6257 1264.00
68.9299 1389.00
69.2342 1396.00
69.5385 1336.00
69.8427 998.00
70.147 993.00
70.4512 1328.00
70.7555 1283.00
71.0598 989.00
71.364 977.00
71.6683 984.00
71.9725 884.00
72.2768 870.00
72.5811 880.00
72.8853 1014.00
73.1896 1106.00
73.4938 949.00
73.7981 924.00
74.1024 1013.00
74.4066 944.00
74.7109 985.00
75.0151 1089.00
75.3194 1009.00
75.6237 1103.00
75.9279 1082.00
76.2322 943.00
76.5364 948.00
76.8407 938.00
77.145 868.00
77.4492 1214.00
77.7535 1195.00
78.0577 910.00
78.362 866.00
78.6663 925.00
78.9705 1147.00
79.2748 1149.00
79.579 1062.00
79.8833 1018.00
80.1876 972.00
80.4918 897.00
80.7961 808.00
81.1003 775.00
81.4046 798.00
81.7089 914.00
82.0131 1053.00
82.3174 1030.00
82.6217 867.00
82.9259 848.00
83.2302 910.00
83.5344 922.00
83.8387 966.00
84.143 986.00
84.4472 916.00
84.7515 1030.00
85.0557 927.00
85.36 901.00
85.6643 989.00
85.9685 1002.00
86.2728 977.00
86.577 945.00
86.8813 941.00
87.1856 1031.00
87.4898 1028.00
87.7941 940.00
88.0983 806.00
88.4026 823.00
88.7069 958.00
89.0111 923.00
89.3154 837.00
89.6196 865.00
89.9239 941.00
90.2282 943.00
90.5324 894.00
90.8367 859.00
91.1409 926.00
91.4452 957.00
91.7495 1120.00
92.0537 1098.00
92.358 1114.00
92.6622 1155.00
92.9665 1079.00
93.2708 931.00
93.575 843.00
93.8793 836.00
94.1835 835.00
94.4878 912.00
94.7921 851.00
95.0963 865.00
95.4006 922.00
95.7048 939.00
96.0091 974.00
96.3134 867.00
96.6176 838.00
96.9219 853.00
97.2261 939.00
97.5304 919.00
97.8347 878.00
98.1389 930.00
98.4432 930.00
98.7474 834.00
99.0517 856.00
99.356 963.00
99.6602 965.00
99.9645 997.00
100.095 1015.00