File: data/xrd_creation/results/NSC_60.xy
9.903433 2602.00
10.2077 2543.00
10.512 2454.00
10.8162 2309.00
11.1205 2239.00
11.4247 2065.00
11.729 2045.00
12.0333 2004.00
12.3375 1899.00
12.6418 1816.00
12.946 1826.00
13.2503 1717.00
13.5546 1747.00
13.8588 2511.00
14.1631 1583.00
14.4673 1492.00
14.7716 1561.00
15.0759 1566.00
15.3801 1479.00
15.6844 1412.00
15.9886 1314.00
16.2929 1335.00
16.5972 1369.00
16.9014 1340.00
17.2057 1251.00
17.5099 1322.00
17.8142 1260.00
18.1185 1278.00
18.4227 1181.00
18.727 1247.00
19.0312 1316.00
19.3355 3664.00
19.6398 1237.00
19.944 2128.00
20.2483 2046.00
20.5525 1226.00
20.8568 1057.00
21.1611 1059.00
21.4653 1033.00
21.7696 967.00
22.0738 1017.00
22.3781 939.00
22.6824 883.00
22.9866 1170.00
23.2909 4128.00
23.5951 1051.00
23.8994 935.00
24.2037 939.00
24.5079 900.00
24.8122 900.00
25.1164 918.00
25.4207 839.00
25.725 851.00
26.0292 798.00
26.3335 772.00
26.6378 755.00
26.942 728.00
27.2463 732.00
27.5505 737.00
27.8548 984.00
28.1591 2167.00
28.4633 814.00
28.7676 734.00
29.0718 715.00
29.3761 725.00
29.6804 721.00
29.9846 763.00
30.2889 692.00
30.5931 717.00
30.8974 2048.00
31.2017 1892.00
31.5059 831.00
31.8102 630.00
32.1144 623.00
32.4187 600.00
32.723 614.00
33.0272 697.00
33.3315 625.00
33.6357 648.00
33.94 619.00
34.2443 572.00
34.5485 596.00
34.8528 1115.00
35.157 1156.00
35.4613 1044.00
35.7656 570.00
36.0698 495.00
36.3741 510.00
36.6783 483.00
36.9826 533.00
37.2869 498.00
37.5911 502.00
37.8954 532.00
38.1996 505.00
38.5039 431.00
38.8082 476.00
39.1124 473.00
39.4167 613.00
39.7209 417.00
40.0252 441.00
40.3295 434.00
40.6337 477.00
40.938 522.00
41.2422 578.00
41.5465 443.00
41.8508 461.00
42.155 449.00
42.4593 439.00
42.7635 678.00
43.0678 491.00
43.3721 481.00
43.6763 469.00
43.9806 410.00
44.2849 435.00
44.5891 678.00
44.8934 614.00
45.1976 443.00
45.5019 407.00
45.8062 680.00
46.1104 482.00
46.4147 549.00
46.7189 397.00
47.0232 402.00
47.3275 480.00
47.6317 738.00
47.936 750.00
48.2402 482.00
48.5445 420.00
48.8488 381.00
49.153 376.00
49.4573 385.00
49.7615 375.00
50.0658 359.00
50.3701 371.00
50.6743 390.00
50.9786 701.00
51.2828 581.00
51.5871 447.00
51.8914 380.00
52.1956 339.00
52.4999 358.00
52.8041 338.00
53.1084 332.00
53.4127 341.00
53.7169 341.00
54.0212 506.00
54.3254 412.00
54.6297 358.00
54.934 560.00
55.2382 755.00
55.5425 571.00
55.8467 328.00
56.151 338.00
56.4553 323.00
56.7595 367.00
57.0638 325.00
57.368 312.00
57.6723 402.00
57.9766 381.00
58.2808 379.00
58.5851 305.00
58.8893 322.00
59.1936 313.00
59.4979 432.00
59.8021 461.00
60.1064 342.00
60.4106 325.00
60.7149 439.00
61.0192 459.00
61.3234 346.00
61.6277 331.00
61.932 404.00
62.2362 316.00
62.5405 286.00
62.8447 299.00
63.149 335.00
63.4533 445.00
63.7575 380.00
64.0618 315.00
64.366 283.00
64.6703 330.00
64.9745 314.00
65.2788 287.00
65.5831 304.00
65.8873 387.00
66.1916 354.00
66.4959 264.00
66.8001 290.00
67.1044 312.00
67.4086 330.00
67.7129 316.00
68.0172 259.00
68.3214 249.00
68.6257 312.00
68.9299 281.00
69.2342 272.00
69.5385 289.00
69.8427 276.00
70.147 250.00
70.4512 270.00
70.7555 318.00
71.0598 337.00
71.364 287.00
71.6683 274.00
71.9725 236.00
72.2768 289.00
72.5811 243.00
72.8853 266.00
73.1896 260.00
73.4938 298.00
73.7981 332.00
74.1024 296.00
74.4066 312.00
74.7109 374.00
75.0151 361.00
75.3194 314.00
75.6237 277.00
75.9279 265.00
76.2322 284.00
76.5364 245.00
76.8407 269.00
77.145 283.00
77.4492 282.00
77.7535 270.00
78.0577 258.00
78.362 310.00
78.6663 345.00
78.9705 335.00
79.2748 268.00
79.579 294.00
79.8833 272.00
80.1876 285.00
80.4918 301.00
80.7961 299.00
81.1003 319.00
81.4046 265.00
81.7089 266.00
82.0131 284.00
82.3174 273.00
82.6217 277.00
82.9259 318.00
83.2302 338.00
83.5344 314.00
83.8387 285.00
84.143 277.00
84.4472 303.00
84.7515 293.00
85.0557 310.00
85.36 299.00
85.6643 279.00
85.9685 299.00
86.2728 269.00
86.577 271.00
86.8813 223.00
87.1856 283.00
87.4898 288.00
87.7941 271.00
88.0983 274.00
88.4026 250.00
88.7069 268.00
89.0111 319.00
89.3154 286.00
89.6196 258.00
89.9239 219.00
90.2282 221.00
90.5324 274.00
90.8367 269.00
91.1409 261.00
91.4452 272.00
91.7495 267.00
92.0537 258.00
92.358 242.00
92.6622 234.00
92.9665 221.00
93.2708 228.00
93.575 213.00
93.8793 264.00
94.1835 244.00
94.4878 226.00
94.7921 287.00
95.0963 268.00
95.4006 263.00
95.7048 284.00
96.0091 250.00
96.3134 257.00
96.6176 236.00
96.9219 237.00
97.2261 247.00
97.5304 229.00
97.8347 225.00
98.1389 249.00
98.4432 200.00
98.7474 259.00
99.0517 231.00
99.356 275.00
99.6602 256.00
99.9645 262.00
100.095 269.00