File: data/xrd_creation/results/NSC_122.xy
9.903433 2651.00
10.2077 2705.00
10.512 2516.00
10.8162 2479.00
11.1205 2350.00
11.4247 2254.00
11.729 2223.00
12.0333 2195.00
12.3375 2083.00
12.6418 2045.00
12.946 1929.00
13.2503 1953.00
13.5546 1982.00
13.8588 1857.00
14.1631 1836.00
14.4673 1832.00
14.7716 2406.00
15.0759 7270.00
15.3801 3156.00
15.6844 1845.00
15.9886 1703.00
16.2929 1725.00
16.5972 1721.00
16.9014 1722.00
17.2057 1592.00
17.5099 1687.00
17.8142 2228.00
18.1185 1595.00
18.4227 1795.00
18.727 1544.00
19.0312 1460.00
19.3355 1481.00
19.6398 1489.00
19.944 1542.00
20.2483 1718.00
20.5525 2422.00
20.8568 18144.00
21.1611 3366.00
21.4653 3197.00
21.7696 8667.00
22.0738 7519.00
22.3781 1762.00
22.6824 1553.00
22.9866 1454.00
23.2909 1433.00
23.5951 1589.00
23.8994 1597.00
24.2037 1444.00
24.5079 1964.00
24.8122 3335.00
25.1164 12110.00
25.4207 8128.00
25.725 1614.00
26.0292 1356.00
26.3335 1389.00
26.6378 1399.00
26.942 1301.00
27.2463 1359.00
27.5505 1222.00
27.8548 1181.00
28.1591 1187.00
28.4633 1106.00
28.7676 1260.00
29.0718 1221.00
29.3761 1320.00
29.6804 1654.00
29.9846 3850.00
30.2889 9789.00
30.5931 4642.00
30.8974 1510.00
31.2017 1281.00
31.5059 1214.00
31.8102 1284.00
32.1144 1426.00
32.4187 1165.00
32.723 1302.00
33.0272 2701.00
33.3315 12056.00
33.6357 5151.00
33.94 2223.00
34.2443 1690.00
34.5485 1119.00
34.8528 1094.00
35.157 1038.00
35.4613 1034.00
35.7656 1854.00
36.0698 1175.00
36.3741 1103.00
36.6783 1068.00
36.9826 1407.00
37.2869 2204.00
37.5911 3421.00
37.8954 2880.00
38.1996 3000.00
38.5039 2119.00
38.8082 1443.00
39.1124 1001.00
39.4167 1058.00
39.7209 1025.00
40.0252 1136.00
40.3295 1459.00
40.6337 1266.00
40.938 1012.00
41.2422 860.00
41.5465 940.00
41.8508 953.00
42.155 1447.00
42.4593 1248.00
42.7635 1033.00
43.0678 907.00
43.3721 841.00
43.6763 1180.00
43.9806 2173.00
44.2849 1359.00
44.5891 1102.00
44.8934 1265.00
45.1976 1056.00
45.5019 1107.00
45.8062 1309.00
46.1104 1761.00
46.4147 1456.00
46.7189 1228.00
47.0232 1122.00
47.3275 1086.00
47.6317 1741.00
47.936 2817.00
48.2402 1860.00
48.5445 1300.00
48.8488 1362.00
49.153 1787.00
49.4573 2748.00
49.7615 2059.00
50.0658 1217.00
50.3701 958.00
50.6743 1207.00
50.9786 1879.00
51.2828 2370.00
51.5871 2320.00
51.8914 1834.00
52.1956 1256.00
52.4999 1001.00
52.8041 955.00
53.1084 914.00
53.4127 825.00
53.7169 846.00
54.0212 987.00
54.3254 1590.00
54.6297 3049.00
54.934 2128.00
55.2382 1351.00
55.5425 1199.00
55.8467 1203.00
56.151 1078.00
56.4553 896.00
56.7595 934.00
57.0638 980.00
57.368 1066.00
57.6723 1233.00
57.9766 1707.00
58.2808 1674.00
58.5851 1639.00
58.8893 1737.00
59.1936 2161.00
59.4979 2417.00
59.8021 2178.00
60.1064 1812.00
60.4106 1398.00
60.7149 1233.00
61.0192 1070.00
61.3234 1099.00
61.6277 1419.00
61.932 1285.00
62.2362 1155.00
62.5405 1226.00
62.8447 1167.00
63.149 1103.00
63.4533 1215.00
63.7575 1634.00
64.0618 1950.00
64.366 1621.00
64.6703 1356.00
64.9745 1172.00
65.2788 1265.00
65.5831 1539.00
65.8873 1649.00
66.1916 2310.00
66.4959 1749.00
66.8001 1036.00
67.1044 1018.00
67.4086 1110.00
67.7129 1113.00
68.0172 1380.00
68.3214 1536.00
68.6257 1647.00
68.9299 1399.00
69.2342 1479.00
69.5385 1358.00
69.8427 1037.00
70.147 1128.00
70.4512 1617.00
70.7555 1378.00
71.0598 1122.00
71.364 972.00
71.6683 879.00
71.9725 958.00
72.2768 1074.00
72.5811 1143.00
72.8853 1193.00
73.1896 1105.00
73.4938 903.00
73.7981 937.00
74.1024 982.00
74.4066 872.00
74.7109 942.00
75.0151 913.00
75.3194 966.00
75.6237 1031.00
75.9279 1008.00
76.2322 1057.00
76.5364 1099.00
76.8407 1176.00
77.145 1009.00
77.4492 1034.00
77.7535 974.00
78.0577 994.00
78.362 988.00
78.6663 1127.00
78.9705 1280.00
79.2748 1066.00
79.579 1055.00
79.8833 1073.00
80.1876 1123.00
80.4918 982.00
80.7961 991.00
81.1003 949.00
81.4046 979.00
81.7089 954.00
82.0131 954.00
82.3174 939.00
82.6217 953.00
82.9259 1013.00
83.2302 927.00
83.5344 912.00
83.8387 872.00
84.143 1067.00
84.4472 1022.00
84.7515 995.00
85.0557 1028.00
85.36 979.00
85.6643 880.00
85.9685 861.00
86.2728 952.00
86.577 1007.00
86.8813 1133.00
87.1856 1008.00
87.4898 980.00
87.7941 892.00
88.0983 821.00
88.4026 782.00
88.7069 820.00
89.0111 764.00
89.3154 824.00
89.6196 795.00
89.9239 909.00
90.2282 865.00
90.5324 994.00
90.8367 945.00
91.1409 917.00
91.4452 1031.00
91.7495 1106.00
92.0537 1238.00
92.358 1226.00
92.6622 1192.00
92.9665 989.00
93.2708 925.00
93.575 837.00
93.8793 774.00
94.1835 805.00
94.4878 775.00
94.7921 843.00
95.0963 909.00
95.4006 888.00
95.7048 890.00
96.0091 913.00
96.3134 959.00
96.6176 982.00
96.9219 1000.00
97.2261 1072.00
97.5304 964.00
97.8347 928.00
98.1389 928.00
98.4432 933.00
98.7474 931.00
99.0517 917.00
99.356 922.00
99.6602 865.00
99.9645 874.00
100.095 877.00