File: data/xrd_creation/results/NSC_222.xy
9.903433 2702.00
10.2077 2577.00
10.512 2476.00
10.8162 2379.00
11.1205 2344.00
11.4247 2325.00
11.729 2191.00
12.0333 2177.00
12.3375 2066.00
12.6418 2011.00
12.946 1955.00
13.2503 2004.00
13.5546 2054.00
13.8588 2455.00
14.1631 1909.00
14.4673 1769.00
14.7716 1755.00
15.0759 1751.00
15.3801 1660.00
15.6844 1664.00
15.9886 1678.00
16.2929 1581.00
16.5972 1673.00
16.9014 1657.00
17.2057 1540.00
17.5099 1611.00
17.8142 1618.00
18.1185 1605.00
18.4227 1554.00
18.727 1505.00
19.0312 1671.00
19.3355 3882.00
19.6398 5129.00
19.944 1546.00
20.2483 1499.00
20.5525 1750.00
20.8568 1809.00
21.1611 1536.00
21.4653 1533.00
21.7696 1301.00
22.0738 1348.00
22.3781 1381.00
22.6824 1539.00
22.9866 2856.00
23.2909 1617.00
23.5951 1311.00
23.8994 1480.00
24.2037 1361.00
24.5079 1321.00
24.8122 1236.00
25.1164 1252.00
25.4207 1189.00
25.725 1170.00
26.0292 1120.00
26.3335 1133.00
26.6378 1143.00
26.942 1215.00
27.2463 2174.00
27.5505 2050.00
27.8548 2424.00
28.1591 1456.00
28.4633 1483.00
28.7676 1219.00
29.0718 1165.00
29.3761 1194.00
29.6804 1527.00
29.9846 1422.00
30.2889 2069.00
30.5931 1621.00
30.8974 4276.00
31.2017 3842.00
31.5059 1430.00
31.8102 1292.00
32.1144 1010.00
32.4187 954.00
32.723 962.00
33.0272 1024.00
33.3315 1033.00
33.6357 993.00
33.94 1812.00
34.2443 6478.00
34.5485 1155.00
34.8528 1189.00
35.157 941.00
35.4613 1056.00
35.7656 1131.00
36.0698 1243.00
36.3741 908.00
36.6783 892.00
36.9826 839.00
37.2869 875.00
37.5911 950.00
37.8954 833.00
38.1996 845.00
38.5039 1205.00
38.8082 1015.00
39.1124 1041.00
39.4167 988.00
39.7209 1170.00
40.0252 863.00
40.3295 813.00
40.6337 839.00
40.938 932.00
41.2422 987.00
41.5465 1625.00
41.8508 1093.00
42.155 1299.00
42.4593 849.00
42.7635 831.00
43.0678 831.00
43.3721 906.00
43.6763 876.00
43.9806 862.00
44.2849 1229.00
44.5891 2456.00
44.8934 908.00
45.1976 796.00
45.5019 902.00
45.8062 847.00
46.1104 895.00
46.4147 1071.00
46.7189 2650.00
47.0232 1771.00
47.3275 870.00
47.6317 764.00
47.936 771.00
48.2402 808.00
48.5445 912.00
48.8488 976.00
49.153 1171.00
49.4573 889.00
49.7615 837.00
50.0658 777.00
50.3701 890.00
50.6743 1325.00
50.9786 1653.00
51.2828 1763.00
51.5871 940.00
51.8914 1006.00
52.1956 808.00
52.4999 750.00
52.8041 751.00
53.1084 1342.00
53.4127 2311.00
53.7169 912.00
54.0212 860.00
54.3254 1014.00
54.6297 807.00
54.934 877.00
55.2382 752.00
55.5425 820.00
55.8467 849.00
56.151 786.00
56.4553 835.00
56.7595 794.00
57.0638 829.00
57.368 822.00
57.6723 769.00
57.9766 748.00
58.2808 839.00
58.5851 900.00
58.8893 1335.00
59.1936 2818.00
59.4979 1353.00
59.8021 810.00
60.1064 820.00
60.4106 865.00
60.7149 920.00
61.0192 1691.00
61.3234 1545.00
61.6277 939.00
61.932 851.00
62.2362 886.00
62.5405 1020.00
62.8447 1109.00
63.149 980.00
63.4533 755.00
63.7575 794.00
64.0618 723.00
64.366 722.00
64.6703 905.00
64.9745 946.00
65.2788 818.00
65.5831 762.00
65.8873 891.00
66.1916 1178.00
66.4959 1291.00
66.8001 1003.00
67.1044 731.00
67.4086 763.00
67.7129 773.00
68.0172 730.00
68.3214 997.00
68.6257 967.00
68.9299 749.00
69.2342 693.00
69.5385 780.00
69.8427 759.00
70.147 704.00
70.4512 667.00
70.7555 707.00
71.0598 744.00
71.364 705.00
71.6683 877.00
71.9725 1218.00
72.2768 908.00
72.5811 675.00
72.8853 657.00
73.1896 852.00
73.4938 915.00
73.7981 817.00
74.1024 682.00
74.4066 673.00
74.7109 666.00
75.0151 737.00
75.3194 908.00
75.6237 892.00
75.9279 688.00
76.2322 716.00
76.5364 816.00
76.8407 910.00
77.145 905.00
77.4492 678.00
77.7535 642.00
78.0577 659.00
78.362 622.00
78.6663 635.00
78.9705 666.00
79.2748 671.00
79.579 796.00
79.8833 829.00
80.1876 982.00
80.4918 1097.00
80.7961 766.00
81.1003 637.00
81.4046 651.00
81.7089 716.00
82.0131 968.00
82.3174 841.00
82.6217 669.00
82.9259 680.00
83.2302 693.00
83.5344 736.00
83.8387 719.00
84.143 674.00
84.4472 695.00
84.7515 647.00
85.0557 681.00
85.36 726.00
85.6643 685.00
85.9685 713.00
86.2728 754.00
86.577 815.00
86.8813 1023.00
87.1856 898.00
87.4898 727.00
87.7941 691.00
88.0983 707.00
88.4026 727.00
88.7069 755.00
89.0111 765.00
89.3154 710.00
89.6196 691.00
89.9239 728.00
90.2282 865.00
90.5324 775.00
90.8367 688.00
91.1409 701.00
91.4452 650.00
91.7495 756.00
92.0537 775.00
92.358 709.00
92.6622 668.00
92.9665 690.00
93.2708 824.00
93.575 881.00
93.8793 756.00
94.1835 661.00
94.4878 705.00
94.7921 675.00
95.0963 809.00
95.4006 788.00
95.7048 808.00
96.0091 678.00
96.3134 662.00
96.6176 674.00
96.9219 699.00
97.2261 680.00
97.5304 679.00
97.8347 676.00
98.1389 690.00
98.4432 756.00
98.7474 680.00
99.0517 630.00
99.356 711.00
99.6602 772.00
99.9645 935.00
100.095 1002.00