File: data/xrd_creation/results/NSC_145.xy
9.903433 2931.00
10.2077 2895.00
10.512 2719.00
10.8162 2653.00
11.1205 2570.00
11.4247 2440.00
11.729 2408.00
12.0333 2313.00
12.3375 2322.00
12.6418 2203.00
12.946 2139.00
13.2503 2070.00
13.5546 2000.00
13.8588 2078.00
14.1631 1994.00
14.4673 1928.00
14.7716 1925.00
15.0759 1867.00
15.3801 1990.00
15.6844 1972.00
15.9886 1902.00
16.2929 1897.00
16.5972 1896.00
16.9014 1937.00
17.2057 1874.00
17.5099 1867.00
17.8142 1984.00
18.1185 1883.00
18.4227 1871.00
18.727 2008.00
19.0312 1924.00
19.3355 1978.00
19.6398 2074.00
19.944 2016.00
20.2483 2072.00
20.5525 2104.00
20.8568 2329.00
21.1611 2195.00
21.4653 2322.00
21.7696 2275.00
22.0738 2270.00
22.3781 2349.00
22.6824 2337.00
22.9866 2299.00
23.2909 2252.00
23.5951 2223.00
23.8994 2109.00
24.2037 2172.00
24.5079 2106.00
24.8122 2081.00
25.1164 2158.00
25.4207 2116.00
25.725 2053.00
26.0292 2114.00
26.3335 2074.00
26.6378 1951.00
26.942 2040.00
27.2463 2113.00
27.5505 2103.00
27.8548 2041.00
28.1591 1988.00
28.4633 1990.00
28.7676 2061.00
29.0718 2019.00
29.3761 2104.00
29.6804 1972.00
29.9846 1923.00
30.2889 1985.00
30.5931 1935.00
30.8974 1878.00
31.2017 1891.00
31.5059 1850.00
31.8102 1841.00
32.1144 1751.00
32.4187 1832.00
32.723 1705.00
33.0272 1624.00
33.3315 1629.00
33.6357 1578.00
33.94 1545.00
34.2443 1483.00
34.5485 1486.00
34.8528 1459.00
35.157 1427.00
35.4613 1308.00
35.7656 1339.00
36.0698 1211.00
36.3741 1200.00
36.6783 1168.00
36.9826 1132.00
37.2869 1148.00
37.5911 1126.00
37.8954 1087.00
38.1996 1059.00
38.5039 1121.00
38.8082 1086.00
39.1124 1058.00
39.4167 1027.00
39.7209 1022.00
40.0252 1008.00
40.3295 1005.00
40.6337 992.00
40.938 963.00
41.2422 976.00
41.5465 1021.00
41.8508 996.00
42.155 1000.00
42.4593 996.00
42.7635 986.00
43.0678 890.00
43.3721 985.00
43.6763 969.00
43.9806 969.00
44.2849 926.00
44.5891 889.00
44.8934 897.00
45.1976 866.00
45.5019 943.00
45.8062 900.00
46.1104 895.00
46.4147 923.00
46.7189 943.00
47.0232 873.00
47.3275 910.00
47.6317 843.00
47.936 848.00
48.2402 849.00
48.5445 867.00
48.8488 865.00
49.153 789.00
49.4573 840.00
49.7615 794.00
50.0658 811.00
50.3701 882.00
50.6743 833.00
50.9786 776.00
51.2828 800.00
51.5871 852.00
51.8914 867.00
52.1956 780.00
52.4999 814.00
52.8041 804.00
53.1084 793.00
53.4127 809.00
53.7169 762.00
54.0212 768.00
54.3254 756.00
54.6297 806.00
54.934 773.00
55.2382 746.00
55.5425 764.00
55.8467 765.00
56.151 758.00
56.4553 812.00
56.7595 785.00
57.0638 817.00
57.368 768.00
57.6723 789.00
57.9766 751.00
58.2808 741.00
58.5851 740.00
58.8893 696.00
59.1936 718.00
59.4979 701.00
59.8021 735.00
60.1064 809.00
60.4106 721.00
60.7149 790.00
61.0192 783.00
61.3234 744.00
61.6277 704.00
61.932 737.00
62.2362 766.00
62.5405 738.00
62.8447 748.00
63.149 700.00
63.4533 734.00
63.7575 764.00
64.0618 794.00
64.366 697.00
64.6703 708.00
64.9745 694.00
65.2788 709.00
65.5831 734.00
65.8873 696.00
66.1916 642.00
66.4959 706.00
66.8001 684.00
67.1044 707.00
67.4086 687.00
67.7129 658.00
68.0172 668.00
68.3214 694.00
68.6257 654.00
68.9299 650.00
69.2342 645.00
69.5385 648.00
69.8427 613.00
70.147 629.00
70.4512 615.00
70.7555 632.00
71.0598 640.00
71.364 640.00
71.6683 623.00
71.9725 564.00
72.2768 635.00
72.5811 589.00
72.8853 623.00
73.1896 594.00
73.4938 616.00
73.7981 633.00
74.1024 572.00
74.4066 596.00
74.7109 557.00
75.0151 545.00
75.3194 574.00
75.6237 539.00
75.9279 539.00
76.2322 562.00
76.5364 552.00
76.8407 509.00
77.145 530.00
77.4492 493.00
77.7535 552.00
78.0577 521.00
78.362 509.00
78.6663 470.00
78.9705 534.00
79.2748 485.00
79.579 519.00
79.8833 510.00
80.1876 508.00
80.4918 513.00
80.7961 539.00
81.1003 493.00
81.4046 489.00
81.7089 486.00
82.0131 519.00
82.3174 499.00
82.6217 474.00
82.9259 493.00
83.2302 489.00
83.5344 458.00
83.8387 478.00
84.143 509.00
84.4472 430.00
84.7515 494.00
85.0557 500.00
85.36 447.00
85.6643 429.00
85.9685 400.00
86.2728 388.00
86.577 424.00
86.8813 442.00
87.1856 460.00
87.4898 436.00
87.7941 429.00
88.0983 396.00
88.4026 438.00
88.7069 477.00
89.0111 408.00
89.3154 429.00
89.6196 401.00
89.9239 408.00
90.2282 440.00
90.5324 421.00
90.8367 421.00
91.1409 401.00
91.4452 439.00
91.7495 386.00
92.0537 412.00
92.358 441.00
92.6622 408.00
92.9665 427.00
93.2708 418.00
93.575 412.00
93.8793 425.00
94.1835 442.00
94.4878 428.00
94.7921 386.00
95.0963 398.00
95.4006 434.00
95.7048 430.00
96.0091 425.00
96.3134 427.00
96.6176 437.00
96.9219 438.00
97.2261 412.00
97.5304 387.00
97.8347 397.00
98.1389 391.00
98.4432 413.00
98.7474 412.00
99.0517 415.00
99.356 435.00
99.6602 417.00
99.9645 379.00
100.095 351.00