File: data/xrd_creation/results/NSC_140.xy
9.903433 2936.00
10.2077 2893.00
10.512 2741.00
10.8162 3181.00
11.1205 2482.00
11.4247 2512.00
11.729 2342.00
12.0333 2344.00
12.3375 2236.00
12.6418 2183.00
12.946 2173.00
13.2503 2451.00
13.5546 2880.00
13.8588 2293.00
14.1631 2033.00
14.4673 1983.00
14.7716 1922.00
15.0759 1888.00
15.3801 1779.00
15.6844 1809.00
15.9886 1783.00
16.2929 1846.00
16.5972 1729.00
16.9014 1742.00
17.2057 1763.00
17.5099 2506.00
17.8142 1678.00
18.1185 1613.00
18.4227 1710.00
18.727 1533.00
19.0312 1668.00
19.3355 1774.00
19.6398 1619.00
19.944 1540.00
20.2483 2150.00
20.5525 2678.00
20.8568 3085.00
21.1611 24257.00
21.4653 6549.00
21.7696 2091.00
22.0738 1841.00
22.3781 1494.00
22.6824 1417.00
22.9866 1388.00
23.2909 2177.00
23.5951 1765.00
23.8994 1522.00
24.2037 1605.00
24.5079 1810.00
24.8122 1387.00
25.1164 1270.00
25.4207 1540.00
25.725 1374.00
26.0292 1342.00
26.3335 1332.00
26.6378 1196.00
26.942 1463.00
27.2463 1345.00
27.5505 1097.00
27.8548 1209.00
28.1591 1117.00
28.4633 1218.00
28.7676 987.00
29.0718 1164.00
29.3761 1034.00
29.6804 1464.00
29.9846 1441.00
30.2889 1074.00
30.5931 1145.00
30.8974 990.00
31.2017 1006.00
31.5059 966.00
31.8102 1101.00
32.1144 1223.00
32.4187 1215.00
32.723 949.00
33.0272 1129.00
33.3315 1049.00
33.6357 1086.00
33.94 1258.00
34.2443 1577.00
34.5485 12613.00
34.8528 14851.00
35.157 5842.00
35.4613 2479.00
35.7656 1117.00
36.0698 1316.00
36.3741 1258.00
36.6783 1101.00
36.9826 1251.00
37.2869 1450.00
37.5911 979.00
37.8954 947.00
38.1996 1202.00
38.5039 922.00
38.8082 1113.00
39.1124 930.00
39.4167 952.00
39.7209 1150.00
40.0252 956.00
40.3295 1547.00
40.6337 1827.00
40.938 1681.00
41.2422 1777.00
41.5465 1189.00
41.8508 900.00
42.155 936.00
42.4593 1011.00
42.7635 2344.00
43.0678 1956.00
43.3721 1587.00
43.6763 1112.00
43.9806 1673.00
44.2849 980.00
44.5891 922.00
44.8934 1199.00
45.1976 1049.00
45.5019 875.00
45.8062 973.00
46.1104 682.00
46.4147 726.00
46.7189 850.00
47.0232 941.00
47.3275 844.00
47.6317 842.00
47.936 772.00
48.2402 876.00
48.5445 927.00
48.8488 840.00
49.153 1004.00
49.4573 3019.00
49.7615 2485.00
50.0658 1757.00
50.3701 1792.00
50.6743 1442.00
50.9786 1084.00
51.2828 653.00
51.5871 697.00
51.8914 681.00
52.1956 705.00
52.4999 801.00
52.8041 708.00
53.1084 668.00
53.4127 730.00
53.7169 987.00
54.0212 731.00
54.3254 779.00
54.6297 866.00
54.934 1015.00
55.2382 994.00
55.5425 749.00
55.8467 867.00
56.151 687.00
56.4553 943.00
56.7595 729.00
57.0638 766.00
57.368 701.00
57.6723 631.00
57.9766 660.00
58.2808 779.00
58.5851 694.00
58.8893 651.00
59.1936 595.00
59.4979 587.00
59.8021 598.00
60.1064 676.00
60.4106 794.00
60.7149 772.00
61.0192 679.00
61.3234 705.00
61.6277 2028.00
61.932 3025.00
62.2362 2391.00
62.5405 2320.00
62.8447 1035.00
63.149 840.00
63.4533 769.00
63.7575 643.00
64.0618 693.00
64.366 591.00
64.6703 558.00
64.9745 604.00
65.2788 566.00
65.5831 646.00
65.8873 967.00
66.1916 678.00
66.4959 680.00
66.8001 805.00
67.1044 721.00
67.4086 673.00
67.7129 661.00
68.0172 537.00
68.3214 566.00
68.6257 572.00
68.9299 578.00
69.2342 711.00
69.5385 608.00
69.8427 599.00
70.147 594.00
70.4512 559.00
70.7555 550.00
71.0598 521.00
71.364 537.00
71.6683 518.00
71.9725 516.00
72.2768 623.00
72.5811 1145.00
72.8853 1123.00
73.1896 907.00
73.4938 691.00
73.7981 593.00
74.1024 625.00
74.4066 531.00
74.7109 618.00
75.0151 598.00
75.3194 508.00
75.6237 463.00
75.9279 483.00
76.2322 528.00
76.5364 653.00
76.8407 571.00
77.145 555.00
77.4492 569.00
77.7535 565.00
78.0577 527.00
78.362 534.00
78.6663 565.00
78.9705 515.00
79.2748 493.00
79.579 511.00
79.8833 459.00
80.1876 396.00
80.4918 453.00
80.7961 508.00
81.1003 428.00
81.4046 425.00
81.7089 452.00
82.0131 441.00
82.3174 475.00
82.6217 859.00
82.9259 977.00
83.2302 611.00
83.5344 541.00
83.8387 676.00
84.143 618.00
84.4472 559.00
84.7515 493.00
85.0557 523.00
85.36 482.00
85.6643 424.00
85.9685 410.00
86.2728 402.00
86.577 441.00
86.8813 541.00
87.1856 479.00
87.4898 473.00
87.7941 459.00
88.0983 441.00
88.4026 431.00
88.7069 445.00
89.0111 521.00
89.3154 447.00
89.6196 465.00
89.9239 465.00
90.2282 452.00
90.5324 453.00
90.8367 484.00
91.1409 396.00
91.4452 453.00
91.7495 403.00
92.0537 402.00
92.358 374.00
92.6622 485.00
92.9665 572.00
93.2708 575.00
93.575 510.00
93.8793 503.00
94.1835 508.00
94.4878 456.00
94.7921 454.00
95.0963 454.00
95.4006 391.00
95.7048 439.00
96.0091 444.00
96.3134 516.00
96.6176 462.00
96.9219 461.00
97.2261 435.00
97.5304 417.00
97.8347 427.00
98.1389 432.00
98.4432 444.00
98.7474 475.00
99.0517 438.00
99.356 456.00
99.6602 381.00
99.9645 447.00
100.095 479.00