File: data/xrd_creation/results/NSC_103.xy
9.903433 2754.00
10.2077 2560.00
10.512 2564.00
10.8162 2425.00
11.1205 2269.00
11.4247 2146.00
11.729 2155.00
12.0333 2124.00
12.3375 1898.00
12.6418 1835.00
12.946 1845.00
13.2503 1762.00
13.5546 1717.00
13.8588 1674.00
14.1631 1916.00
14.4673 1623.00
14.7716 1522.00
15.0759 1518.00
15.3801 1503.00
15.6844 1476.00
15.9886 1483.00
16.2929 1408.00
16.5972 1448.00
16.9014 1641.00
17.2057 1283.00
17.5099 1405.00
17.8142 1234.00
18.1185 1272.00
18.4227 1265.00
18.727 1247.00
19.0312 1639.00
19.3355 3029.00
19.6398 1924.00
19.944 1576.00
20.2483 1176.00
20.5525 1594.00
20.8568 2359.00
21.1611 1136.00
21.4653 1160.00
21.7696 1280.00
22.0738 2117.00
22.3781 4333.00
22.6824 1164.00
22.9866 1072.00
23.2909 1042.00
23.5951 986.00
23.8994 2348.00
24.2037 960.00
24.5079 947.00
24.8122 1313.00
25.1164 1287.00
25.4207 875.00
25.725 882.00
26.0292 845.00
26.3335 881.00
26.6378 753.00
26.942 825.00
27.2463 1120.00
27.5505 1128.00
27.8548 811.00
28.1591 806.00
28.4633 790.00
28.7676 1724.00
29.0718 907.00
29.3761 875.00
29.6804 888.00
29.9846 693.00
30.2889 679.00
30.5931 765.00
30.8974 812.00
31.2017 710.00
31.5059 1063.00
31.8102 4494.00
32.1144 819.00
32.4187 657.00
32.723 602.00
33.0272 607.00
33.3315 572.00
33.6357 653.00
33.94 635.00
34.2443 701.00
34.5485 559.00
34.8528 544.00
35.157 571.00
35.4613 638.00
35.7656 1042.00
36.0698 651.00
36.3741 1406.00
36.6783 618.00
36.9826 588.00
37.2869 1391.00
37.5911 1916.00
37.8954 586.00
38.1996 497.00
38.5039 555.00
38.8082 541.00
39.1124 1111.00
39.4167 637.00
39.7209 476.00
40.0252 443.00
40.3295 603.00
40.6337 481.00
40.938 536.00
41.2422 411.00
41.5465 409.00
41.8508 644.00
42.155 530.00
42.4593 610.00
42.7635 435.00
43.0678 439.00
43.3721 590.00
43.6763 434.00
43.9806 750.00
44.2849 418.00
44.5891 456.00
44.8934 503.00
45.1976 370.00
45.5019 631.00
45.8062 866.00
46.1104 465.00
46.4147 375.00
46.7189 386.00
47.0232 610.00
47.3275 916.00
47.6317 426.00
47.936 379.00
48.2402 392.00
48.5445 476.00
48.8488 475.00
49.153 1008.00
49.4573 421.00
49.7615 584.00
50.0658 1069.00
50.3701 395.00
50.6743 333.00
50.9786 473.00
51.2828 1288.00
51.5871 623.00
51.8914 417.00
52.1956 1018.00
52.4999 484.00
52.8041 451.00
53.1084 348.00
53.4127 360.00
53.7169 348.00
54.0212 391.00
54.3254 408.00
54.6297 394.00
54.934 421.00
55.2382 385.00
55.5425 491.00
55.8467 386.00
56.151 395.00
56.4553 568.00
56.7595 1281.00
57.0638 895.00
57.368 416.00
57.6723 320.00
57.9766 347.00
58.2808 343.00
58.5851 367.00
58.8893 391.00
59.1936 324.00
59.4979 314.00
59.8021 384.00
60.1064 450.00
60.4106 1289.00
60.7149 731.00
61.0192 435.00
61.3234 591.00
61.6277 374.00
61.932 341.00
62.2362 361.00
62.5405 393.00
62.8447 626.00
63.149 548.00
63.4533 365.00
63.7575 320.00
64.0618 356.00
64.366 318.00
64.6703 287.00
64.9745 294.00
65.2788 421.00
65.5831 450.00
65.8873 343.00
66.1916 353.00
66.4959 587.00
66.8001 334.00
67.1044 342.00
67.4086 407.00
67.7129 328.00
68.0172 357.00
68.3214 278.00
68.6257 258.00
68.9299 312.00
69.2342 396.00
69.5385 441.00
69.8427 474.00
70.147 469.00
70.4512 302.00
70.7555 351.00
71.0598 589.00
71.364 436.00
71.6683 284.00
71.9725 284.00
72.2768 280.00
72.5811 280.00
72.8853 304.00
73.1896 383.00
73.4938 411.00
73.7981 248.00
74.1024 322.00
74.4066 265.00
74.7109 257.00
75.0151 302.00
75.3194 312.00
75.6237 345.00
75.9279 347.00
76.2322 267.00
76.5364 237.00
76.8407 288.00
77.145 271.00
77.4492 359.00
77.7535 320.00
78.0577 265.00
78.362 234.00
78.6663 262.00
78.9705 399.00
79.2748 358.00
79.579 262.00
79.8833 355.00
80.1876 337.00
80.4918 301.00
80.7961 259.00
81.1003 369.00
81.4046 322.00
81.7089 264.00
82.0131 214.00
82.3174 234.00
82.6217 293.00
82.9259 287.00
83.2302 215.00
83.5344 249.00
83.8387 246.00
84.143 225.00
84.4472 247.00
84.7515 248.00
85.0557 250.00
85.36 270.00
85.6643 281.00
85.9685 282.00
86.2728 310.00
86.577 276.00
86.8813 257.00
87.1856 259.00
87.4898 417.00
87.7941 361.00
88.0983 304.00
88.4026 304.00
88.7069 406.00
89.0111 305.00
89.3154 242.00
89.6196 233.00
89.9239 243.00
90.2282 248.00
90.5324 266.00
90.8367 243.00
91.1409 280.00
91.4452 292.00
91.7495 245.00
92.0537 269.00
92.358 364.00
92.6622 307.00
92.9665 355.00
93.2708 299.00
93.575 227.00
93.8793 234.00
94.1835 262.00
94.4878 245.00
94.7921 214.00
95.0963 282.00
95.4006 302.00
95.7048 308.00
96.0091 328.00
96.3134 383.00
96.6176 343.00
96.9219 256.00
97.2261 271.00
97.5304 246.00
97.8347 342.00
98.1389 323.00
98.4432 242.00
98.7474 245.00
99.0517 229.00
99.356 209.00
99.6602 293.00
99.9645 299.00
100.095 308.00