File: data/xrd_creation/results/NSC_42.xy
9.903433 3243.00
10.2077 3217.00
10.512 3457.00
10.8162 2805.00
11.1205 2816.00
11.4247 2747.00
11.729 2704.00
12.0333 2638.00
12.3375 2433.00
12.6418 2564.00
12.946 2445.00
13.2503 2387.00
13.5546 2368.00
13.8588 2388.00
14.1631 2316.00
14.4673 2392.00
14.7716 2237.00
15.0759 2256.00
15.3801 2158.00
15.6844 2207.00
15.9886 2073.00
16.2929 2112.00
16.5972 2047.00
16.9014 2042.00
17.2057 1945.00
17.5099 2012.00
17.8142 1968.00
18.1185 2390.00
18.4227 1821.00
18.727 1901.00
19.0312 1836.00
19.3355 1780.00
19.6398 1804.00
19.944 1743.00
20.2483 1945.00
20.5525 2101.00
20.8568 6629.00
21.1611 3236.00
21.4653 3978.00
21.7696 3286.00
22.0738 1673.00
22.3781 1591.00
22.6824 1648.00
22.9866 1627.00
23.2909 2937.00
23.5951 2737.00
23.8994 1625.00
24.2037 2551.00
24.5079 1576.00
24.8122 1442.00
25.1164 1427.00
25.4207 1491.00
25.725 1570.00
26.0292 1406.00
26.3335 1340.00
26.6378 1359.00
26.942 1407.00
27.2463 1537.00
27.5505 4678.00
27.8548 1516.00
28.1591 1484.00
28.4633 1413.00
28.7676 1332.00
29.0718 1422.00
29.3761 1571.00
29.6804 2125.00
29.9846 4659.00
30.2889 1818.00
30.5931 1885.00
30.8974 9502.00
31.2017 2233.00
31.5059 1803.00
31.8102 1408.00
32.1144 1405.00
32.4187 1739.00
32.723 1305.00
33.0272 1335.00
33.3315 1404.00
33.6357 1384.00
33.94 1535.00
34.2443 3739.00
34.5485 8713.00
34.8528 1567.00
35.157 2302.00
35.4613 1497.00
35.7656 3525.00
36.0698 1366.00
36.3741 1461.00
36.6783 1152.00
36.9826 1156.00
37.2869 1195.00
37.5911 1270.00
37.8954 1826.00
38.1996 1238.00
38.5039 1445.00
38.8082 2767.00
39.1124 1423.00
39.4167 2121.00
39.7209 1199.00
40.0252 1132.00
40.3295 1020.00
40.6337 1058.00
40.938 988.00
41.2422 954.00
41.5465 1024.00
41.8508 1052.00
42.155 1465.00
42.4593 1441.00
42.7635 1014.00
43.0678 1153.00
43.3721 972.00
43.6763 1498.00
43.9806 1311.00
44.2849 914.00
44.5891 919.00
44.8934 951.00
45.1976 899.00
45.5019 923.00
45.8062 1238.00
46.1104 1388.00
46.4147 913.00
46.7189 828.00
47.0232 849.00
47.3275 1206.00
47.6317 992.00
47.936 794.00
48.2402 884.00
48.5445 914.00
48.8488 946.00
49.153 1242.00
49.4573 2355.00
49.7615 890.00
50.0658 827.00
50.3701 786.00
50.6743 846.00
50.9786 990.00
51.2828 3613.00
51.5871 975.00
51.8914 814.00
52.1956 837.00
52.4999 822.00
52.8041 824.00
53.1084 831.00
53.4127 803.00
53.7169 819.00
54.0212 873.00
54.3254 860.00
54.6297 881.00
54.934 711.00
55.2382 695.00
55.5425 727.00
55.8467 745.00
56.151 945.00
56.4553 795.00
56.7595 786.00
57.0638 757.00
57.368 1024.00
57.6723 756.00
57.9766 895.00
58.2808 782.00
58.5851 761.00
58.8893 775.00
59.1936 952.00
59.4979 1545.00
59.8021 1123.00
60.1064 787.00
60.4106 792.00
60.7149 1200.00
61.0192 2022.00
61.3234 1955.00
61.6277 1782.00
61.932 743.00
62.2362 803.00
62.5405 899.00
62.8447 724.00
63.149 687.00
63.4533 728.00
63.7575 869.00
64.0618 811.00
64.366 726.00
64.6703 639.00
64.9745 707.00
65.2788 779.00
65.5831 1073.00
65.8873 785.00
66.1916 665.00
66.4959 652.00
66.8001 742.00
67.1044 687.00
67.4086 719.00
67.7129 824.00
68.0172 1090.00
68.3214 785.00
68.6257 730.00
68.9299 699.00
69.2342 588.00
69.5385 588.00
69.8427 604.00
70.147 538.00
70.4512 557.00
70.7555 466.00
71.0598 493.00
71.364 519.00
71.6683 594.00
71.9725 723.00
72.2768 983.00
72.5811 562.00
72.8853 481.00
73.1896 458.00
73.4938 505.00
73.7981 578.00
74.1024 572.00
74.4066 635.00
74.7109 628.00
75.0151 577.00
75.3194 684.00
75.6237 576.00
75.9279 557.00
76.2322 629.00
76.5364 630.00
76.8407 576.00
77.145 540.00
77.4492 587.00
77.7535 531.00
78.0577 571.00
78.362 532.00
78.6663 522.00
78.9705 521.00
79.2748 574.00
79.579 567.00
79.8833 604.00
80.1876 569.00
80.4918 526.00
80.7961 552.00
81.1003 495.00
81.4046 594.00
81.7089 605.00
82.0131 779.00
82.3174 914.00
82.6217 719.00
82.9259 495.00
83.2302 617.00
83.5344 613.00
83.8387 486.00
84.143 491.00
84.4472 479.00
84.7515 478.00
85.0557 501.00
85.36 489.00
85.6643 536.00
85.9685 729.00
86.2728 621.00
86.577 516.00
86.8813 476.00
87.1856 426.00
87.4898 470.00
87.7941 421.00
88.0983 432.00
88.4026 477.00
88.7069 484.00
89.0111 455.00
89.3154 460.00
89.6196 450.00
89.9239 463.00
90.2282 502.00
90.5324 413.00
90.8367 446.00
91.1409 449.00
91.4452 434.00
91.7495 421.00
92.0537 467.00
92.358 505.00
92.6622 557.00
92.9665 473.00
93.2708 450.00
93.575 415.00
93.8793 390.00
94.1835 403.00
94.4878 389.00
94.7921 429.00
95.0963 451.00
95.4006 527.00
95.7048 452.00
96.0091 425.00
96.3134 460.00
96.6176 609.00
96.9219 524.00
97.2261 434.00
97.5304 464.00
97.8347 526.00
98.1389 504.00
98.4432 483.00
98.7474 450.00
99.0517 450.00
99.356 532.00
99.6602 516.00
99.9645 397.00
100.095 431.00