File: data/xrd_creation/results/NSC_67.xy
9.903433 2695.00
10.2077 2606.00
10.512 2490.00
10.8162 2318.00
11.1205 2347.00
11.4247 2146.00
11.729 2146.00
12.0333 1997.00
12.3375 1904.00
12.6418 1806.00
12.946 1787.00
13.2503 1798.00
13.5546 1741.00
13.8588 1562.00
14.1631 1622.00
14.4673 1546.00
14.7716 1410.00
15.0759 1381.00
15.3801 1391.00
15.6844 1322.00
15.9886 1430.00
16.2929 1312.00
16.5972 1256.00
16.9014 1260.00
17.2057 1243.00
17.5099 1180.00
17.8142 1178.00
18.1185 1092.00
18.4227 1108.00
18.727 1141.00
19.0312 1076.00
19.3355 1081.00
19.6398 1118.00
19.944 1075.00
20.2483 1082.00
20.5525 1002.00
20.8568 2314.00
21.1611 1488.00
21.4653 1063.00
21.7696 927.00
22.0738 809.00
22.3781 889.00
22.6824 846.00
22.9866 822.00
23.2909 858.00
23.5951 853.00
23.8994 920.00
24.2037 954.00
24.5079 777.00
24.8122 801.00
25.1164 816.00
25.4207 826.00
25.725 955.00
26.0292 792.00
26.3335 699.00
26.6378 741.00
26.942 726.00
27.2463 697.00
27.5505 754.00
27.8548 690.00
28.1591 772.00
28.4633 637.00
28.7676 678.00
29.0718 677.00
29.3761 643.00
29.6804 663.00
29.9846 669.00
30.2889 612.00
30.5931 652.00
30.8974 572.00
31.2017 595.00
31.5059 555.00
31.8102 533.00
32.1144 553.00
32.4187 691.00
32.723 629.00
33.0272 589.00
33.3315 596.00
33.6357 557.00
33.94 594.00
34.2443 996.00
34.5485 1428.00
34.8528 925.00
35.157 633.00
35.4613 548.00
35.7656 476.00
36.0698 442.00
36.3741 461.00
36.6783 484.00
36.9826 482.00
37.2869 431.00
37.5911 416.00
37.8954 427.00
38.1996 437.00
38.5039 462.00
38.8082 400.00
39.1124 446.00
39.4167 407.00
39.7209 400.00
40.0252 416.00
40.3295 478.00
40.6337 430.00
40.938 420.00
41.2422 399.00
41.5465 360.00
41.8508 398.00
42.155 394.00
42.4593 452.00
42.7635 477.00
43.0678 449.00
43.3721 372.00
43.6763 380.00
43.9806 323.00
44.2849 374.00
44.5891 384.00
44.8934 375.00
45.1976 358.00
45.5019 343.00
45.8062 358.00
46.1104 325.00
46.4147 336.00
46.7189 372.00
47.0232 357.00
47.3275 341.00
47.6317 331.00
47.936 328.00
48.2402 331.00
48.5445 289.00
48.8488 338.00
49.153 423.00
49.4573 417.00
49.7615 330.00
50.0658 396.00
50.3701 325.00
50.6743 303.00
50.9786 279.00
51.2828 281.00
51.5871 291.00
51.8914 293.00
52.1956 313.00
52.4999 312.00
52.8041 305.00
53.1084 306.00
53.4127 304.00
53.7169 270.00
54.0212 286.00
54.3254 289.00
54.6297 279.00
54.934 297.00
55.2382 301.00
55.5425 289.00
55.8467 278.00
56.151 280.00
56.4553 283.00
56.7595 299.00
57.0638 277.00
57.368 283.00
57.6723 246.00
57.9766 242.00
58.2808 259.00
58.5851 273.00
58.8893 260.00
59.1936 278.00
59.4979 220.00
59.8021 261.00
60.1064 249.00
60.4106 236.00
60.7149 215.00
61.0192 264.00
61.3234 289.00
61.6277 352.00
61.932 325.00
62.2362 294.00
62.5405 261.00
62.8447 240.00
63.149 233.00
63.4533 227.00
63.7575 213.00
64.0618 224.00
64.366 237.00
64.6703 217.00
64.9745 198.00
65.2788 232.00
65.5831 215.00
65.8873 195.00
66.1916 234.00
66.4959 234.00
66.8001 238.00
67.1044 220.00
67.4086 239.00
67.7129 237.00
68.0172 260.00
68.3214 200.00
68.6257 227.00
68.9299 225.00
69.2342 245.00
69.5385 211.00
69.8427 193.00
70.147 221.00
70.4512 219.00
70.7555 235.00
71.0598 222.00
71.364 203.00
71.6683 204.00
71.9725 206.00
72.2768 197.00
72.5811 265.00
72.8853 228.00
73.1896 203.00
73.4938 246.00
73.7981 256.00
74.1024 232.00
74.4066 197.00
74.7109 217.00
75.0151 246.00
75.3194 222.00
75.6237 233.00
75.9279 214.00
76.2322 236.00
76.5364 221.00
76.8407 205.00
77.145 208.00
77.4492 226.00
77.7535 261.00
78.0577 216.00
78.362 269.00
78.6663 243.00
78.9705 223.00
79.2748 216.00
79.579 219.00
79.8833 215.00
80.1876 237.00
80.4918 238.00
80.7961 213.00
81.1003 194.00
81.4046 268.00
81.7089 225.00
82.0131 248.00
82.3174 238.00
82.6217 263.00
82.9259 277.00
83.2302 216.00
83.5344 262.00
83.8387 234.00
84.143 225.00
84.4472 258.00
84.7515 267.00
85.0557 237.00
85.36 233.00
85.6643 221.00
85.9685 234.00
86.2728 209.00
86.577 201.00
86.8813 257.00
87.1856 208.00
87.4898 198.00
87.7941 218.00
88.0983 218.00
88.4026 192.00
88.7069 209.00
89.0111 222.00
89.3154 216.00
89.6196 222.00
89.9239 205.00
90.2282 174.00
90.5324 204.00
90.8367 197.00
91.1409 180.00
91.4452 175.00
91.7495 197.00
92.0537 203.00
92.358 189.00
92.6622 213.00
92.9665 198.00
93.2708 206.00
93.575 199.00
93.8793 199.00
94.1835 185.00
94.4878 194.00
94.7921 189.00
95.0963 200.00
95.4006 198.00
95.7048 210.00
96.0091 179.00
96.3134 193.00
96.6176 205.00
96.9219 217.00
97.2261 204.00
97.5304 200.00
97.8347 234.00
98.1389 171.00
98.4432 178.00
98.7474 174.00
99.0517 181.00
99.356 176.00
99.6602 209.00
99.9645 179.00
100.095 205.00