File: data/xrd_creation/results/NSC_69.xy
9.903433 2780.00
10.2077 2747.00
10.512 2623.00
10.8162 2615.00
11.1205 2416.00
11.4247 2242.00
11.729 2223.00
12.0333 2058.00
12.3375 2077.00
12.6418 2054.00
12.946 1977.00
13.2503 2028.00
13.5546 1939.00
13.8588 1858.00
14.1631 1822.00
14.4673 1713.00
14.7716 1689.00
15.0759 1703.00
15.3801 1611.00
15.6844 1572.00
15.9886 1689.00
16.2929 2013.00
16.5972 1562.00
16.9014 1655.00
17.2057 1611.00
17.5099 1601.00
17.8142 1456.00
18.1185 1469.00
18.4227 1397.00
18.727 1489.00
19.0312 1796.00
19.3355 1743.00
19.6398 1832.00
19.944 2414.00
20.2483 7035.00
20.5525 2520.00
20.8568 2210.00
21.1611 4786.00
21.4653 1631.00
21.7696 1644.00
22.0738 1281.00
22.3781 1183.00
22.6824 1169.00
22.9866 1202.00
23.2909 1412.00
23.5951 1231.00
23.8994 1390.00
24.2037 2524.00
24.5079 1346.00
24.8122 991.00
25.1164 1011.00
25.4207 1028.00
25.725 1131.00
26.0292 1325.00
26.3335 1813.00
26.6378 4447.00
26.942 4477.00
27.2463 1206.00
27.5505 1390.00
27.8548 1128.00
28.1591 976.00
28.4633 949.00
28.7676 974.00
29.0718 1186.00
29.3761 1081.00
29.6804 1216.00
29.9846 1173.00
30.2889 1022.00
30.5931 1330.00
30.8974 1119.00
31.2017 969.00
31.5059 931.00
31.8102 919.00
32.1144 995.00
32.4187 1423.00
32.723 2607.00
33.0272 5232.00
33.3315 8485.00
33.6357 2584.00
33.94 3322.00
34.2443 4307.00
34.5485 4084.00
34.8528 3540.00
35.157 1629.00
35.4613 1853.00
35.7656 1301.00
36.0698 1272.00
36.3741 903.00
36.6783 863.00
36.9826 1459.00
37.2869 1573.00
37.5911 1251.00
37.8954 1172.00
38.1996 1683.00
38.5039 1484.00
38.8082 1974.00
39.1124 1281.00
39.4167 1035.00
39.7209 873.00
40.0252 865.00
40.3295 949.00
40.6337 848.00
40.938 899.00
41.2422 1004.00
41.5465 835.00
41.8508 788.00
42.155 721.00
42.4593 934.00
42.7635 1518.00
43.0678 3886.00
43.3721 1554.00
43.6763 1432.00
43.9806 1361.00
44.2849 821.00
44.5891 829.00
44.8934 948.00
45.1976 1004.00
45.5019 813.00
45.8062 889.00
46.1104 890.00
46.4147 726.00
46.7189 691.00
47.0232 775.00
47.3275 1249.00
47.6317 1442.00
47.936 909.00
48.2402 880.00
48.5445 714.00
48.8488 671.00
49.153 866.00
49.4573 1325.00
49.7615 935.00
50.0658 927.00
50.3701 735.00
50.6743 704.00
50.9786 567.00
51.2828 592.00
51.5871 778.00
51.8914 2247.00
52.1956 2077.00
52.4999 1031.00
52.8041 686.00
53.1084 698.00
53.4127 706.00
53.7169 769.00
54.0212 789.00
54.3254 712.00
54.6297 966.00
54.934 1338.00
55.2382 955.00
55.5425 717.00
55.8467 647.00
56.151 743.00
56.4553 679.00
56.7595 724.00
57.0638 677.00
57.368 674.00
57.6723 705.00
57.9766 796.00
58.2808 758.00
58.5851 741.00
58.8893 794.00
59.1936 1247.00
59.4979 1465.00
59.8021 1054.00
60.1064 782.00
60.4106 675.00
60.7149 609.00
61.0192 635.00
61.3234 733.00
61.6277 1038.00
61.932 1335.00
62.2362 1679.00
62.5405 2749.00
62.8447 922.00
63.149 881.00
63.4533 708.00
63.7575 659.00
64.0618 639.00
64.366 567.00
64.6703 676.00
64.9745 1041.00
65.2788 853.00
65.5831 1073.00
65.8873 973.00
66.1916 1204.00
66.4959 668.00
66.8001 502.00
67.1044 485.00
67.4086 470.00
67.7129 469.00
68.0172 471.00
68.3214 441.00
68.6257 458.00
68.9299 436.00
69.2342 482.00
69.5385 541.00
69.8427 758.00
70.147 687.00
70.4512 557.00
70.7555 461.00
71.0598 429.00
71.364 521.00
71.6683 574.00
71.9725 486.00
72.2768 517.00
72.5811 518.00
72.8853 633.00
73.1896 656.00
73.4938 507.00
73.7981 443.00
74.1024 432.00
74.4066 482.00
74.7109 605.00
75.0151 591.00
75.3194 464.00
75.6237 460.00
75.9279 459.00
76.2322 485.00
76.5364 481.00
76.8407 442.00
77.145 444.00
77.4492 415.00
77.7535 387.00
78.0577 425.00
78.362 503.00
78.6663 785.00
78.9705 945.00
79.2748 635.00
79.579 441.00
79.8833 420.00
80.1876 436.00
80.4918 435.00
80.7961 398.00
81.1003 401.00
81.4046 547.00
81.7089 483.00
82.0131 387.00
82.3174 419.00
82.6217 552.00
82.9259 525.00
83.2302 447.00
83.5344 500.00
83.8387 679.00
84.143 546.00
84.4472 404.00
84.7515 479.00
85.0557 477.00
85.36 425.00
85.6643 388.00
85.9685 374.00
86.2728 390.00
86.577 394.00
86.8813 460.00
87.1856 441.00
87.4898 520.00
87.7941 461.00
88.0983 427.00
88.4026 432.00
88.7069 395.00
89.0111 406.00
89.3154 354.00
89.6196 461.00
89.9239 599.00
90.2282 500.00
90.5324 428.00
90.8367 479.00
91.1409 645.00
91.4452 478.00
91.7495 417.00
92.0537 485.00
92.358 393.00
92.6622 390.00
92.9665 412.00
93.2708 438.00
93.575 480.00
93.8793 507.00
94.1835 580.00
94.4878 488.00
94.7921 432.00
95.0963 423.00
95.4006 408.00
95.7048 401.00
96.0091 449.00
96.3134 388.00
96.6176 414.00
96.9219 413.00
97.2261 415.00
97.5304 363.00
97.8347 468.00
98.1389 530.00
98.4432 586.00
98.7474 500.00
99.0517 439.00
99.356 427.00
99.6602 385.00
99.9645 373.00
100.095 391.00