File: data/xrd_creation/results/NSC_117.xy
9.903433 2792.00
10.2077 2743.00
10.512 2490.00
10.8162 2467.00
11.1205 2545.00
11.4247 3435.00
11.729 8375.00
12.0333 2497.00
12.3375 2107.00
12.6418 2141.00
12.946 2017.00
13.2503 1790.00
13.5546 1901.00
13.8588 1853.00
14.1631 1798.00
14.4673 1842.00
14.7716 2612.00
15.0759 2168.00
15.3801 2812.00
15.6844 1875.00
15.9886 1789.00
16.2929 2351.00
16.5972 3287.00
16.9014 1672.00
17.2057 1604.00
17.5099 1559.00
17.8142 1655.00
18.1185 2035.00
18.4227 1551.00
18.727 1384.00
19.0312 1501.00
19.3355 1440.00
19.6398 1405.00
19.944 1444.00
20.2483 1949.00
20.5525 1435.00
20.8568 1569.00
21.1611 2111.00
21.4653 1389.00
21.7696 1420.00
22.0738 2170.00
22.3781 1297.00
22.6824 1312.00
22.9866 1408.00
23.2909 1260.00
23.5951 1576.00
23.8994 1164.00
24.2037 1195.00
24.5079 1660.00
24.8122 1335.00
25.1164 1213.00
25.4207 1297.00
25.725 1539.00
26.0292 5091.00
26.3335 1420.00
26.6378 1686.00
26.942 2220.00
27.2463 1323.00
27.5505 1233.00
27.8548 3817.00
28.1591 4643.00
28.4633 1265.00
28.7676 989.00
29.0718 999.00
29.3761 980.00
29.6804 1216.00
29.9846 1274.00
30.2889 3019.00
30.5931 1035.00
30.8974 1049.00
31.2017 1042.00
31.5059 2130.00
31.8102 1997.00
32.1144 2043.00
32.4187 2009.00
32.723 1234.00
33.0272 6632.00
33.3315 1567.00
33.6357 1047.00
33.94 1333.00
34.2443 2338.00
34.5485 4991.00
34.8528 2533.00
35.157 1007.00
35.4613 929.00
35.7656 793.00
36.0698 866.00
36.3741 1269.00
36.6783 1007.00
36.9826 1149.00
37.2869 1345.00
37.5911 812.00
37.8954 889.00
38.1996 965.00
38.5039 798.00
38.8082 1206.00
39.1124 1013.00
39.4167 761.00
39.7209 698.00
40.0252 831.00
40.3295 918.00
40.6337 1146.00
40.938 725.00
41.2422 713.00
41.5465 676.00
41.8508 1083.00
42.155 1262.00
42.4593 1540.00
42.7635 837.00
43.0678 826.00
43.3721 1028.00
43.6763 1054.00
43.9806 855.00
44.2849 831.00
44.5891 693.00
44.8934 1099.00
45.1976 1173.00
45.5019 871.00
45.8062 746.00
46.1104 803.00
46.4147 802.00
46.7189 678.00
47.0232 1085.00
47.3275 1426.00
47.6317 1849.00
47.936 758.00
48.2402 579.00
48.5445 751.00
48.8488 731.00
49.153 935.00
49.4573 763.00
49.7615 1394.00
50.0658 1355.00
50.3701 1239.00
50.6743 613.00
50.9786 588.00
51.2828 728.00
51.5871 823.00
51.8914 1571.00
52.1956 1335.00
52.4999 1285.00
52.8041 710.00
53.1084 1331.00
53.4127 886.00
53.7169 768.00
54.0212 671.00
54.3254 733.00
54.6297 804.00
54.934 813.00
55.2382 757.00
55.5425 1095.00
55.8467 650.00
56.151 802.00
56.4553 725.00
56.7595 868.00
57.0638 867.00
57.368 824.00
57.6723 632.00
57.9766 867.00
58.2808 1197.00
58.5851 1311.00
58.8893 892.00
59.1936 1059.00
59.4979 1660.00
59.8021 1393.00
60.1064 1126.00
60.4106 962.00
60.7149 770.00
61.0192 781.00
61.3234 647.00
61.6277 697.00
61.932 716.00
62.2362 737.00
62.5405 697.00
62.8447 693.00
63.149 886.00
63.4533 634.00
63.7575 746.00
64.0618 712.00
64.366 638.00
64.6703 554.00
64.9745 854.00
65.2788 756.00
65.5831 836.00
65.8873 1012.00
66.1916 888.00
66.4959 731.00
66.8001 681.00
67.1044 628.00
67.4086 694.00
67.7129 603.00
68.0172 625.00
68.3214 524.00
68.6257 599.00
68.9299 663.00
69.2342 500.00
69.5385 507.00
69.8427 519.00
70.147 437.00
70.4512 491.00
70.7555 483.00
71.0598 516.00
71.364 526.00
71.6683 558.00
71.9725 484.00
72.2768 601.00
72.5811 510.00
72.8853 499.00
73.1896 575.00
73.4938 615.00
73.7981 460.00
74.1024 433.00
74.4066 552.00
74.7109 565.00
75.0151 592.00
75.3194 652.00
75.6237 489.00
75.9279 530.00
76.2322 497.00
76.5364 530.00
76.8407 537.00
77.145 559.00
77.4492 577.00
77.7535 482.00
78.0577 536.00
78.362 513.00
78.6663 625.00
78.9705 707.00
79.2748 618.00
79.579 502.00
79.8833 423.00
80.1876 509.00
80.4918 507.00
80.7961 492.00
81.1003 467.00
81.4046 464.00
81.7089 511.00
82.0131 506.00
82.3174 407.00
82.6217 460.00
82.9259 438.00
83.2302 427.00
83.5344 486.00
83.8387 559.00
84.143 462.00
84.4472 488.00
84.7515 533.00
85.0557 500.00
85.36 502.00
85.6643 379.00
85.9685 444.00
86.2728 450.00
86.577 479.00
86.8813 487.00
87.1856 504.00
87.4898 467.00
87.7941 421.00
88.0983 410.00
88.4026 560.00
88.7069 532.00
89.0111 507.00
89.3154 474.00
89.6196 511.00
89.9239 486.00
90.2282 466.00
90.5324 528.00
90.8367 461.00
91.1409 562.00
91.4452 481.00
91.7495 499.00
92.0537 526.00
92.358 511.00
92.6622 486.00
92.9665 455.00
93.2708 471.00
93.575 462.00
93.8793 432.00
94.1835 445.00
94.4878 431.00
94.7921 479.00
95.0963 432.00
95.4006 490.00
95.7048 466.00
96.0091 442.00
96.3134 454.00
96.6176 442.00
96.9219 471.00
97.2261 584.00
97.5304 535.00
97.8347 454.00
98.1389 481.00
98.4432 541.00
98.7474 529.00
99.0517 456.00
99.356 468.00
99.6602 549.00
99.9645 484.00
100.095 472.00