File: data/xrd_creation/results/NSC_170.xy
9.903433 2589.00
10.2077 2467.00
10.512 2545.00
10.8162 2334.00
11.1205 2302.00
11.4247 2116.00
11.729 2084.00
12.0333 2123.00
12.3375 1953.00
12.6418 1867.00
12.946 1781.00
13.2503 1769.00
13.5546 1772.00
13.8588 1945.00
14.1631 2699.00
14.4673 1946.00
14.7716 1659.00
15.0759 1602.00
15.3801 1625.00
15.6844 1615.00
15.9886 1508.00
16.2929 1510.00
16.5972 1456.00
16.9014 1482.00
17.2057 1460.00
17.5099 1440.00
17.8142 1380.00
18.1185 1395.00
18.4227 1407.00
18.727 1378.00
19.0312 1393.00
19.3355 1967.00
19.6398 5164.00
19.944 3518.00
20.2483 4024.00
20.5525 6447.00
20.8568 1795.00
21.1611 1337.00
21.4653 1453.00
21.7696 1336.00
22.0738 1160.00
22.3781 1158.00
22.6824 1199.00
22.9866 1352.00
23.2909 1457.00
23.5951 2923.00
23.8994 2305.00
24.2037 1116.00
24.5079 1088.00
24.8122 1119.00
25.1164 1010.00
25.4207 986.00
25.725 990.00
26.0292 1052.00
26.3335 1150.00
26.6378 3066.00
26.942 1597.00
27.2463 951.00
27.5505 1014.00
27.8548 942.00
28.1591 1320.00
28.4633 3481.00
28.7676 2477.00
29.0718 941.00
29.3761 899.00
29.6804 928.00
29.9846 897.00
30.2889 887.00
30.5931 809.00
30.8974 942.00
31.2017 2046.00
31.5059 4702.00
31.8102 2573.00
32.1144 1015.00
32.4187 846.00
32.723 813.00
33.0272 791.00
33.3315 814.00
33.6357 1035.00
33.94 2963.00
34.2443 1622.00
34.5485 825.00
34.8528 945.00
35.157 1785.00
35.4613 2723.00
35.7656 2926.00
36.0698 1783.00
36.3741 811.00
36.6783 679.00
36.9826 736.00
37.2869 710.00
37.5911 710.00
37.8954 962.00
38.1996 1168.00
38.5039 750.00
38.8082 703.00
39.1124 795.00
39.4167 665.00
39.7209 775.00
40.0252 975.00
40.3295 742.00
40.6337 626.00
40.938 647.00
41.2422 907.00
41.5465 1335.00
41.8508 1283.00
42.155 872.00
42.4593 678.00
42.7635 720.00
43.0678 946.00
43.3721 1325.00
43.6763 949.00
43.9806 755.00
44.2849 717.00
44.5891 681.00
44.8934 825.00
45.1976 1303.00
45.5019 1268.00
45.8062 752.00
46.1104 1107.00
46.4147 1421.00
46.7189 1194.00
47.0232 1171.00
47.3275 869.00
47.6317 606.00
47.936 849.00
48.2402 1558.00
48.5445 1561.00
48.8488 972.00
49.153 804.00
49.4573 670.00
49.7615 650.00
50.0658 626.00
50.3701 614.00
50.6743 669.00
50.9786 796.00
51.2828 1043.00
51.5871 1784.00
51.8914 3459.00
52.1956 1421.00
52.4999 717.00
52.8041 608.00
53.1084 563.00
53.4127 603.00
53.7169 573.00
54.0212 632.00
54.3254 788.00
54.6297 1056.00
54.934 1359.00
55.2382 970.00
55.5425 1598.00
55.8467 1963.00
56.151 1555.00
56.4553 927.00
56.7595 646.00
57.0638 633.00
57.368 628.00
57.6723 669.00
57.9766 838.00
58.2808 834.00
58.5851 864.00
58.8893 948.00
59.1936 740.00
59.4979 596.00
59.8021 653.00
60.1064 958.00
60.4106 1095.00
60.7149 1004.00
61.0192 759.00
61.3234 1121.00
61.6277 1219.00
61.932 1289.00
62.2362 1056.00
62.5405 833.00
62.8447 906.00
63.149 873.00
63.4533 685.00
63.7575 842.00
64.0618 1068.00
64.366 1082.00
64.6703 1039.00
64.9745 1023.00
65.2788 689.00
65.5831 644.00
65.8873 886.00
66.1916 1216.00
66.4959 932.00
66.8001 841.00
67.1044 732.00
67.4086 645.00
67.7129 809.00
68.0172 879.00
68.3214 920.00
68.6257 806.00
68.9299 575.00
69.2342 680.00
69.5385 634.00
69.8427 628.00
70.147 573.00
70.4512 578.00
70.7555 535.00
71.0598 661.00
71.364 952.00
71.6683 963.00
71.9725 820.00
72.2768 610.00
72.5811 496.00
72.8853 564.00
73.1896 534.00
73.4938 562.00
73.7981 618.00
74.1024 700.00
74.4066 801.00
74.7109 746.00
75.0151 739.00
75.3194 790.00
75.6237 830.00
75.9279 778.00
76.2322 695.00
76.5364 572.00
76.8407 528.00
77.145 559.00
77.4492 569.00
77.7535 581.00
78.0577 563.00
78.362 547.00
78.6663 902.00
78.9705 982.00
79.2748 960.00
79.579 837.00
79.8833 769.00
80.1876 667.00
80.4918 622.00
80.7961 585.00
81.1003 682.00
81.4046 714.00
81.7089 722.00
82.0131 688.00
82.3174 599.00
82.6217 564.00
82.9259 552.00
83.2302 569.00
83.5344 690.00
83.8387 865.00
84.143 807.00
84.4472 669.00
84.7515 648.00
85.0557 580.00
85.36 562.00
85.6643 642.00
85.9685 676.00
86.2728 677.00
86.577 700.00
86.8813 620.00
87.1856 745.00
87.4898 711.00
87.7941 618.00
88.0983 557.00
88.4026 548.00
88.7069 600.00
89.0111 639.00
89.3154 625.00
89.6196 739.00
89.9239 977.00
90.2282 829.00
90.5324 876.00
90.8367 910.00
91.1409 825.00
91.4452 665.00
91.7495 621.00
92.0537 601.00
92.358 641.00
92.6622 657.00
92.9665 645.00
93.2708 753.00
93.575 693.00
93.8793 608.00
94.1835 604.00
94.4878 659.00
94.7921 611.00
95.0963 619.00
95.4006 688.00
95.7048 654.00
96.0091 775.00
96.3134 724.00
96.6176 738.00
96.9219 721.00
97.2261 708.00
97.5304 678.00
97.8347 634.00
98.1389 593.00
98.4432 599.00
98.7474 531.00
99.0517 576.00
99.356 505.00
99.6602 569.00
99.9645 628.00
100.095 566.00