File: data/xrd_creation/results/NSC_1.xy
10.0094 2399.00
10.3137 2257.00
10.618 2216.00
10.9222 2050.00
11.2265 2000.00
11.5307 2034.00
11.835 2314.00
12.1393 1941.00
12.4435 1805.00
12.7478 1701.00
13.052 1658.00
13.3563 1710.00
13.6606 1942.00
13.9648 2385.00
14.2691 1508.00
14.5733 1470.00
14.8776 1439.00
15.1819 1456.00
15.4861 1434.00
15.7904 1392.00
16.0946 1379.00
16.3989 1350.00
16.7032 1319.00
17.0074 1287.00
17.3117 1323.00
17.6159 1249.00
17.9202 1269.00
18.2245 1233.00
18.5287 1199.00
18.833 1381.00
19.1372 2517.00
19.4415 5615.00
19.7458 2390.00
20.05 6500.00
20.3543 1423.00
20.6585 1145.00
20.9628 1198.00
21.2671 1110.00
21.5713 1256.00
21.8756 1247.00
22.1798 1161.00
22.4841 1240.00
22.7884 1492.00
23.0926 2330.00
23.3969 1525.00
23.7011 1038.00
24.0054 1040.00
24.3097 984.00
24.6139 1075.00
24.9182 990.00
25.2224 869.00
25.5267 901.00
25.831 934.00
26.1352 901.00
26.4395 1223.00
26.7438 933.00
27.048 884.00
27.3523 889.00
27.6565 1062.00
27.9608 4492.00
28.2651 1625.00
28.5693 899.00
28.8736 774.00
29.1778 802.00
29.4821 758.00
29.7864 959.00
30.0906 1144.00
30.3949 1001.00
30.6991 1817.00
31.0034 6819.00
31.3077 1213.00
31.6119 1403.00
31.9162 898.00
32.2204 715.00
32.5247 726.00
32.829 770.00
33.1332 750.00
33.4375 1051.00
33.7417 1434.00
34.046 1093.00
34.3503 1125.00
34.6545 3197.00
34.9588 3307.00
35.263 1616.00
35.5673 922.00
35.8716 734.00
36.1758 727.00
36.4801 679.00
36.7843 610.00
37.0886 661.00
37.3929 657.00
37.6971 688.00
38.0014 698.00
38.3056 630.00
38.6099 602.00
38.9142 677.00
39.2184 884.00
39.5227 838.00
39.8269 649.00
40.1312 616.00
40.4355 770.00
40.7397 1121.00
41.044 1129.00
41.3482 1236.00
41.6525 781.00
41.9568 653.00
42.261 773.00
42.5653 1489.00
42.8695 878.00
43.1738 797.00
43.4781 601.00
43.7823 611.00
44.0866 682.00
44.3909 1053.00
44.6951 1158.00
44.9994 666.00
45.3036 1436.00
45.6079 1476.00
45.9122 918.00
46.2164 1407.00
46.5207 1163.00
46.8249 707.00
47.1292 835.00
47.4335 2102.00
47.7377 1237.00
48.042 862.00
48.3462 710.00
48.6505 654.00
48.9548 602.00
49.259 593.00
49.5633 736.00
49.8675 734.00
50.1718 938.00
50.4761 986.00
50.7803 1777.00
51.0846 1742.00
51.3888 782.00
51.6931 1035.00
51.9974 631.00
52.3016 626.00
52.6059 676.00
52.9101 697.00
53.2144 582.00
53.5187 755.00
53.8229 929.00
54.1272 881.00
54.4314 1784.00
54.7357 2352.00
55.04 1294.00
55.3442 775.00
55.6485 688.00
55.9527 700.00
56.257 646.00
56.5613 618.00
56.8655 605.00
57.1698 543.00
57.474 680.00
57.7783 1014.00
58.0826 949.00
58.3868 756.00
58.6911 708.00
58.9953 899.00
59.2996 1521.00
59.6039 1176.00
59.9081 759.00
60.2124 1347.00
60.5166 1455.00
60.8209 918.00
61.1252 648.00
61.4294 726.00
61.7337 1066.00
62.0379 1175.00
62.3422 937.00
62.6465 1075.00
62.9507 1093.00
63.255 1135.00
63.5592 775.00
63.8635 631.00
64.1678 583.00
64.472 637.00
64.7763 714.00
65.0806 654.00
65.3848 723.00
65.6891 1177.00
65.9933 1135.00
66.2976 907.00
66.6019 961.00
66.9061 933.00
67.2104 976.00
67.5146 704.00
67.8189 719.00
68.1232 769.00
68.4274 683.00
68.7317 601.00
69.0359 610.00
69.3402 588.00
69.6445 592.00
69.9487 807.00
70.253 1045.00
70.5572 821.00
70.8615 657.00
71.1658 625.00
71.47 684.00
71.7743 602.00
72.0785 552.00
72.3828 546.00
72.6871 605.00
72.9913 863.00
73.2956 885.00
73.5998 759.00
73.9041 829.00
74.2084 933.00
74.5126 788.00
74.8169 728.00
75.1211 606.00
75.4254 597.00
75.7297 624.00
76.0339 600.00
76.3382 592.00
76.6424 663.00
76.9467 693.00
77.251 760.00
77.5552 851.00
77.8595 912.00
78.1637 855.00
78.468 784.00
78.7723 780.00
79.0765 609.00
79.3808 613.00
79.685 611.00
79.9893 725.00
80.2936 837.00
80.5978 728.00
80.9021 652.00
81.2063 678.00
81.5106 727.00
81.8149 672.00
82.1191 752.00
82.4234 850.00
82.7277 795.00
83.0319 607.00
83.3362 672.00
83.6404 735.00
83.9447 718.00
84.249 745.00
84.5532 717.00
84.8575 693.00
85.1617 638.00
85.466 693.00
85.7703 736.00
86.0745 686.00
86.3788 695.00
86.683 654.00
86.9873 641.00
87.2916 705.00
87.5958 701.00
87.9001 714.00
88.2043 850.00
88.5086 962.00
88.8129 846.00
89.1171 719.00
89.4214 717.00
89.7256 666.00
90.0299 661.00
90.3342 673.00
90.6384 787.00
90.9427 812.00
91.2469 722.00
91.5512 650.00
91.8555 631.00
92.1597 588.00
92.464 661.00
92.7682 716.00
93.0725 822.00
93.3768 763.00
93.681 691.00
93.9853 695.00
94.2895 811.00
94.5938 829.00
94.8981 761.00
95.2023 778.00
95.5066 824.00
95.8108 739.00
96.1151 618.00
96.4194 633.00
96.7236 635.00
97.0279 609.00
97.3321 644.00
97.6364 679.00
97.9407 642.00
98.2449 705.00
98.5492 739.00
98.8534 760.00
99.1577 724.00
99.462 805.00
99.7662 769.00
99.9944 764.00