File: data/xrd_creation/results/NSC_41.xy
9.903433 2661.00
10.2077 2480.00
10.512 2401.00
10.8162 2359.00
11.1205 2219.00
11.4247 2031.00
11.729 1986.00
12.0333 1914.00
12.3375 1812.00
12.6418 1746.00
12.946 1669.00
13.2503 1660.00
13.5546 1627.00
13.8588 1555.00
14.1631 1543.00
14.4673 1532.00
14.7716 1383.00
15.0759 1403.00
15.3801 1310.00
15.6844 1378.00
15.9886 1330.00
16.2929 1353.00
16.5972 1257.00
16.9014 1241.00
17.2057 1185.00
17.5099 1262.00
17.8142 1174.00
18.1185 1225.00
18.4227 1123.00
18.727 1124.00
19.0312 1095.00
19.3355 1157.00
19.6398 1299.00
19.944 1075.00
20.2483 1039.00
20.5525 1516.00
20.8568 1044.00
21.1611 1123.00
21.4653 1009.00
21.7696 966.00
22.0738 987.00
22.3781 913.00
22.6824 938.00
22.9866 1089.00
23.2909 852.00
23.5951 858.00
23.8994 861.00
24.2037 881.00
24.5079 836.00
24.8122 846.00
25.1164 857.00
25.4207 832.00
25.725 827.00
26.0292 790.00
26.3335 872.00
26.6378 737.00
26.942 709.00
27.2463 837.00
27.5505 707.00
27.8548 861.00
28.1591 751.00
28.4633 719.00
28.7676 686.00
29.0718 656.00
29.3761 650.00
29.6804 733.00
29.9846 613.00
30.2889 670.00
30.5931 735.00
30.8974 785.00
31.2017 914.00
31.5059 609.00
31.8102 619.00
32.1144 637.00
32.4187 602.00
32.723 567.00
33.0272 557.00
33.3315 556.00
33.6357 562.00
33.94 598.00
34.2443 769.00
34.5485 678.00
34.8528 542.00
35.157 513.00
35.4613 504.00
35.7656 479.00
36.0698 520.00
36.3741 473.00
36.6783 444.00
36.9826 418.00
37.2869 447.00
37.5911 463.00
37.8954 430.00
38.1996 430.00
38.5039 405.00
38.8082 386.00
39.1124 444.00
39.4167 436.00
39.7209 440.00
40.0252 405.00
40.3295 393.00
40.6337 386.00
40.938 373.00
41.2422 390.00
41.5465 406.00
41.8508 424.00
42.155 384.00
42.4593 378.00
42.7635 356.00
43.0678 397.00
43.3721 390.00
43.6763 334.00
43.9806 369.00
44.2849 339.00
44.5891 356.00
44.8934 343.00
45.1976 317.00
45.5019 333.00
45.8062 336.00
46.1104 296.00
46.4147 331.00
46.7189 325.00
47.0232 339.00
47.3275 387.00
47.6317 363.00
47.936 302.00
48.2402 353.00
48.5445 317.00
48.8488 329.00
49.153 368.00
49.4573 306.00
49.7615 277.00
50.0658 285.00
50.3701 318.00
50.6743 323.00
50.9786 336.00
51.2828 318.00
51.5871 310.00
51.8914 273.00
52.1956 330.00
52.4999 295.00
52.8041 310.00
53.1084 292.00
53.4127 265.00
53.7169 273.00
54.0212 308.00
54.3254 293.00
54.6297 298.00
54.934 276.00
55.2382 282.00
55.5425 242.00
55.8467 301.00
56.151 299.00
56.4553 257.00
56.7595 234.00
57.0638 278.00
57.368 306.00
57.6723 262.00
57.9766 232.00
58.2808 264.00
58.5851 267.00
58.8893 262.00
59.1936 276.00
59.4979 262.00
59.8021 270.00
60.1064 260.00
60.4106 225.00
60.7149 240.00
61.0192 227.00
61.3234 270.00
61.6277 231.00
61.932 242.00
62.2362 228.00
62.5405 245.00
62.8447 233.00
63.149 223.00
63.4533 206.00
63.7575 191.00
64.0618 215.00
64.366 184.00
64.6703 197.00
64.9745 191.00
65.2788 229.00
65.5831 203.00
65.8873 194.00
66.1916 226.00
66.4959 191.00
66.8001 216.00
67.1044 214.00
67.4086 211.00
67.7129 237.00
68.0172 231.00
68.3214 222.00
68.6257 221.00
68.9299 217.00
69.2342 216.00
69.5385 212.00
69.8427 201.00
70.147 185.00
70.4512 203.00
70.7555 204.00
71.0598 215.00
71.364 210.00
71.6683 221.00
71.9725 193.00
72.2768 202.00
72.5811 215.00
72.8853 214.00
73.1896 216.00
73.4938 205.00
73.7981 216.00
74.1024 219.00
74.4066 213.00
74.7109 200.00
75.0151 207.00
75.3194 239.00
75.6237 213.00
75.9279 237.00
76.2322 229.00
76.5364 194.00
76.8407 201.00
77.145 206.00
77.4492 214.00
77.7535 223.00
78.0577 212.00
78.362 206.00
78.6663 224.00
78.9705 220.00
79.2748 238.00
79.579 242.00
79.8833 234.00
80.1876 217.00
80.4918 232.00
80.7961 202.00
81.1003 272.00
81.4046 265.00
81.7089 222.00
82.0131 246.00
82.3174 223.00
82.6217 260.00
82.9259 240.00
83.2302 281.00
83.5344 258.00
83.8387 263.00
84.143 226.00
84.4472 232.00
84.7515 250.00
85.0557 209.00
85.36 237.00
85.6643 249.00
85.9685 219.00
86.2728 215.00
86.577 215.00
86.8813 229.00
87.1856 208.00
87.4898 238.00
87.7941 264.00
88.0983 230.00
88.4026 208.00
88.7069 199.00
89.0111 223.00
89.3154 213.00
89.6196 214.00
89.9239 233.00
90.2282 214.00
90.5324 190.00
90.8367 213.00
91.1409 206.00
91.4452 205.00
91.7495 220.00
92.0537 231.00
92.358 213.00
92.6622 183.00
92.9665 199.00
93.2708 226.00
93.575 206.00
93.8793 217.00
94.1835 207.00
94.4878 205.00
94.7921 245.00
95.0963 235.00
95.4006 187.00
95.7048 200.00
96.0091 238.00
96.3134 221.00
96.6176 195.00
96.9219 222.00
97.2261 189.00
97.5304 211.00
97.8347 197.00
98.1389 175.00
98.4432 214.00
98.7474 198.00
99.0517 191.00
99.356 193.00
99.6602 198.00
99.9645 164.00
100.095 177.00