File: data/xrd_creation/results/NSC_63.xy
9.903433 2796.00
10.2077 2693.00
10.512 2582.00
10.8162 2542.00
11.1205 2331.00
11.4247 2268.00
11.729 2168.00
12.0333 2239.00
12.3375 2080.00
12.6418 2105.00
12.946 2041.00
13.2503 1925.00
13.5546 1884.00
13.8588 2400.00
14.1631 2172.00
14.4673 1863.00
14.7716 1846.00
15.0759 1782.00
15.3801 1976.00
15.6844 2470.00
15.9886 1774.00
16.2929 1685.00
16.5972 1655.00
16.9014 1696.00
17.2057 1570.00
17.5099 1527.00
17.8142 1473.00
18.1185 1465.00
18.4227 1504.00
18.727 1402.00
19.0312 1479.00
19.3355 1715.00
19.6398 2803.00
19.944 2436.00
20.2483 1652.00
20.5525 1564.00
20.8568 1385.00
21.1611 1317.00
21.4653 1526.00
21.7696 1547.00
22.0738 1275.00
22.3781 1302.00
22.6824 1338.00
22.9866 1381.00
23.2909 1631.00
23.5951 1135.00
23.8994 1183.00
24.2037 1208.00
24.5079 1350.00
24.8122 1205.00
25.1164 1157.00
25.4207 1196.00
25.725 1108.00
26.0292 1008.00
26.3335 1033.00
26.6378 1138.00
26.942 1158.00
27.2463 1031.00
27.5505 977.00
27.8548 1316.00
28.1591 1827.00
28.4633 1324.00
28.7676 1088.00
29.0718 1004.00
29.3761 1014.00
29.6804 1007.00
29.9846 1033.00
30.2889 1397.00
30.5931 2697.00
30.8974 1638.00
31.2017 2638.00
31.5059 2522.00
31.8102 1957.00
32.1144 1578.00
32.4187 1650.00
32.723 1139.00
33.0272 950.00
33.3315 948.00
33.6357 1078.00
33.94 896.00
34.2443 1023.00
34.5485 1849.00
34.8528 2853.00
35.157 1157.00
35.4613 1208.00
35.7656 895.00
36.0698 743.00
36.3741 772.00
36.6783 865.00
36.9826 730.00
37.2869 716.00
37.5911 710.00
37.8954 786.00
38.1996 780.00
38.5039 750.00
38.8082 692.00
39.1124 590.00
39.4167 659.00
39.7209 715.00
40.0252 683.00
40.3295 753.00
40.6337 861.00
40.938 662.00
41.2422 580.00
41.5465 640.00
41.8508 721.00
42.155 1026.00
42.4593 1205.00
42.7635 1034.00
43.0678 827.00
43.3721 730.00
43.6763 634.00
43.9806 662.00
44.2849 623.00
44.5891 745.00
44.8934 852.00
45.1976 1057.00
45.5019 955.00
45.8062 844.00
46.1104 665.00
46.4147 695.00
46.7189 673.00
47.0232 787.00
47.3275 1092.00
47.6317 1308.00
47.936 587.00
48.2402 522.00
48.5445 606.00
48.8488 695.00
49.153 845.00
49.4573 606.00
49.7615 617.00
50.0658 649.00
50.3701 570.00
50.6743 680.00
50.9786 1247.00
51.2828 1185.00
51.5871 1130.00
51.8914 627.00
52.1956 574.00
52.4999 602.00
52.8041 569.00
53.1084 613.00
53.4127 545.00
53.7169 634.00
54.0212 840.00
54.3254 1312.00
54.6297 684.00
54.934 513.00
55.2382 495.00
55.5425 549.00
55.8467 720.00
56.151 643.00
56.4553 596.00
56.7595 787.00
57.0638 637.00
57.368 485.00
57.6723 501.00
57.9766 502.00
58.2808 478.00
58.5851 470.00
58.8893 560.00
59.1936 695.00
59.4979 812.00
59.8021 913.00
60.1064 1122.00
60.4106 992.00
60.7149 1047.00
61.0192 751.00
61.3234 793.00
61.6277 674.00
61.932 650.00
62.2362 899.00
62.5405 683.00
62.8447 593.00
63.149 630.00
63.4533 552.00
63.7575 663.00
64.0618 525.00
64.366 507.00
64.6703 536.00
64.9745 476.00
65.2788 537.00
65.5831 460.00
65.8873 553.00
66.1916 649.00
66.4959 536.00
66.8001 526.00
67.1044 540.00
67.4086 646.00
67.7129 562.00
68.0172 540.00
68.3214 478.00
68.6257 453.00
68.9299 418.00
69.2342 442.00
69.5385 521.00
69.8427 555.00
70.147 446.00
70.4512 465.00
70.7555 428.00
71.0598 463.00
71.364 455.00
71.6683 457.00
71.9725 418.00
72.2768 431.00
72.5811 388.00
72.8853 418.00
73.1896 450.00
73.4938 524.00
73.7981 481.00
74.1024 438.00
74.4066 458.00
74.7109 401.00
75.0151 451.00
75.3194 432.00
75.6237 427.00
75.9279 440.00
76.2322 415.00
76.5364 440.00
76.8407 561.00
77.145 504.00
77.4492 425.00
77.7535 406.00
78.0577 461.00
78.362 451.00
78.6663 451.00
78.9705 379.00
79.2748 391.00
79.579 374.00
79.8833 384.00
80.1876 418.00
80.4918 407.00
80.7961 454.00
81.1003 469.00
81.4046 432.00
81.7089 542.00
82.0131 575.00
82.3174 503.00
82.6217 463.00
82.9259 419.00
83.2302 484.00
83.5344 473.00
83.8387 460.00
84.143 395.00
84.4472 375.00
84.7515 318.00
85.0557 329.00
85.36 358.00
85.6643 389.00
85.9685 420.00
86.2728 426.00
86.577 408.00
86.8813 418.00
87.1856 454.00
87.4898 396.00
87.7941 383.00
88.0983 380.00
88.4026 475.00
88.7069 475.00
89.0111 437.00
89.3154 405.00
89.6196 439.00
89.9239 397.00
90.2282 395.00
90.5324 393.00
90.8367 418.00
91.1409 395.00
91.4452 440.00
91.7495 429.00
92.0537 438.00
92.358 481.00
92.6622 452.00
92.9665 380.00
93.2708 407.00
93.575 392.00
93.8793 414.00
94.1835 403.00
94.4878 388.00
94.7921 418.00
95.0963 506.00
95.4006 501.00
95.7048 442.00
96.0091 439.00
96.3134 437.00
96.6176 449.00
96.9219 381.00
97.2261 404.00
97.5304 446.00
97.8347 441.00
98.1389 429.00
98.4432 400.00
98.7474 449.00
99.0517 436.00
99.356 378.00
99.6602 387.00
99.9645 369.00
100.095 405.00