File: data/xrd_creation/results/NSC_161.xy
9.903433 2729.00
10.2077 2538.00
10.512 2621.00
10.8162 2398.00
11.1205 2349.00
11.4247 2233.00
11.729 2154.00
12.0333 2040.00
12.3375 2005.00
12.6418 1864.00
12.946 1947.00
13.2503 1798.00
13.5546 1700.00
13.8588 1753.00
14.1631 1829.00
14.4673 1723.00
14.7716 1752.00
15.0759 1692.00
15.3801 1703.00
15.6844 1649.00
15.9886 1697.00
16.2929 1662.00
16.5972 1658.00
16.9014 1677.00
17.2057 1563.00
17.5099 1574.00
17.8142 1576.00
18.1185 1625.00
18.4227 1604.00
18.727 1595.00
19.0312 1532.00
19.3355 1518.00
19.6398 1477.00
19.944 1495.00
20.2483 1543.00
20.5525 1626.00
20.8568 1449.00
21.1611 1456.00
21.4653 1488.00
21.7696 1435.00
22.0738 1401.00
22.3781 1425.00
22.6824 1403.00
22.9866 1429.00
23.2909 1316.00
23.5951 1420.00
23.8994 1413.00
24.2037 1283.00
24.5079 1350.00
24.8122 1353.00
25.1164 1331.00
25.4207 1572.00
25.725 1328.00
26.0292 1340.00
26.3335 1372.00
26.6378 1261.00
26.942 1310.00
27.2463 1242.00
27.5505 1205.00
27.8548 1268.00
28.1591 1196.00
28.4633 1189.00
28.7676 1328.00
29.0718 1258.00
29.3761 1291.00
29.6804 1284.00
29.9846 1446.00
30.2889 1243.00
30.5931 1251.00
30.8974 1275.00
31.2017 1252.00
31.5059 1219.00
31.8102 1160.00
32.1144 1221.00
32.4187 1104.00
32.723 1099.00
33.0272 1108.00
33.3315 1147.00
33.6357 1283.00
33.94 1071.00
34.2443 1047.00
34.5485 1070.00
34.8528 1051.00
35.157 1524.00
35.4613 934.00
35.7656 939.00
36.0698 902.00
36.3741 896.00
36.6783 824.00
36.9826 802.00
37.2869 812.00
37.5911 879.00
37.8954 919.00
38.1996 771.00
38.5039 749.00
38.8082 811.00
39.1124 730.00
39.4167 725.00
39.7209 700.00
40.0252 725.00
40.3295 663.00
40.6337 654.00
40.938 668.00
41.2422 630.00
41.5465 679.00
41.8508 654.00
42.155 633.00
42.4593 632.00
42.7635 663.00
43.0678 610.00
43.3721 1268.00
43.6763 660.00
43.9806 615.00
44.2849 603.00
44.5891 546.00
44.8934 597.00
45.1976 571.00
45.5019 605.00
45.8062 572.00
46.1104 611.00
46.4147 589.00
46.7189 574.00
47.0232 595.00
47.3275 573.00
47.6317 562.00
47.936 560.00
48.2402 614.00
48.5445 586.00
48.8488 519.00
49.153 543.00
49.4573 541.00
49.7615 553.00
50.0658 540.00
50.3701 536.00
50.6743 553.00
50.9786 552.00
51.2828 546.00
51.5871 612.00
51.8914 546.00
52.1956 542.00
52.4999 812.00
52.8041 521.00
53.1084 513.00
53.4127 532.00
53.7169 500.00
54.0212 564.00
54.3254 492.00
54.6297 532.00
54.934 467.00
55.2382 502.00
55.5425 525.00
55.8467 534.00
56.151 510.00
56.4553 486.00
56.7595 487.00
57.0638 523.00
57.368 940.00
57.6723 620.00
57.9766 473.00
58.2808 483.00
58.5851 507.00
58.8893 493.00
59.1936 508.00
59.4979 481.00
59.8021 500.00
60.1064 522.00
60.4106 483.00
60.7149 455.00
61.0192 502.00
61.3234 527.00
61.6277 484.00
61.932 477.00
62.2362 499.00
62.5405 453.00
62.8447 483.00
63.149 454.00
63.4533 478.00
63.7575 495.00
64.0618 478.00
64.366 440.00
64.6703 463.00
64.9745 455.00
65.2788 452.00
65.5831 468.00
65.8873 488.00
66.1916 445.00
66.4959 728.00
66.8001 475.00
67.1044 456.00
67.4086 397.00
67.7129 436.00
68.0172 488.00
68.3214 573.00
68.6257 437.00
68.9299 383.00
69.2342 443.00
69.5385 401.00
69.8427 392.00
70.147 393.00
70.4512 408.00
70.7555 413.00
71.0598 416.00
71.364 449.00
71.6683 382.00
71.9725 390.00
72.2768 370.00
72.5811 367.00
72.8853 411.00
73.1896 342.00
73.4938 394.00
73.7981 420.00
74.1024 401.00
74.4066 400.00
74.7109 367.00
75.0151 372.00
75.3194 375.00
75.6237 393.00
75.9279 374.00
76.2322 389.00
76.5364 362.00
76.8407 698.00
77.145 475.00
77.4492 380.00
77.7535 386.00
78.0577 393.00
78.362 409.00
78.6663 345.00
78.9705 356.00
79.2748 399.00
79.579 329.00
79.8833 320.00
80.1876 388.00
80.4918 374.00
80.7961 347.00
81.1003 333.00
81.4046 351.00
81.7089 335.00
82.0131 361.00
82.3174 352.00
82.6217 357.00
82.9259 348.00
83.2302 371.00
83.5344 368.00
83.8387 345.00
84.143 341.00
84.4472 302.00
84.7515 338.00
85.0557 324.00
85.36 317.00
85.6643 342.00
85.9685 322.00
86.2728 321.00
86.577 325.00
86.8813 307.00
87.1856 315.00
87.4898 343.00
87.7941 300.00
88.0983 283.00
88.4026 319.00
88.7069 323.00
89.0111 360.00
89.3154 328.00
89.6196 319.00
89.9239 294.00
90.2282 285.00
90.5324 310.00
90.8367 347.00
91.1409 402.00
91.4452 339.00
91.7495 311.00
92.0537 313.00
92.358 297.00
92.6622 305.00
92.9665 295.00
93.2708 304.00
93.575 325.00
93.8793 282.00
94.1835 288.00
94.4878 283.00
94.7921 297.00
95.0963 325.00
95.4006 327.00
95.7048 307.00
96.0091 307.00
96.3134 292.00
96.6176 281.00
96.9219 320.00
97.2261 286.00
97.5304 314.00
97.8347 330.00
98.1389 309.00
98.4432 272.00
98.7474 292.00
99.0517 296.00
99.356 312.00
99.6602 285.00
99.9645 301.00
100.095 300.00