File: data/xrd_creation/results/NSC_187.xy
9.903433 2599.00
10.2077 2452.00
10.512 2380.00
10.8162 2242.00
11.1205 2134.00
11.4247 2081.00
11.729 2019.00
12.0333 1936.00
12.3375 1845.00
12.6418 1846.00
12.946 1789.00
13.2503 1697.00
13.5546 1676.00
13.8588 1672.00
14.1631 1645.00
14.4673 1563.00
14.7716 1496.00
15.0759 1436.00
15.3801 1405.00
15.6844 1421.00
15.9886 1445.00
16.2929 1454.00
16.5972 1414.00
16.9014 1394.00
17.2057 1273.00
17.5099 1349.00
17.8142 1274.00
18.1185 1232.00
18.4227 1226.00
18.727 1177.00
19.0312 1176.00
19.3355 1223.00
19.6398 1119.00
19.944 1193.00
20.2483 1211.00
20.5525 2358.00
20.8568 7837.00
21.1611 4911.00
21.4653 4461.00
21.7696 1209.00
22.0738 1086.00
22.3781 1011.00
22.6824 978.00
22.9866 1092.00
23.2909 983.00
23.5951 1559.00
23.8994 1304.00
24.2037 979.00
24.5079 895.00
24.8122 950.00
25.1164 949.00
25.4207 1343.00
25.725 1020.00
26.0292 862.00
26.3335 929.00
26.6378 994.00
26.942 1626.00
27.2463 909.00
27.5505 798.00
27.8548 836.00
28.1591 810.00
28.4633 798.00
28.7676 851.00
29.0718 784.00
29.3761 883.00
29.6804 905.00
29.9846 1093.00
30.2889 4031.00
30.5931 4362.00
30.8974 1049.00
31.2017 861.00
31.5059 856.00
31.8102 810.00
32.1144 893.00
32.4187 883.00
32.723 1253.00
33.0272 6966.00
33.3315 1867.00
33.6357 1039.00
33.94 1355.00
34.2443 7335.00
34.5485 3971.00
34.8528 6788.00
35.157 10377.00
35.4613 1567.00
35.7656 915.00
36.0698 826.00
36.3741 790.00
36.6783 739.00
36.9826 917.00
37.2869 2459.00
37.5911 1410.00
37.8954 866.00
38.1996 1012.00
38.5039 700.00
38.8082 719.00
39.1124 671.00
39.4167 905.00
39.7209 1210.00
40.0252 833.00
40.3295 1232.00
40.6337 842.00
40.938 591.00
41.2422 695.00
41.5465 681.00
41.8508 810.00
42.155 1733.00
42.4593 1168.00
42.7635 655.00
43.0678 1078.00
43.3721 814.00
43.6763 529.00
43.9806 530.00
44.2849 513.00
44.5891 569.00
44.8934 553.00
45.1976 573.00
45.5019 899.00
45.8062 1260.00
46.1104 923.00
46.4147 2412.00
46.7189 1011.00
47.0232 606.00
47.3275 556.00
47.6317 534.00
47.936 634.00
48.2402 2173.00
48.5445 1223.00
48.8488 520.00
49.153 521.00
49.4573 547.00
49.7615 525.00
50.0658 791.00
50.3701 786.00
50.6743 609.00
50.9786 508.00
51.2828 498.00
51.5871 783.00
51.8914 1071.00
52.1956 3238.00
52.4999 824.00
52.8041 439.00
53.1084 450.00
53.4127 509.00
53.7169 538.00
54.0212 914.00
54.3254 813.00
54.6297 1084.00
54.934 781.00
55.2382 1821.00
55.5425 1290.00
55.8467 503.00
56.151 501.00
56.4553 510.00
56.7595 642.00
57.0638 2010.00
57.368 2836.00
57.6723 744.00
57.9766 878.00
58.2808 502.00
58.5851 483.00
58.8893 484.00
59.1936 468.00
59.4979 473.00
59.8021 494.00
60.1064 1018.00
60.4106 638.00
60.7149 494.00
61.0192 505.00
61.3234 740.00
61.6277 3251.00
61.932 2463.00
62.2362 830.00
62.5405 686.00
62.8447 975.00
63.149 1959.00
63.4533 1274.00
63.7575 1771.00
64.0618 1360.00
64.366 509.00
64.6703 605.00
64.9745 667.00
65.2788 559.00
65.5831 845.00
65.8873 1362.00
66.1916 597.00
66.4959 506.00
66.8001 646.00
67.1044 539.00
67.4086 459.00
67.7129 761.00
68.0172 984.00
68.3214 2186.00
68.6257 1294.00
68.9299 742.00
69.2342 906.00
69.5385 611.00
69.8427 409.00
70.147 403.00
70.4512 448.00
70.7555 447.00
71.0598 357.00
71.364 472.00
71.6683 1113.00
71.9725 1018.00
72.2768 574.00
72.5811 391.00
72.8853 395.00
73.1896 456.00
73.4938 728.00
73.7981 956.00
74.1024 467.00
74.4066 358.00
74.7109 356.00
75.0151 349.00
75.3194 397.00
75.6237 492.00
75.9279 538.00
76.2322 473.00
76.5364 529.00
76.8407 471.00
77.145 473.00
77.4492 375.00
77.7535 448.00
78.0577 384.00
78.362 322.00
78.6663 406.00
78.9705 410.00
79.2748 464.00
79.579 446.00
79.8833 437.00
80.1876 491.00
80.4918 449.00
80.7961 484.00
81.1003 620.00
81.4046 663.00
81.7089 520.00
82.0131 434.00
82.3174 351.00
82.6217 386.00
82.9259 431.00
83.2302 344.00
83.5344 355.00
83.8387 355.00
84.143 367.00
84.4472 366.00
84.7515 436.00
85.0557 400.00
85.36 369.00
85.6643 438.00
85.9685 528.00
86.2728 727.00
86.577 618.00
86.8813 780.00
87.1856 1160.00
87.4898 671.00
87.7941 427.00
88.0983 455.00
88.4026 382.00
88.7069 326.00
89.0111 347.00
89.3154 402.00
89.6196 376.00
89.9239 365.00
90.2282 411.00
90.5324 372.00
90.8367 349.00
91.1409 364.00
91.4452 491.00
91.7495 793.00
92.0537 663.00
92.358 408.00
92.6622 376.00
92.9665 357.00
93.2708 362.00
93.575 445.00
93.8793 1000.00
94.1835 1106.00
94.4878 869.00
94.7921 485.00
95.0963 407.00
95.4006 420.00
95.7048 644.00
96.0091 522.00
96.3134 373.00
96.6176 386.00
96.9219 388.00
97.2261 353.00
97.5304 378.00
97.8347 396.00
98.1389 506.00
98.4432 660.00
98.7474 569.00
99.0517 383.00
99.356 352.00
99.6602 321.00
99.9645 371.00
100.095 335.00