File: data/xrd_creation/results/NSC_100.xy
9.903433 2715.00
10.2077 2627.00
10.512 2480.00
10.8162 2470.00
11.1205 2340.00
11.4247 2305.00
11.729 2001.00
12.0333 2211.00
12.3375 2091.00
12.6418 1940.00
12.946 1866.00
13.2503 1890.00
13.5546 1765.00
13.8588 1735.00
14.1631 1816.00
14.4673 2279.00
14.7716 1917.00
15.0759 1667.00
15.3801 1655.00
15.6844 1576.00
15.9886 1545.00
16.2929 1628.00
16.5972 1457.00
16.9014 1499.00
17.2057 1671.00
17.5099 1574.00
17.8142 1622.00
18.1185 1484.00
18.4227 1468.00
18.727 1397.00
19.0312 1400.00
19.3355 1490.00
19.6398 2720.00
19.944 3138.00
20.2483 3410.00
20.5525 1596.00
20.8568 2200.00
21.1611 12434.00
21.4653 1480.00
21.7696 1308.00
22.0738 1359.00
22.3781 1484.00
22.6824 3186.00
22.9866 1299.00
23.2909 1235.00
23.5951 1231.00
23.8994 1364.00
24.2037 3411.00
24.5079 1392.00
24.8122 1065.00
25.1164 1206.00
25.4207 1283.00
25.725 973.00
26.0292 1023.00
26.3335 1012.00
26.6378 1097.00
26.942 992.00
27.2463 942.00
27.5505 1039.00
27.8548 1234.00
28.1591 950.00
28.4633 892.00
28.7676 1122.00
29.0718 1943.00
29.3761 2183.00
29.6804 1018.00
29.9846 1060.00
30.2889 833.00
30.5931 891.00
30.8974 947.00
31.2017 950.00
31.5059 942.00
31.8102 1404.00
32.1144 10945.00
32.4187 1107.00
32.723 1505.00
33.0272 791.00
33.3315 785.00
33.6357 764.00
33.94 792.00
34.2443 964.00
34.5485 833.00
34.8528 711.00
35.157 703.00
35.4613 753.00
35.7656 823.00
36.0698 1266.00
36.3741 1911.00
36.6783 1533.00
36.9826 2396.00
37.2869 788.00
37.5911 882.00
37.8954 1263.00
38.1996 669.00
38.5039 674.00
38.8082 936.00
39.1124 683.00
39.4167 797.00
39.7209 669.00
40.0252 672.00
40.3295 626.00
40.6337 1339.00
40.938 580.00
41.2422 633.00
41.5465 560.00
41.8508 557.00
42.155 1475.00
42.4593 710.00
42.7635 1597.00
43.0678 613.00
43.3721 655.00
43.6763 607.00
43.9806 647.00
44.2849 2214.00
44.5891 768.00
44.8934 574.00
45.1976 690.00
45.5019 676.00
45.8062 633.00
46.1104 2572.00
46.4147 657.00
46.7189 589.00
47.0232 574.00
47.3275 733.00
47.6317 3018.00
47.936 638.00
48.2402 536.00
48.5445 577.00
48.8488 700.00
49.153 655.00
49.4573 3670.00
49.7615 767.00
50.0658 634.00
50.3701 1027.00
50.6743 529.00
50.9786 509.00
51.2828 583.00
51.5871 816.00
51.8914 596.00
52.1956 625.00
52.4999 3716.00
52.8041 626.00
53.1084 596.00
53.4127 655.00
53.7169 474.00
54.0212 492.00
54.3254 471.00
54.6297 597.00
54.934 493.00
55.2382 484.00
55.5425 499.00
55.8467 1293.00
56.151 534.00
56.4553 523.00
56.7595 662.00
57.0638 2243.00
57.368 1350.00
57.6723 1916.00
57.9766 530.00
58.2808 526.00
58.5851 578.00
58.8893 912.00
59.1936 797.00
59.4979 438.00
59.8021 446.00
60.1064 543.00
60.4106 713.00
60.7149 810.00
61.0192 627.00
61.3234 803.00
61.6277 1447.00
61.932 474.00
62.2362 551.00
62.5405 660.00
62.8447 609.00
63.149 2284.00
63.4533 1152.00
63.7575 557.00
64.0618 463.00
64.366 495.00
64.6703 621.00
64.9745 490.00
65.2788 444.00
65.5831 1007.00
65.8873 1094.00
66.1916 1132.00
66.4959 541.00
66.8001 507.00
67.1044 523.00
67.4086 1290.00
67.7129 656.00
68.0172 531.00
68.3214 419.00
68.6257 380.00
68.9299 413.00
69.2342 423.00
69.5385 542.00
69.8427 1142.00
70.147 544.00
70.4512 461.00
70.7555 355.00
71.0598 528.00
71.364 684.00
71.6683 546.00
71.9725 444.00
72.2768 429.00
72.5811 405.00
72.8853 401.00
73.1896 400.00
73.4938 519.00
73.7981 960.00
74.1024 452.00
74.4066 425.00
74.7109 379.00
75.0151 418.00
75.3194 883.00
75.6237 695.00
75.9279 665.00
76.2322 597.00
76.5364 495.00
76.8407 383.00
77.145 406.00
77.4492 431.00
77.7535 539.00
78.0577 739.00
78.362 496.00
78.6663 375.00
78.9705 421.00
79.2748 519.00
79.579 443.00
79.8833 461.00
80.1876 519.00
80.4918 476.00
80.7961 437.00
81.1003 390.00
81.4046 866.00
81.7089 804.00
82.0131 556.00
82.3174 385.00
82.6217 421.00
82.9259 793.00
83.2302 653.00
83.5344 436.00
83.8387 366.00
84.143 362.00
84.4472 350.00
84.7515 338.00
85.0557 443.00
85.36 444.00
85.6643 383.00
85.9685 395.00
86.2728 371.00
86.577 798.00
86.8813 622.00
87.1856 395.00
87.4898 495.00
87.7941 855.00
88.0983 746.00
88.4026 437.00
88.7069 408.00
89.0111 555.00
89.3154 402.00
89.6196 346.00
89.9239 386.00
90.2282 356.00
90.5324 551.00
90.8367 494.00
91.1409 482.00
91.4452 472.00
91.7495 415.00
92.0537 368.00
92.358 389.00
92.6622 813.00
92.9665 740.00
93.2708 509.00
93.575 391.00
93.8793 346.00
94.1835 472.00
94.4878 497.00
94.7921 420.00
95.0963 388.00
95.4006 584.00
95.7048 497.00
96.0091 388.00
96.3134 530.00
96.6176 522.00
96.9219 405.00
97.2261 399.00
97.5304 375.00
97.8347 511.00
98.1389 771.00
98.4432 632.00
98.7474 373.00
99.0517 346.00
99.356 351.00
99.6602 343.00
99.9645 448.00
100.095 553.00