File: data/xrd_creation/results/NSC_163.xy
9.903433 2692.00
10.2077 2580.00
10.512 2382.00
10.8162 2297.00
11.1205 2170.00
11.4247 2140.00
11.729 2159.00
12.0333 2155.00
12.3375 2000.00
12.6418 1992.00
12.946 1821.00
13.2503 1941.00
13.5546 1763.00
13.8588 1774.00
14.1631 2022.00
14.4673 3853.00
14.7716 1769.00
15.0759 1595.00
15.3801 1629.00
15.6844 1602.00
15.9886 1650.00
16.2929 1621.00
16.5972 1565.00
16.9014 1576.00
17.2057 1531.00
17.5099 1615.00
17.8142 1496.00
18.1185 1452.00
18.4227 1471.00
18.727 1439.00
19.0312 1405.00
19.3355 1546.00
19.6398 2006.00
19.944 7898.00
20.2483 1975.00
20.5525 5229.00
20.8568 4441.00
21.1611 1496.00
21.4653 1397.00
21.7696 1402.00
22.0738 1397.00
22.3781 1326.00
22.6824 1271.00
22.9866 1323.00
23.2909 1261.00
23.5951 1713.00
23.8994 7680.00
24.2037 1500.00
24.5079 1343.00
24.8122 1228.00
25.1164 1167.00
25.4207 1148.00
25.725 1214.00
26.0292 1697.00
26.3335 2709.00
26.6378 1234.00
26.942 1185.00
27.2463 1090.00
27.5505 1106.00
27.8548 1878.00
28.1591 1290.00
28.4633 1649.00
28.7676 6252.00
29.0718 1342.00
29.3761 1101.00
29.6804 1146.00
29.9846 1039.00
30.2889 1032.00
30.5931 1025.00
30.8974 1050.00
31.2017 1210.00
31.5059 3543.00
31.8102 7376.00
32.1144 1499.00
32.4187 1006.00
32.723 1104.00
33.0272 947.00
33.3315 982.00
33.6357 1054.00
33.94 1091.00
34.2443 1275.00
34.5485 995.00
34.8528 1008.00
35.157 1130.00
35.4613 2735.00
35.7656 2680.00
36.0698 4015.00
36.3741 1286.00
36.6783 1185.00
36.9826 856.00
37.2869 878.00
37.5911 883.00
37.8954 887.00
38.1996 1051.00
38.5039 1156.00
38.8082 859.00
39.1124 905.00
39.4167 926.00
39.7209 1141.00
40.0252 1192.00
40.3295 1197.00
40.6337 803.00
40.938 835.00
41.2422 904.00
41.5465 1246.00
41.8508 1916.00
42.155 1346.00
42.4593 984.00
42.7635 937.00
43.0678 932.00
43.3721 1371.00
43.6763 1543.00
43.9806 978.00
44.2849 943.00
44.5891 942.00
44.8934 836.00
45.1976 1377.00
45.5019 2177.00
45.8062 1044.00
46.1104 933.00
46.4147 1608.00
46.7189 1533.00
47.0232 1245.00
47.3275 1270.00
47.6317 816.00
47.936 927.00
48.2402 1521.00
48.5445 2869.00
48.8488 1636.00
49.153 1170.00
49.4573 955.00
49.7615 741.00
50.0658 826.00
50.3701 814.00
50.6743 757.00
50.9786 914.00
51.2828 1013.00
51.5871 1504.00
51.8914 2160.00
52.1956 1503.00
52.4999 1043.00
52.8041 824.00
53.1084 835.00
53.4127 865.00
53.7169 848.00
54.0212 849.00
54.3254 859.00
54.6297 1181.00
54.934 1743.00
55.2382 1075.00
55.5425 1423.00
55.8467 2630.00
56.151 2501.00
56.4553 1108.00
56.7595 801.00
57.0638 888.00
57.368 996.00
57.6723 893.00
57.9766 771.00
58.2808 886.00
58.5851 1027.00
58.8893 1391.00
59.1936 1256.00
59.4979 907.00
59.8021 774.00
60.1064 1019.00
60.4106 1362.00
60.7149 1497.00
61.0192 907.00
61.3234 1132.00
61.6277 1716.00
61.932 1528.00
62.2362 901.00
62.5405 988.00
62.8447 1184.00
63.149 1312.00
63.4533 1012.00
63.7575 985.00
64.0618 1288.00
64.366 1477.00
64.6703 1234.00
64.9745 881.00
65.2788 725.00
65.5831 871.00
65.8873 1027.00
66.1916 1118.00
66.4959 1071.00
66.8001 1124.00
67.1044 1211.00
67.4086 884.00
67.7129 954.00
68.0172 1181.00
68.3214 1137.00
68.6257 1014.00
68.9299 860.00
69.2342 837.00
69.5385 1041.00
69.8427 1037.00
70.147 852.00
70.4512 880.00
70.7555 837.00
71.0598 725.00
71.364 923.00
71.6683 1160.00
71.9725 1068.00
72.2768 844.00
72.5811 703.00
72.8853 758.00
73.1896 710.00
73.4938 782.00
73.7981 779.00
74.1024 870.00
74.4066 1033.00
74.7109 1019.00
75.0151 899.00
75.3194 970.00
75.6237 1083.00
75.9279 1167.00
76.2322 1001.00
76.5364 861.00
76.8407 758.00
77.145 759.00
77.4492 801.00
77.7535 841.00
78.0577 790.00
78.362 801.00
78.6663 777.00
78.9705 933.00
79.2748 1143.00
79.579 1148.00
79.8833 978.00
80.1876 813.00
80.4918 757.00
80.7961 762.00
81.1003 869.00
81.4046 855.00
81.7089 939.00
82.0131 1001.00
82.3174 809.00
82.6217 744.00
82.9259 732.00
83.2302 761.00
83.5344 813.00
83.8387 814.00
84.143 937.00
84.4472 990.00
84.7515 909.00
85.0557 764.00
85.36 810.00
85.6643 901.00
85.9685 939.00
86.2728 893.00
86.577 895.00
86.8813 899.00
87.1856 841.00
87.4898 833.00
87.7941 784.00
88.0983 751.00
88.4026 732.00
88.7069 806.00
89.0111 852.00
89.3154 888.00
89.6196 794.00
89.9239 963.00
90.2282 1048.00
90.5324 1139.00
90.8367 946.00
91.1409 864.00
91.4452 770.00
91.7495 806.00
92.0537 884.00
92.358 922.00
92.6622 966.00
92.9665 933.00
93.2708 875.00
93.575 846.00
93.8793 817.00
94.1835 867.00
94.4878 826.00
94.7921 819.00
95.0963 889.00
95.4006 922.00
95.7048 946.00
96.0091 913.00
96.3134 949.00
96.6176 934.00
96.9219 938.00
97.2261 972.00
97.5304 874.00
97.8347 846.00
98.1389 845.00
98.4432 709.00
98.7474 770.00
99.0517 735.00
99.356 795.00
99.6602 834.00
99.9645 898.00
100.095 900.00