File: data/xrd_creation/results/NSC_172.xy
9.903433 2836.00
10.2077 2715.00
10.512 2537.00
10.8162 2450.00
11.1205 2394.00
11.4247 2279.00
11.729 2199.00
12.0333 2201.00
12.3375 2192.00
12.6418 2062.00
12.946 2029.00
13.2503 2025.00
13.5546 1964.00
13.8588 2035.00
14.1631 2148.00
14.4673 3410.00
14.7716 1858.00
15.0759 1748.00
15.3801 1788.00
15.6844 1750.00
15.9886 1820.00
16.2929 1821.00
16.5972 1723.00
16.9014 1699.00
17.2057 1711.00
17.5099 1634.00
17.8142 1619.00
18.1185 1535.00
18.4227 1560.00
18.727 1552.00
19.0312 1389.00
19.3355 1581.00
19.6398 1602.00
19.944 4622.00
20.2483 2107.00
20.5525 7015.00
20.8568 1580.00
21.1611 1380.00
21.4653 1412.00
21.7696 1446.00
22.0738 1330.00
22.3781 1310.00
22.6824 1299.00
22.9866 1229.00
23.2909 1496.00
23.5951 2002.00
23.8994 7907.00
24.2037 1434.00
24.5079 1225.00
24.8122 1234.00
25.1164 1171.00
25.4207 1117.00
25.725 1076.00
26.0292 1119.00
26.3335 1118.00
26.6378 1228.00
26.942 4597.00
27.2463 1142.00
27.5505 1045.00
27.8548 1002.00
28.1591 1038.00
28.4633 1298.00
28.7676 5027.00
29.0718 997.00
29.3761 870.00
29.6804 909.00
29.9846 995.00
30.2889 905.00
30.5931 871.00
30.8974 924.00
31.2017 979.00
31.5059 1556.00
31.8102 9756.00
32.1144 1119.00
32.4187 886.00
32.723 851.00
33.0272 866.00
33.3315 831.00
33.6357 824.00
33.94 943.00
34.2443 3283.00
34.5485 1006.00
34.8528 773.00
35.157 968.00
35.4613 2481.00
35.7656 4564.00
36.0698 882.00
36.3741 725.00
36.6783 715.00
36.9826 690.00
37.2869 659.00
37.5911 664.00
37.8954 685.00
38.1996 1112.00
38.5039 841.00
38.8082 659.00
39.1124 668.00
39.4167 698.00
39.7209 644.00
40.0252 642.00
40.3295 966.00
40.6337 669.00
40.938 620.00
41.2422 610.00
41.5465 660.00
41.8508 657.00
42.155 912.00
42.4593 809.00
42.7635 735.00
43.0678 677.00
43.3721 1149.00
43.6763 730.00
43.9806 749.00
44.2849 549.00
44.5891 538.00
44.8934 556.00
45.1976 609.00
45.5019 1236.00
45.8062 841.00
46.1104 718.00
46.4147 1253.00
46.7189 615.00
47.0232 549.00
47.3275 770.00
47.6317 915.00
47.936 714.00
48.2402 1145.00
48.5445 2341.00
48.8488 912.00
49.153 780.00
49.4573 681.00
49.7615 481.00
50.0658 522.00
50.3701 531.00
50.6743 498.00
50.9786 542.00
51.2828 502.00
51.5871 564.00
51.8914 1196.00
52.1956 3641.00
52.4999 790.00
52.8041 598.00
53.1084 547.00
53.4127 497.00
53.7169 495.00
54.0212 470.00
54.3254 469.00
54.6297 521.00
54.934 983.00
55.2382 935.00
55.5425 1741.00
55.8467 1309.00
56.151 558.00
56.4553 472.00
56.7595 487.00
57.0638 636.00
57.368 510.00
57.6723 442.00
57.9766 502.00
58.2808 524.00
58.5851 422.00
58.8893 514.00
59.1936 648.00
59.4979 691.00
59.8021 491.00
60.1064 464.00
60.4106 615.00
60.7149 1280.00
61.0192 605.00
61.3234 984.00
61.6277 1062.00
61.932 666.00
62.2362 884.00
62.5405 510.00
62.8447 488.00
63.149 612.00
63.4533 786.00
63.7575 1018.00
64.0618 717.00
64.366 523.00
64.6703 704.00
64.9745 886.00
65.2788 590.00
65.5831 454.00
65.8873 462.00
66.1916 766.00
66.4959 670.00
66.8001 522.00
67.1044 559.00
67.4086 858.00
67.7129 663.00
68.0172 440.00
68.3214 639.00
68.6257 594.00
68.9299 544.00
69.2342 572.00
69.5385 455.00
69.8427 374.00
70.147 378.00
70.4512 369.00
70.7555 397.00
71.0598 514.00
71.364 851.00
71.6683 704.00
71.9725 426.00
72.2768 487.00
72.5811 452.00
72.8853 368.00
73.1896 347.00
73.4938 347.00
73.7981 344.00
74.1024 354.00
74.4066 467.00
74.7109 563.00
75.0151 655.00
75.3194 676.00
75.6237 496.00
75.9279 527.00
76.2322 431.00
76.5364 379.00
76.8407 419.00
77.145 501.00
77.4492 387.00
77.7535 338.00
78.0577 365.00
78.362 421.00
78.6663 466.00
78.9705 716.00
79.2748 531.00
79.579 460.00
79.8833 402.00
80.1876 357.00
80.4918 362.00
80.7961 347.00
81.1003 361.00
81.4046 425.00
81.7089 405.00
82.0131 490.00
82.3174 479.00
82.6217 327.00
82.9259 328.00
83.2302 396.00
83.5344 428.00
83.8387 610.00
84.143 607.00
84.4472 425.00
84.7515 350.00
85.0557 411.00
85.36 414.00
85.6643 373.00
85.9685 471.00
86.2728 350.00
86.577 336.00
86.8813 324.00
87.1856 337.00
87.4898 411.00
87.7941 409.00
88.0983 384.00
88.4026 395.00
88.7069 382.00
89.0111 460.00
89.3154 446.00
89.6196 475.00
89.9239 644.00
90.2282 776.00
90.5324 536.00
90.8367 427.00
91.1409 532.00
91.4452 400.00
91.7495 365.00
92.0537 351.00
92.358 444.00
92.6622 490.00
92.9665 400.00
93.2708 347.00
93.575 405.00
93.8793 368.00
94.1835 375.00
94.4878 394.00
94.7921 376.00
95.0963 375.00
95.4006 330.00
95.7048 401.00
96.0091 512.00
96.3134 655.00
96.6176 532.00
96.9219 409.00
97.2261 459.00
97.5304 432.00
97.8347 354.00
98.1389 330.00
98.4432 280.00
98.7474 284.00
99.0517 334.00
99.356 379.00
99.6602 369.00
99.9645 353.00
100.095 382.00