File: data/xrd_creation/results/NSC_183.xy
9.903433 2432.00
10.2077 2359.00
10.512 2258.00
10.8162 2190.00
11.1205 2148.00
11.4247 1943.00
11.729 1891.00
12.0333 1799.00
12.3375 1720.00
12.6418 1675.00
12.946 1600.00
13.2503 1568.00
13.5546 1499.00
13.8588 1457.00
14.1631 1408.00
14.4673 1303.00
14.7716 1320.00
15.0759 1295.00
15.3801 1221.00
15.6844 1265.00
15.9886 1197.00
16.2929 1206.00
16.5972 1209.00
16.9014 1175.00
17.2057 1184.00
17.5099 1118.00
17.8142 1090.00
18.1185 1071.00
18.4227 1028.00
18.727 1022.00
19.0312 956.00
19.3355 997.00
19.6398 894.00
19.944 862.00
20.2483 908.00
20.5525 895.00
20.8568 830.00
21.1611 841.00
21.4653 834.00
21.7696 831.00
22.0738 785.00
22.3781 785.00
22.6824 787.00
22.9866 792.00
23.2909 722.00
23.5951 759.00
23.8994 713.00
24.2037 684.00
24.5079 706.00
24.8122 702.00
25.1164 678.00
25.4207 658.00
25.725 676.00
26.0292 655.00
26.3335 647.00
26.6378 660.00
26.942 619.00
27.2463 645.00
27.5505 631.00
27.8548 586.00
28.1591 629.00
28.4633 621.00
28.7676 547.00
29.0718 572.00
29.3761 524.00
29.6804 582.00
29.9846 537.00
30.2889 543.00
30.5931 544.00
30.8974 488.00
31.2017 526.00
31.5059 552.00
31.8102 514.00
32.1144 533.00
32.4187 468.00
32.723 501.00
33.0272 451.00
33.3315 460.00
33.6357 467.00
33.94 415.00
34.2443 396.00
34.5485 420.00
34.8528 430.00
35.157 454.00
35.4613 365.00
35.7656 421.00
36.0698 410.00
36.3741 375.00
36.6783 395.00
36.9826 348.00
37.2869 413.00
37.5911 380.00
37.8954 369.00
38.1996 366.00
38.5039 338.00
38.8082 369.00
39.1124 362.00
39.4167 344.00
39.7209 336.00
40.0252 354.00
40.3295 362.00
40.6337 328.00
40.938 322.00
41.2422 334.00
41.5465 297.00
41.8508 362.00
42.155 317.00
42.4593 310.00
42.7635 297.00
43.0678 356.00
43.3721 306.00
43.6763 294.00
43.9806 285.00
44.2849 280.00
44.5891 310.00
44.8934 278.00
45.1976 302.00
45.5019 295.00
45.8062 267.00
46.1104 288.00
46.4147 276.00
46.7189 270.00
47.0232 266.00
47.3275 242.00
47.6317 263.00
47.936 231.00
48.2402 246.00
48.5445 240.00
48.8488 275.00
49.153 282.00
49.4573 292.00
49.7615 233.00
50.0658 230.00
50.3701 235.00
50.6743 243.00
50.9786 242.00
51.2828 246.00
51.5871 259.00
51.8914 241.00
52.1956 270.00
52.4999 239.00
52.8041 224.00
53.1084 244.00
53.4127 246.00
53.7169 230.00
54.0212 227.00
54.3254 246.00
54.6297 213.00
54.934 221.00
55.2382 235.00
55.5425 260.00
55.8467 212.00
56.151 219.00
56.4553 227.00
56.7595 226.00
57.0638 224.00
57.368 222.00
57.6723 208.00
57.9766 179.00
58.2808 205.00
58.5851 227.00
58.8893 238.00
59.1936 210.00
59.4979 198.00
59.8021 178.00
60.1064 211.00
60.4106 206.00
60.7149 211.00
61.0192 191.00
61.3234 192.00
61.6277 185.00
61.932 205.00
62.2362 219.00
62.5405 182.00
62.8447 235.00
63.149 191.00
63.4533 212.00
63.7575 184.00
64.0618 179.00
64.366 182.00
64.6703 185.00
64.9745 190.00
65.2788 206.00
65.5831 188.00
65.8873 177.00
66.1916 189.00
66.4959 160.00
66.8001 186.00
67.1044 191.00
67.4086 174.00
67.7129 217.00
68.0172 182.00
68.3214 194.00
68.6257 184.00
68.9299 154.00
69.2342 211.00
69.5385 210.00
69.8427 180.00
70.147 175.00
70.4512 170.00
70.7555 201.00
71.0598 174.00
71.364 174.00
71.6683 174.00
71.9725 192.00
72.2768 190.00
72.5811 208.00
72.8853 176.00
73.1896 169.00
73.4938 198.00
73.7981 215.00
74.1024 191.00
74.4066 233.00
74.7109 191.00
75.0151 205.00
75.3194 186.00
75.6237 203.00
75.9279 182.00
76.2322 221.00
76.5364 205.00
76.8407 218.00
77.145 201.00
77.4492 194.00
77.7535 221.00
78.0577 239.00
78.362 199.00
78.6663 197.00
78.9705 193.00
79.2748 217.00
79.579 193.00
79.8833 214.00
80.1876 218.00
80.4918 234.00
80.7961 229.00
81.1003 209.00
81.4046 222.00
81.7089 213.00
82.0131 214.00
82.3174 219.00
82.6217 242.00
82.9259 230.00
83.2302 220.00
83.5344 241.00
83.8387 249.00
84.143 207.00
84.4472 222.00
84.7515 217.00
85.0557 222.00
85.36 237.00
85.6643 193.00
85.9685 221.00
86.2728 219.00
86.577 188.00
86.8813 185.00
87.1856 197.00
87.4898 189.00
87.7941 205.00
88.0983 170.00
88.4026 171.00
88.7069 193.00
89.0111 200.00
89.3154 174.00
89.6196 205.00
89.9239 189.00
90.2282 185.00
90.5324 183.00
90.8367 217.00
91.1409 191.00
91.4452 187.00
91.7495 156.00
92.0537 191.00
92.358 172.00
92.6622 165.00
92.9665 182.00
93.2708 177.00
93.575 168.00
93.8793 175.00
94.1835 191.00
94.4878 177.00
94.7921 180.00
95.0963 189.00
95.4006 183.00
95.7048 180.00
96.0091 179.00
96.3134 211.00
96.6176 185.00
96.9219 207.00
97.2261 185.00
97.5304 177.00
97.8347 159.00
98.1389 194.00
98.4432 178.00
98.7474 153.00
99.0517 167.00
99.356 178.00
99.6602 172.00
99.9645 169.00
100.095 182.00