File: data/xrd_creation/results/NSC_130.xy
9.903433 2913.00
10.2077 2785.00
10.512 2724.00
10.8162 2576.00
11.1205 2537.00
11.4247 2496.00
11.729 2392.00
12.0333 2278.00
12.3375 2262.00
12.6418 2295.00
12.946 2227.00
13.2503 2188.00
13.5546 2126.00
13.8588 2169.00
14.1631 2325.00
14.4673 3696.00
14.7716 3167.00
15.0759 3616.00
15.3801 2421.00
15.6844 2010.00
15.9886 1962.00
16.2929 2002.00
16.5972 1920.00
16.9014 1973.00
17.2057 1939.00
17.5099 1987.00
17.8142 1933.00
18.1185 1899.00
18.4227 1873.00
18.727 2308.00
19.0312 2806.00
19.3355 1912.00
19.6398 2168.00
19.944 4737.00
20.2483 3388.00
20.5525 6757.00
20.8568 8857.00
21.1611 3884.00
21.4653 6145.00
21.7696 7959.00
22.0738 3077.00
22.3781 1934.00
22.6824 1804.00
22.9866 1800.00
23.2909 1725.00
23.5951 1879.00
23.8994 3659.00
24.2037 2715.00
24.5079 4346.00
24.8122 5088.00
25.1164 3576.00
25.4207 2613.00
25.725 1656.00
26.0292 1729.00
26.3335 1661.00
26.6378 2183.00
26.942 1919.00
27.2463 1622.00
27.5505 1610.00
27.8548 1584.00
28.1591 1595.00
28.4633 1732.00
28.7676 3434.00
29.0718 2661.00
29.3761 2182.00
29.6804 3257.00
29.9846 4351.00
30.2889 2681.00
30.5931 2254.00
30.8974 2839.00
31.2017 1640.00
31.5059 1829.00
31.8102 3468.00
32.1144 2568.00
32.4187 1921.00
32.723 2883.00
33.0272 4899.00
33.3315 3225.00
33.6357 2336.00
33.94 1868.00
34.2443 1578.00
34.5485 1682.00
34.8528 1468.00
35.157 1532.00
35.4613 2019.00
35.7656 2758.00
36.0698 3131.00
36.3741 4257.00
36.6783 2299.00
36.9826 2741.00
37.2869 2749.00
37.5911 2954.00
37.8954 2054.00
38.1996 1916.00
38.5039 1563.00
38.8082 1482.00
39.1124 1314.00
39.4167 1368.00
39.7209 1591.00
40.0252 1391.00
40.3295 1469.00
40.6337 1435.00
40.938 1316.00
41.2422 1370.00
41.5465 1469.00
41.8508 1935.00
42.155 1731.00
42.4593 1434.00
42.7635 1395.00
43.0678 1405.00
43.3721 1693.00
43.6763 2727.00
43.9806 1703.00
44.2849 1705.00
44.5891 1535.00
44.8934 1470.00
45.1976 1536.00
45.5019 1885.00
45.8062 1997.00
46.1104 1523.00
46.4147 1561.00
46.7189 2042.00
47.0232 2024.00
47.3275 2222.00
47.6317 2068.00
47.936 1755.00
48.2402 1981.00
48.5445 2611.00
48.8488 2203.00
49.153 2071.00
49.4573 1894.00
49.7615 2766.00
50.0658 1533.00
50.3701 1645.00
50.6743 1829.00
50.9786 1796.00
51.2828 1645.00
51.5871 1553.00
51.8914 1709.00
52.1956 1925.00
52.4999 1569.00
52.8041 1476.00
53.1084 1443.00
53.4127 1408.00
53.7169 1626.00
54.0212 1904.00
54.3254 1962.00
54.6297 1770.00
54.934 2193.00
55.2382 1823.00
55.5425 1513.00
55.8467 1653.00
56.151 2028.00
56.4553 1831.00
56.7595 1592.00
57.0638 1544.00
57.368 1790.00
57.6723 1804.00
57.9766 2008.00
58.2808 2449.00
58.5851 2565.00
58.8893 1826.00
59.1936 1680.00
59.4979 1670.00
59.8021 1522.00
60.1064 1392.00
60.4106 1446.00
60.7149 1761.00
61.0192 1618.00
61.3234 1516.00
61.6277 1632.00
61.932 1679.00
62.2362 1465.00
62.5405 1445.00
62.8447 1531.00
63.149 1917.00
63.4533 2008.00
63.7575 1787.00
64.0618 1895.00
64.366 1875.00
64.6703 1794.00
64.9745 1633.00
65.2788 1677.00
65.5831 1674.00
65.8873 1603.00
66.1916 1540.00
66.4959 1513.00
66.8001 1508.00
67.1044 1546.00
67.4086 1833.00
67.7129 1639.00
68.0172 1483.00
68.3214 1567.00
68.6257 1736.00
68.9299 1490.00
69.2342 1466.00
69.5385 1411.00
69.8427 1493.00
70.147 1506.00
70.4512 1392.00
70.7555 1376.00
71.0598 1315.00
71.364 1424.00
71.6683 1382.00
71.9725 1438.00
72.2768 1358.00
72.5811 1406.00
72.8853 1326.00
73.1896 1284.00
73.4938 1260.00
73.7981 1287.00
74.1024 1194.00
74.4066 1237.00
74.7109 1301.00
75.0151 1380.00
75.3194 1382.00
75.6237 1412.00
75.9279 1508.00
76.2322 1454.00
76.5364 1349.00
76.8407 1389.00
77.145 1312.00
77.4492 1251.00
77.7535 1298.00
78.0577 1351.00
78.362 1284.00
78.6663 1326.00
78.9705 1402.00
79.2748 1357.00
79.579 1430.00
79.8833 1498.00
80.1876 1404.00
80.4918 1305.00
80.7961 1292.00
81.1003 1284.00
81.4046 1190.00
81.7089 1272.00
82.0131 1281.00
82.3174 1331.00
82.6217 1316.00
82.9259 1293.00
83.2302 1368.00
83.5344 1323.00
83.8387 1337.00
84.143 1349.00
84.4472 1313.00
84.7515 1356.00
85.0557 1467.00
85.36 1353.00
85.6643 1289.00
85.9685 1335.00
86.2728 1261.00
86.577 1313.00
86.8813 1321.00
87.1856 1283.00
87.4898 1192.00
87.7941 1254.00
88.0983 1211.00
88.4026 1185.00
88.7069 1282.00
89.0111 1311.00
89.3154 1271.00
89.6196 1288.00
89.9239 1314.00
90.2282 1224.00
90.5324 1368.00
90.8367 1318.00
91.1409 1331.00
91.4452 1454.00
91.7495 1403.00
92.0537 1471.00
92.358 1392.00
92.6622 1319.00
92.9665 1239.00
93.2708 1263.00
93.575 1252.00
93.8793 1231.00
94.1835 1239.00
94.4878 1267.00
94.7921 1223.00
95.0963 1291.00
95.4006 1336.00
95.7048 1326.00
96.0091 1254.00
96.3134 1250.00
96.6176 1224.00
96.9219 1334.00
97.2261 1278.00
97.5304 1323.00
97.8347 1356.00
98.1389 1278.00
98.4432 1235.00
98.7474 1234.00
99.0517 1237.00
99.356 1180.00
99.6602 1200.00
99.9645 1241.00
100.095 1234.00