File: data/xrd_creation/results/NSC_29.xy
9.903433 3123.00
10.2077 3001.00
10.512 2907.00
10.8162 2786.00
11.1205 2709.00
11.4247 2733.00
11.729 2536.00
12.0333 2616.00
12.3375 2516.00
12.6418 2496.00
12.946 2384.00
13.2503 2307.00
13.5546 2443.00
13.8588 2491.00
14.1631 4674.00
14.4673 2409.00
14.7716 2344.00
15.0759 2253.00
15.3801 2209.00
15.6844 2225.00
15.9886 2215.00
16.2929 2197.00
16.5972 2166.00
16.9014 2189.00
17.2057 2089.00
17.5099 2119.00
17.8142 2133.00
18.1185 2085.00
18.4227 2085.00
18.727 2053.00
19.0312 2077.00
19.3355 2549.00
19.6398 9996.00
19.944 2735.00
20.2483 6970.00
20.5525 4465.00
20.8568 2222.00
21.1611 2035.00
21.4653 1994.00
21.7696 2059.00
22.0738 2196.00
22.3781 2158.00
22.6824 1951.00
22.9866 2130.00
23.2909 2927.00
23.5951 16981.00
23.8994 2289.00
24.2037 2075.00
24.5079 2000.00
24.8122 2020.00
25.1164 1845.00
25.4207 1756.00
25.725 1849.00
26.0292 1783.00
26.3335 1774.00
26.6378 1769.00
26.942 1750.00
27.2463 1738.00
27.5505 1698.00
27.8548 1928.00
28.1591 2692.00
28.4633 10534.00
28.7676 1956.00
29.0718 1727.00
29.3761 1645.00
29.6804 1715.00
29.9846 1741.00
30.2889 1713.00
30.5931 1805.00
30.8974 2017.00
31.2017 7206.00
31.5059 7132.00
31.8102 2600.00
32.1144 1734.00
32.4187 1641.00
32.723 1652.00
33.0272 1629.00
33.3315 1652.00
33.6357 1671.00
33.94 1946.00
34.2443 2030.00
34.5485 1864.00
34.8528 2179.00
35.157 5356.00
35.4613 6162.00
35.7656 2052.00
36.0698 1602.00
36.3741 1598.00
36.6783 1551.00
36.9826 1412.00
37.2869 1451.00
37.5911 1450.00
37.8954 1479.00
38.1996 1445.00
38.5039 1456.00
38.8082 1490.00
39.1124 1385.00
39.4167 1435.00
39.7209 2346.00
40.0252 1418.00
40.3295 1472.00
40.6337 1393.00
40.938 1681.00
41.2422 2345.00
41.5465 2108.00
41.8508 1641.00
42.155 1689.00
42.4593 1453.00
42.7635 1683.00
43.0678 3137.00
43.3721 1473.00
43.6763 1710.00
43.9806 1412.00
44.2849 1403.00
44.5891 1491.00
44.8934 3743.00
45.1976 1777.00
45.5019 1491.00
45.8062 2156.00
46.1104 2316.00
46.4147 1502.00
46.7189 2569.00
47.0232 1609.00
47.3275 1440.00
47.6317 2007.00
47.936 5371.00
48.2402 2023.00
48.5445 1795.00
48.8488 1442.00
49.153 1431.00
49.4573 1544.00
49.7615 1378.00
50.0658 1336.00
50.3701 1725.00
50.6743 1619.00
50.9786 1756.00
51.2828 4484.00
51.5871 2147.00
51.8914 1662.00
52.1956 1377.00
52.4999 1399.00
52.8041 1433.00
53.1084 1218.00
53.4127 1296.00
53.7169 1390.00
54.0212 1865.00
54.3254 2258.00
54.6297 1581.00
54.934 2458.00
55.2382 3776.00
55.5425 3335.00
55.8467 1472.00
56.151 1509.00
56.4553 1525.00
56.7595 1689.00
57.0638 1329.00
57.368 1370.00
57.6723 1324.00
57.9766 1640.00
58.2808 2187.00
58.5851 1722.00
58.8893 1344.00
59.1936 1389.00
59.4979 1571.00
59.8021 2903.00
60.1064 1913.00
60.4106 1525.00
60.7149 1927.00
61.0192 2944.00
61.3234 1532.00
61.6277 1453.00
61.932 1567.00
62.2362 2513.00
62.5405 1714.00
62.8447 1638.00
63.149 1875.00
63.4533 2123.00
63.7575 1937.00
64.0618 1466.00
64.366 1289.00
64.6703 1357.00
64.9745 1469.00
65.2788 1601.00
65.5831 1284.00
65.8873 1690.00
66.1916 2191.00
66.4959 1446.00
66.8001 1337.00
67.1044 1766.00
67.4086 1667.00
67.7129 1863.00
68.0172 1301.00
68.3214 1284.00
68.6257 1558.00
68.9299 1474.00
69.2342 1284.00
69.5385 1236.00
69.8427 1278.00
70.147 1277.00
70.4512 1391.00
70.7555 1835.00
71.0598 1790.00
71.364 1393.00
71.6683 1266.00
71.9725 1327.00
72.2768 1257.00
72.5811 1188.00
72.8853 1203.00
73.1896 1269.00
73.4938 1665.00
73.7981 1760.00
74.1024 1339.00
74.4066 1421.00
74.7109 1810.00
75.0151 1722.00
75.3194 1733.00
75.6237 1338.00
75.9279 1255.00
76.2322 1274.00
76.5364 1251.00
76.8407 1264.00
77.145 1290.00
77.4492 1188.00
77.7535 1235.00
78.0577 1414.00
78.362 1634.00
78.6663 1690.00
78.9705 1461.00
79.2748 1301.00
79.579 1360.00
79.8833 1239.00
80.1876 1252.00
80.4918 1343.00
80.7961 1735.00
81.1003 1330.00
81.4046 1189.00
81.7089 1275.00
82.0131 1291.00
82.3174 1255.00
82.6217 1338.00
82.9259 1434.00
83.2302 1720.00
83.5344 1370.00
83.8387 1277.00
84.143 1337.00
84.4472 1576.00
84.7515 1424.00
85.0557 1414.00
85.36 1387.00
85.6643 1333.00
85.9685 1434.00
86.2728 1338.00
86.577 1479.00
86.8813 1281.00
87.1856 1156.00
87.4898 1219.00
87.7941 1489.00
88.0983 1339.00
88.4026 1288.00
88.7069 1428.00
89.0111 1620.00
89.3154 1842.00
89.6196 1388.00
89.9239 1250.00
90.2282 1339.00
90.5324 1280.00
90.8367 1265.00
91.1409 1404.00
91.4452 1493.00
91.7495 1336.00
92.0537 1264.00
92.358 1245.00
92.6622 1222.00
92.9665 1160.00
93.2708 1286.00
93.575 1514.00
93.8793 1395.00
94.1835 1312.00
94.4878 1323.00
94.7921 1700.00
95.0963 1434.00
95.4006 1295.00
95.7048 1522.00
96.0091 1470.00
96.3134 1356.00
96.6176 1333.00
96.9219 1240.00
97.2261 1188.00
97.5304 1141.00
97.8347 1199.00
98.1389 1197.00
98.4432 1296.00
98.7474 1381.00
99.0517 1351.00
99.356 1322.00
99.6602 1390.00
99.9645 1582.00
100.095 1411.00