File: data/xrd_creation/results/NSC_61.xy
9.903433 2812.00
10.2077 2606.00
10.512 2748.00
10.8162 2948.00
11.1205 2399.00
11.4247 2321.00
11.729 2273.00
12.0333 2253.00
12.3375 2082.00
12.6418 2109.00
12.946 2132.00
13.2503 3012.00
13.5546 1980.00
13.8588 1933.00
14.1631 2219.00
14.4673 1919.00
14.7716 1823.00
15.0759 1887.00
15.3801 1836.00
15.6844 2314.00
15.9886 2835.00
16.2929 1874.00
16.5972 1641.00
16.9014 1571.00
17.2057 1720.00
17.5099 1647.00
17.8142 1501.00
18.1185 1579.00
18.4227 1586.00
18.727 1495.00
19.0312 1511.00
19.3355 1615.00
19.6398 1781.00
19.944 2859.00
20.2483 2867.00
20.5525 1629.00
20.8568 1611.00
21.1611 1419.00
21.4653 1425.00
21.7696 1502.00
22.0738 1832.00
22.3781 1500.00
22.6824 2972.00
22.9866 2330.00
23.2909 2907.00
23.5951 2422.00
23.8994 1377.00
24.2037 1436.00
24.5079 1333.00
24.8122 1376.00
25.1164 1439.00
25.4207 1313.00
25.725 1176.00
26.0292 1158.00
26.3335 1129.00
26.6378 1166.00
26.942 1200.00
27.2463 1226.00
27.5505 1206.00
27.8548 1681.00
28.1591 1231.00
28.4633 2349.00
28.7676 1794.00
29.0718 1133.00
29.3761 1170.00
29.6804 1101.00
29.9846 1127.00
30.2889 1959.00
30.5931 1795.00
30.8974 4502.00
31.2017 1553.00
31.5059 2326.00
31.8102 1680.00
32.1144 3028.00
32.4187 1404.00
32.723 2736.00
33.0272 1311.00
33.3315 1198.00
33.6357 1062.00
33.94 1554.00
34.2443 926.00
34.5485 1245.00
34.8528 2047.00
35.157 3270.00
35.4613 1301.00
35.7656 2304.00
36.0698 1399.00
36.3741 1056.00
36.6783 880.00
36.9826 1093.00
37.2869 842.00
37.5911 796.00
37.8954 801.00
38.1996 898.00
38.5039 1006.00
38.8082 983.00
39.1124 780.00
39.4167 816.00
39.7209 1020.00
40.0252 899.00
40.3295 780.00
40.6337 844.00
40.938 1048.00
41.2422 728.00
41.5465 817.00
41.8508 836.00
42.155 1085.00
42.4593 1117.00
42.7635 1270.00
43.0678 1557.00
43.3721 917.00
43.6763 1009.00
43.9806 804.00
44.2849 921.00
44.5891 794.00
44.8934 852.00
45.1976 900.00
45.5019 935.00
45.8062 1029.00
46.1104 1233.00
46.4147 983.00
46.7189 920.00
47.0232 931.00
47.3275 1041.00
47.6317 1162.00
47.936 1522.00
48.2402 752.00
48.5445 657.00
48.8488 711.00
49.153 860.00
49.4573 1136.00
49.7615 697.00
50.0658 709.00
50.3701 797.00
50.6743 771.00
50.9786 748.00
51.2828 1629.00
51.5871 1136.00
51.8914 1124.00
52.1956 787.00
52.4999 762.00
52.8041 732.00
53.1084 748.00
53.4127 728.00
53.7169 725.00
54.0212 732.00
54.3254 962.00
54.6297 1270.00
54.934 828.00
55.2382 725.00
55.5425 664.00
55.8467 748.00
56.151 897.00
56.4553 778.00
56.7595 868.00
57.0638 1071.00
57.368 928.00
57.6723 722.00
57.9766 770.00
58.2808 796.00
58.5851 724.00
58.8893 727.00
59.1936 781.00
59.4979 835.00
59.8021 981.00
60.1064 945.00
60.4106 1085.00
60.7149 923.00
61.0192 1390.00
61.3234 793.00
61.6277 916.00
61.932 831.00
62.2362 839.00
62.5405 1266.00
62.8447 972.00
63.149 753.00
63.4533 786.00
63.7575 667.00
64.0618 801.00
64.366 639.00
64.6703 664.00
64.9745 659.00
65.2788 687.00
65.5831 688.00
65.8873 630.00
66.1916 724.00
66.4959 762.00
66.8001 716.00
67.1044 653.00
67.4086 590.00
67.7129 764.00
68.0172 710.00
68.3214 752.00
68.6257 577.00
68.9299 563.00
69.2342 561.00
69.5385 579.00
69.8427 667.00
70.147 631.00
70.4512 592.00
70.7555 507.00
71.0598 529.00
71.364 535.00
71.6683 527.00
71.9725 557.00
72.2768 505.00
72.5811 526.00
72.8853 589.00
73.1896 518.00
73.4938 611.00
73.7981 614.00
74.1024 605.00
74.4066 560.00
74.7109 519.00
75.0151 605.00
75.3194 639.00
75.6237 586.00
75.9279 552.00
76.2322 541.00
76.5364 536.00
76.8407 525.00
77.145 646.00
77.4492 602.00
77.7535 532.00
78.0577 574.00
78.362 613.00
78.6663 560.00
78.9705 566.00
79.2748 568.00
79.579 511.00
79.8833 473.00
80.1876 510.00
80.4918 453.00
80.7961 496.00
81.1003 548.00
81.4046 591.00
81.7089 573.00
82.0131 609.00
82.3174 627.00
82.6217 560.00
82.9259 531.00
83.2302 602.00
83.5344 604.00
83.8387 563.00
84.143 556.00
84.4472 510.00
84.7515 517.00
85.0557 441.00
85.36 461.00
85.6643 455.00
85.9685 505.00
86.2728 536.00
86.577 481.00
86.8813 468.00
87.1856 553.00
87.4898 527.00
87.7941 507.00
88.0983 494.00
88.4026 558.00
88.7069 584.00
89.0111 561.00
89.3154 494.00
89.6196 536.00
89.9239 528.00
90.2282 516.00
90.5324 486.00
90.8367 551.00
91.1409 524.00
91.4452 509.00
91.7495 527.00
92.0537 547.00
92.358 530.00
92.6622 577.00
92.9665 469.00
93.2708 522.00
93.575 460.00
93.8793 441.00
94.1835 529.00
94.4878 530.00
94.7921 509.00
95.0963 514.00
95.4006 544.00
95.7048 618.00
96.0091 507.00
96.3134 509.00
96.6176 572.00
96.9219 549.00
97.2261 569.00
97.5304 509.00
97.8347 557.00
98.1389 535.00
98.4432 558.00
98.7474 513.00
99.0517 518.00
99.356 529.00
99.6602 456.00
99.9645 432.00
100.095 460.00