File: data/xrd_creation/results/NSC_133.xy
9.903433 2786.00
10.2077 2699.00
10.512 2633.00
10.8162 2544.00
11.1205 2358.00
11.4247 2426.00
11.729 2339.00
12.0333 2390.00
12.3375 2195.00
12.6418 2173.00
12.946 2186.00
13.2503 2067.00
13.5546 1990.00
13.8588 1988.00
14.1631 2030.00
14.4673 2254.00
14.7716 2340.00
15.0759 3483.00
15.3801 1906.00
15.6844 1800.00
15.9886 1829.00
16.2929 1779.00
16.5972 1833.00
16.9014 1804.00
17.2057 1823.00
17.5099 1762.00
17.8142 1814.00
18.1185 1706.00
18.4227 1890.00
18.727 2073.00
19.0312 4223.00
19.3355 1741.00
19.6398 1762.00
19.944 2189.00
20.2483 1933.00
20.5525 3405.00
20.8568 4822.00
21.1611 2172.00
21.4653 4736.00
21.7696 7428.00
22.0738 3318.00
22.3781 1738.00
22.6824 1665.00
22.9866 1628.00
23.2909 1623.00
23.5951 1612.00
23.8994 2330.00
24.2037 2192.00
24.5079 6137.00
24.8122 7983.00
25.1164 4704.00
25.4207 1739.00
25.725 1592.00
26.0292 1511.00
26.3335 1681.00
26.6378 1895.00
26.942 3284.00
27.2463 1520.00
27.5505 1411.00
27.8548 1401.00
28.1591 1467.00
28.4633 1349.00
28.7676 1751.00
29.0718 1586.00
29.3761 1533.00
29.6804 2094.00
29.9846 4451.00
30.2889 1937.00
30.5931 1569.00
30.8974 2138.00
31.2017 1963.00
31.5059 1376.00
31.8102 1983.00
32.1144 1720.00
32.4187 1580.00
32.723 2453.00
33.0272 6868.00
33.3315 2676.00
33.6357 1769.00
33.94 1690.00
34.2443 1280.00
34.5485 1301.00
34.8528 1220.00
35.157 1229.00
35.4613 1308.00
35.7656 1496.00
36.0698 2391.00
36.3741 2687.00
36.6783 2492.00
36.9826 1541.00
37.2869 1862.00
37.5911 2646.00
37.8954 2029.00
38.1996 1835.00
38.5039 1207.00
38.8082 1274.00
39.1124 1092.00
39.4167 1149.00
39.7209 1471.00
40.0252 1197.00
40.3295 1201.00
40.6337 1166.00
40.938 1115.00
41.2422 1168.00
41.5465 1194.00
41.8508 1455.00
42.155 1273.00
42.4593 1077.00
42.7635 1160.00
43.0678 1056.00
43.3721 1424.00
43.6763 2155.00
43.9806 1286.00
44.2849 1488.00
44.5891 1262.00
44.8934 1130.00
45.1976 1284.00
45.5019 1651.00
45.8062 1842.00
46.1104 1211.00
46.4147 1180.00
46.7189 1217.00
47.0232 1479.00
47.3275 1806.00
47.6317 1752.00
47.936 1220.00
48.2402 1251.00
48.5445 2417.00
48.8488 1716.00
49.153 1549.00
49.4573 1318.00
49.7615 2543.00
50.0658 1666.00
50.3701 1609.00
50.6743 2276.00
50.9786 2029.00
51.2828 1470.00
51.5871 1236.00
51.8914 1213.00
52.1956 1185.00
52.4999 1252.00
52.8041 1171.00
53.1084 1220.00
53.4127 1122.00
53.7169 1251.00
54.0212 1694.00
54.3254 1782.00
54.6297 1395.00
54.934 2519.00
55.2382 1516.00
55.5425 1183.00
55.8467 1104.00
56.151 1219.00
56.4553 1140.00
56.7595 1191.00
57.0638 1224.00
57.368 1392.00
57.6723 1508.00
57.9766 1415.00
58.2808 1598.00
58.5851 3216.00
58.8893 2072.00
59.1936 1504.00
59.4979 1293.00
59.8021 1204.00
60.1064 1163.00
60.4106 1173.00
60.7149 1239.00
61.0192 1244.00
61.3234 1192.00
61.6277 1209.00
61.932 1320.00
62.2362 1217.00
62.5405 1091.00
62.8447 1245.00
63.149 1625.00
63.4533 1745.00
63.7575 1444.00
64.0618 1366.00
64.366 1760.00
64.6703 1514.00
64.9745 1428.00
65.2788 1461.00
65.5831 1478.00
65.8873 1240.00
66.1916 1131.00
66.4959 1143.00
66.8001 1177.00
67.1044 1275.00
67.4086 1530.00
67.7129 1666.00
68.0172 1292.00
68.3214 1219.00
68.6257 1678.00
68.9299 1351.00
69.2342 1151.00
69.5385 1162.00
69.8427 1252.00
70.147 1182.00
70.4512 1015.00
70.7555 1140.00
71.0598 1103.00
71.364 1098.00
71.6683 1130.00
71.9725 1207.00
72.2768 1046.00
72.5811 1023.00
72.8853 1124.00
73.1896 1202.00
73.4938 1145.00
73.7981 1020.00
74.1024 1078.00
74.4066 1000.00
74.7109 1077.00
75.0151 1169.00
75.3194 1152.00
75.6237 1152.00
75.9279 1333.00
76.2322 1270.00
76.5364 1084.00
76.8407 1085.00
77.145 1246.00
77.4492 1111.00
77.7535 1120.00
78.0577 1138.00
78.362 1108.00
78.6663 1032.00
78.9705 1051.00
79.2748 1134.00
79.579 1133.00
79.8833 1181.00
80.1876 1093.00
80.4918 1150.00
80.7961 982.00
81.1003 1027.00
81.4046 1024.00
81.7089 1042.00
82.0131 1081.00
82.3174 1088.00
82.6217 1052.00
82.9259 979.00
83.2302 1088.00
83.5344 1063.00
83.8387 1044.00
84.143 1077.00
84.4472 1123.00
84.7515 1001.00
85.0557 1130.00
85.36 1154.00
85.6643 1156.00
85.9685 1114.00
86.2728 1101.00
86.577 1042.00
86.8813 996.00
87.1856 1029.00
87.4898 1022.00
87.7941 1000.00
88.0983 1033.00
88.4026 990.00
88.7069 931.00
89.0111 1147.00
89.3154 1225.00
89.6196 1198.00
89.9239 1032.00
90.2282 1054.00
90.5324 1053.00
90.8367 1145.00
91.1409 1170.00
91.4452 1107.00
91.7495 1086.00
92.0537 1182.00
92.358 1225.00
92.6622 1146.00
92.9665 1012.00
93.2708 970.00
93.575 997.00
93.8793 1094.00
94.1835 1022.00
94.4878 1057.00
94.7921 1035.00
95.0963 1044.00
95.4006 1108.00
95.7048 1096.00
96.0091 1066.00
96.3134 1003.00
96.6176 1023.00
96.9219 1025.00
97.2261 1083.00
97.5304 1007.00
97.8347 978.00
98.1389 1036.00
98.4432 985.00
98.7474 1010.00
99.0517 973.00
99.356 981.00
99.6602 1005.00
99.9645 999.00
100.095 1050.00