File: data/xrd_creation/results/NSC_155.xy
9.903433 2604.00
10.2077 2434.00
10.512 2356.00
10.8162 2212.00
11.1205 2139.00
11.4247 2105.00
11.729 2094.00
12.0333 2057.00
12.3375 1966.00
12.6418 1854.00
12.946 1864.00
13.2503 1840.00
13.5546 1781.00
13.8588 1665.00
14.1631 1656.00
14.4673 1524.00
14.7716 1609.00
15.0759 1589.00
15.3801 1526.00
15.6844 1596.00
15.9886 1912.00
16.2929 2547.00
16.5972 3382.00
16.9014 1568.00
17.2057 1602.00
17.5099 1435.00
17.8142 1373.00
18.1185 1342.00
18.4227 1336.00
18.727 1321.00
19.0312 1349.00
19.3355 1374.00
19.6398 1283.00
19.944 1211.00
20.2483 1295.00
20.5525 1376.00
20.8568 1882.00
21.1611 1876.00
21.4653 1444.00
21.7696 1267.00
22.0738 1208.00
22.3781 1151.00
22.6824 1140.00
22.9866 1192.00
23.2909 1170.00
23.5951 1107.00
23.8994 1092.00
24.2037 1027.00
24.5079 988.00
24.8122 1040.00
25.1164 1016.00
25.4207 1072.00
25.725 968.00
26.0292 999.00
26.3335 923.00
26.6378 959.00
26.942 925.00
27.2463 932.00
27.5505 873.00
27.8548 909.00
28.1591 920.00
28.4633 896.00
28.7676 943.00
29.0718 936.00
29.3761 1156.00
29.6804 1217.00
29.9846 1035.00
30.2889 1011.00
30.5931 2128.00
30.8974 2510.00
31.2017 988.00
31.5059 888.00
31.8102 829.00
32.1144 1029.00
32.4187 1879.00
32.723 2738.00
33.0272 1734.00
33.3315 1327.00
33.6357 1670.00
33.94 2241.00
34.2443 2775.00
34.5485 2215.00
34.8528 2297.00
35.157 1140.00
35.4613 1226.00
35.7656 1293.00
36.0698 839.00
36.3741 769.00
36.6783 748.00
36.9826 844.00
37.2869 951.00
37.5911 908.00
37.8954 835.00
38.1996 832.00
38.5039 876.00
38.8082 2243.00
39.1124 3042.00
39.4167 2183.00
39.7209 828.00
40.0252 790.00
40.3295 689.00
40.6337 694.00
40.938 713.00
41.2422 732.00
41.5465 689.00
41.8508 722.00
42.155 797.00
42.4593 1084.00
42.7635 1394.00
43.0678 710.00
43.3721 665.00
43.6763 625.00
43.9806 656.00
44.2849 647.00
44.5891 563.00
44.8934 612.00
45.1976 637.00
45.5019 611.00
45.8062 756.00
46.1104 714.00
46.4147 587.00
46.7189 598.00
47.0232 541.00
47.3275 551.00
47.6317 589.00
47.936 699.00
48.2402 753.00
48.5445 658.00
48.8488 577.00
49.153 599.00
49.4573 770.00
49.7615 808.00
50.0658 773.00
50.3701 789.00
50.6743 873.00
50.9786 1437.00
51.2828 1608.00
51.5871 763.00
51.8914 593.00
52.1956 637.00
52.4999 724.00
52.8041 626.00
53.1084 579.00
53.4127 495.00
53.7169 501.00
54.0212 562.00
54.3254 562.00
54.6297 669.00
54.934 566.00
55.2382 626.00
55.5425 1300.00
55.8467 1759.00
56.151 802.00
56.4553 715.00
56.7595 856.00
57.0638 1400.00
57.368 1146.00
57.6723 627.00
57.9766 562.00
58.2808 455.00
58.5851 512.00
58.8893 556.00
59.1936 646.00
59.4979 900.00
59.8021 1211.00
60.1064 835.00
60.4106 559.00
60.7149 901.00
61.0192 1081.00
61.3234 661.00
61.6277 700.00
61.932 876.00
62.2362 775.00
62.5405 605.00
62.8447 518.00
63.149 487.00
63.4533 464.00
63.7575 560.00
64.0618 559.00
64.366 517.00
64.6703 476.00
64.9745 514.00
65.2788 585.00
65.5831 576.00
65.8873 822.00
66.1916 937.00
66.4959 754.00
66.8001 636.00
67.1044 829.00
67.4086 1122.00
67.7129 908.00
68.0172 751.00
68.3214 748.00
68.6257 600.00
68.9299 618.00
69.2342 478.00
69.5385 480.00
69.8427 485.00
70.147 440.00
70.4512 432.00
70.7555 500.00
71.0598 636.00
71.364 989.00
71.6683 738.00
71.9725 689.00
72.2768 483.00
72.5811 453.00
72.8853 473.00
73.1896 447.00
73.4938 529.00
73.7981 612.00
74.1024 468.00
74.4066 435.00
74.7109 421.00
75.0151 468.00
75.3194 473.00
75.6237 394.00
75.9279 375.00
76.2322 400.00
76.5364 455.00
76.8407 420.00
77.145 393.00
77.4492 428.00
77.7535 387.00
78.0577 425.00
78.362 422.00
78.6663 363.00
78.9705 434.00
79.2748 597.00
79.579 565.00
79.8833 559.00
80.1876 508.00
80.4918 407.00
80.7961 378.00
81.1003 404.00
81.4046 398.00
81.7089 375.00
82.0131 445.00
82.3174 393.00
82.6217 386.00
82.9259 453.00
83.2302 502.00
83.5344 663.00
83.8387 765.00
84.143 567.00
84.4472 454.00
84.7515 429.00
85.0557 369.00
85.36 358.00
85.6643 382.00
85.9685 480.00
86.2728 397.00
86.577 359.00
86.8813 385.00
87.1856 382.00
87.4898 418.00
87.7941 386.00
88.0983 410.00
88.4026 401.00
88.7069 406.00
89.0111 394.00
89.3154 385.00
89.6196 391.00
89.9239 433.00
90.2282 367.00
90.5324 384.00
90.8367 432.00
91.1409 560.00
91.4452 404.00
91.7495 367.00
92.0537 380.00
92.358 378.00
92.6622 475.00
92.9665 484.00
93.2708 460.00
93.575 440.00
93.8793 543.00
94.1835 506.00
94.4878 550.00
94.7921 606.00
95.0963 622.00
95.4006 760.00
95.7048 606.00
96.0091 424.00
96.3134 436.00
96.6176 490.00
96.9219 420.00
97.2261 458.00
97.5304 642.00
97.8347 713.00
98.1389 611.00
98.4432 495.00
98.7474 389.00
99.0517 351.00
99.356 380.00
99.6602 453.00
99.9645 505.00
100.095 443.00