File: data/xrd_creation/results/NSC_192.xy
9.903433 2656.00
10.2077 2567.00
10.512 2489.00
10.8162 2419.00
11.1205 2302.00
11.4247 2398.00
11.729 2294.00
12.0333 2066.00
12.3375 2019.00
12.6418 1981.00
12.946 1968.00
13.2503 1847.00
13.5546 2054.00
13.8588 1945.00
14.1631 1810.00
14.4673 1754.00
14.7716 1703.00
15.0759 1700.00
15.3801 1699.00
15.6844 1630.00
15.9886 1686.00
16.2929 1736.00
16.5972 1641.00
16.9014 1654.00
17.2057 1534.00
17.5099 1559.00
17.8142 1642.00
18.1185 1597.00
18.4227 1507.00
18.727 1548.00
19.0312 2160.00
19.3355 2630.00
19.6398 3402.00
19.944 1516.00
20.2483 1443.00
20.5525 1431.00
20.8568 1383.00
21.1611 1483.00
21.4653 1436.00
21.7696 1348.00
22.0738 1382.00
22.3781 1383.00
22.6824 1661.00
22.9866 1728.00
23.2909 1297.00
23.5951 1316.00
23.8994 1373.00
24.2037 1412.00
24.5079 1416.00
24.8122 1291.00
25.1164 1309.00
25.4207 1337.00
25.725 1373.00
26.0292 1294.00
26.3335 1250.00
26.6378 1184.00
26.942 1235.00
27.2463 1306.00
27.5505 2878.00
27.8548 1579.00
28.1591 1525.00
28.4633 1587.00
28.7676 1210.00
29.0718 1167.00
29.3761 1154.00
29.6804 1103.00
29.9846 1166.00
30.2889 1429.00
30.5931 3991.00
30.8974 1668.00
31.2017 1230.00
31.5059 1430.00
31.8102 1318.00
32.1144 1156.00
32.4187 1045.00
32.723 1189.00
33.0272 1520.00
33.3315 1297.00
33.6357 1244.00
33.94 1542.00
34.2443 2950.00
34.5485 1746.00
34.8528 1269.00
35.157 1056.00
35.4613 1104.00
35.7656 926.00
36.0698 1006.00
36.3741 896.00
36.6783 862.00
36.9826 898.00
37.2869 861.00
37.5911 840.00
37.8954 865.00
38.1996 852.00
38.5039 857.00
38.8082 976.00
39.1124 907.00
39.4167 823.00
39.7209 870.00
40.0252 877.00
40.3295 845.00
40.6337 898.00
40.938 1020.00
41.2422 1065.00
41.5465 1007.00
41.8508 1010.00
42.155 1007.00
42.4593 961.00
42.7635 789.00
43.0678 835.00
43.3721 859.00
43.6763 827.00
43.9806 1081.00
44.2849 823.00
44.5891 1458.00
44.8934 926.00
45.1976 824.00
45.5019 864.00
45.8062 1036.00
46.1104 1043.00
46.4147 1032.00
46.7189 1946.00
47.0232 1065.00
47.3275 909.00
47.6317 871.00
47.936 823.00
48.2402 827.00
48.5445 817.00
48.8488 820.00
49.153 947.00
49.4573 962.00
49.7615 897.00
50.0658 899.00
50.3701 1779.00
50.6743 1238.00
50.9786 878.00
51.2828 817.00
51.5871 924.00
51.8914 819.00
52.1956 786.00
52.4999 834.00
52.8041 865.00
53.1084 913.00
53.4127 1387.00
53.7169 1499.00
54.0212 923.00
54.3254 860.00
54.6297 818.00
54.934 840.00
55.2382 871.00
55.5425 873.00
55.8467 894.00
56.151 840.00
56.4553 838.00
56.7595 811.00
57.0638 892.00
57.368 883.00
57.6723 898.00
57.9766 866.00
58.2808 920.00
58.5851 1333.00
58.8893 1141.00
59.1936 1376.00
59.4979 1108.00
59.8021 890.00
60.1064 995.00
60.4106 954.00
60.7149 885.00
61.0192 823.00
61.3234 1051.00
61.6277 1303.00
61.932 886.00
62.2362 954.00
62.5405 905.00
62.8447 826.00
63.149 861.00
63.4533 797.00
63.7575 759.00
64.0618 706.00
64.366 747.00
64.6703 839.00
64.9745 936.00
65.2788 1045.00
65.5831 913.00
65.8873 809.00
66.1916 989.00
66.4959 883.00
66.8001 861.00
67.1044 733.00
67.4086 723.00
67.7129 698.00
68.0172 707.00
68.3214 766.00
68.6257 911.00
68.9299 949.00
69.2342 748.00
69.5385 727.00
69.8427 697.00
70.147 760.00
70.4512 703.00
70.7555 735.00
71.0598 672.00
71.364 696.00
71.6683 731.00
71.9725 733.00
72.2768 904.00
72.5811 939.00
72.8853 696.00
73.1896 792.00
73.4938 789.00
73.7981 744.00
74.1024 691.00
74.4066 662.00
74.7109 660.00
75.0151 699.00
75.3194 683.00
75.6237 782.00
75.9279 850.00
76.2322 739.00
76.5364 707.00
76.8407 714.00
77.145 675.00
77.4492 717.00
77.7535 669.00
78.0577 660.00
78.362 693.00
78.6663 676.00
78.9705 733.00
79.2748 750.00
79.579 727.00
79.8833 664.00
80.1876 651.00
80.4918 806.00
80.7961 791.00
81.1003 660.00
81.4046 684.00
81.7089 674.00
82.0131 729.00
82.3174 728.00
82.6217 723.00
82.9259 738.00
83.2302 682.00
83.5344 686.00
83.8387 679.00
84.143 645.00
84.4472 623.00
84.7515 735.00
85.0557 692.00
85.36 641.00
85.6643 682.00
85.9685 780.00
86.2728 736.00
86.577 696.00
86.8813 814.00
87.1856 854.00
87.4898 710.00
87.7941 666.00
88.0983 684.00
88.4026 649.00
88.7069 687.00
89.0111 750.00
89.3154 773.00
89.6196 730.00
89.9239 668.00
90.2282 649.00
90.5324 711.00
90.8367 722.00
91.1409 687.00
91.4452 694.00
91.7495 626.00
92.0537 684.00
92.358 732.00
92.6622 814.00
92.9665 748.00
93.2708 649.00
93.575 711.00
93.8793 709.00
94.1835 655.00
94.4878 630.00
94.7921 629.00
95.0963 626.00
95.4006 659.00
95.7048 659.00
96.0091 652.00
96.3134 693.00
96.6176 711.00
96.9219 668.00
97.2261 698.00
97.5304 661.00
97.8347 716.00
98.1389 622.00
98.4432 633.00
98.7474 668.00
99.0517 627.00
99.356 728.00
99.6602 716.00
99.9645 821.00
100.095 768.00