File: data/xrd_creation/results/NSC_88.xy
9.903433 2811.00
10.2077 2757.00
10.512 2560.00
10.8162 2562.00
11.1205 2387.00
11.4247 2408.00
11.729 2188.00
12.0333 2116.00
12.3375 2094.00
12.6418 2033.00
12.946 1930.00
13.2503 1967.00
13.5546 1888.00
13.8588 1879.00
14.1631 2109.00
14.4673 2744.00
14.7716 1667.00
15.0759 1677.00
15.3801 1601.00
15.6844 1613.00
15.9886 1592.00
16.2929 1629.00
16.5972 1589.00
16.9014 1484.00
17.2057 1499.00
17.5099 1441.00
17.8142 1471.00
18.1185 1382.00
18.4227 1366.00
18.727 1332.00
19.0312 1406.00
19.3355 1425.00
19.6398 2188.00
19.944 5419.00
20.2483 1543.00
20.5525 1643.00
20.8568 6150.00
21.1611 1727.00
21.4653 1332.00
21.7696 1177.00
22.0738 1157.00
22.3781 1132.00
22.6824 1155.00
22.9866 1178.00
23.2909 1159.00
23.5951 1176.00
23.8994 2301.00
24.2037 2847.00
24.5079 1065.00
24.8122 1076.00
25.1164 1030.00
25.4207 997.00
25.725 1009.00
26.0292 933.00
26.3335 1054.00
26.6378 2184.00
26.942 971.00
27.2463 851.00
27.5505 850.00
27.8548 929.00
28.1591 841.00
28.4633 850.00
28.7676 1469.00
29.0718 3861.00
29.3761 883.00
29.6804 771.00
29.9846 789.00
30.2889 765.00
30.5931 727.00
30.8974 797.00
31.2017 821.00
31.5059 1051.00
31.8102 6035.00
32.1144 1199.00
32.4187 1244.00
32.723 732.00
33.0272 649.00
33.3315 687.00
33.6357 785.00
33.94 1775.00
34.2443 925.00
34.5485 587.00
34.8528 641.00
35.157 667.00
35.4613 657.00
35.7656 815.00
36.0698 2303.00
36.3741 1056.00
36.6783 2911.00
36.9826 696.00
37.2869 600.00
37.5911 575.00
37.8954 677.00
38.1996 662.00
38.5039 628.00
38.8082 606.00
39.1124 568.00
39.4167 517.00
39.7209 495.00
40.0252 512.00
40.3295 882.00
40.6337 566.00
40.938 490.00
41.2422 462.00
41.5465 520.00
41.8508 749.00
42.155 735.00
42.4593 943.00
42.7635 637.00
43.0678 594.00
43.3721 488.00
43.6763 505.00
43.9806 935.00
44.2849 865.00
44.5891 440.00
44.8934 505.00
45.1976 569.00
45.5019 497.00
45.8062 1296.00
46.1104 649.00
46.4147 450.00
46.7189 483.00
47.0232 561.00
47.3275 2149.00
47.6317 734.00
47.936 465.00
48.2402 416.00
48.5445 564.00
48.8488 536.00
49.153 1473.00
49.4573 1214.00
49.7615 443.00
50.0658 528.00
50.3701 541.00
50.6743 395.00
50.9786 428.00
51.2828 414.00
51.5871 508.00
51.8914 1415.00
52.1956 1793.00
52.4999 999.00
52.8041 469.00
53.1084 521.00
53.4127 380.00
53.7169 386.00
54.0212 367.00
54.3254 422.00
54.6297 424.00
54.934 643.00
55.2382 416.00
55.5425 946.00
55.8467 539.00
56.151 422.00
56.4553 449.00
56.7595 983.00
57.0638 1113.00
57.368 1791.00
57.6723 530.00
57.9766 507.00
58.2808 496.00
58.5851 486.00
58.8893 759.00
59.1936 353.00
59.4979 379.00
59.8021 343.00
60.1064 566.00
60.4106 418.00
60.7149 341.00
61.0192 484.00
61.3234 1356.00
61.6277 462.00
61.932 641.00
62.2362 528.00
62.5405 512.00
62.8447 1558.00
63.149 1194.00
63.4533 486.00
63.7575 369.00
64.0618 371.00
64.366 510.00
64.6703 523.00
64.9745 500.00
65.2788 522.00
65.5831 915.00
65.8873 1025.00
66.1916 664.00
66.4959 383.00
66.8001 333.00
67.1044 621.00
67.4086 765.00
67.7129 357.00
68.0172 347.00
68.3214 314.00
68.6257 328.00
68.9299 325.00
69.2342 416.00
69.5385 1007.00
69.8427 506.00
70.147 341.00
70.4512 302.00
70.7555 349.00
71.0598 486.00
71.364 515.00
71.6683 358.00
71.9725 346.00
72.2768 287.00
72.5811 298.00
72.8853 314.00
73.1896 325.00
73.4938 764.00
73.7981 420.00
74.1024 282.00
74.4066 289.00
74.7109 326.00
75.0151 439.00
75.3194 554.00
75.6237 435.00
75.9279 401.00
76.2322 465.00
76.5364 318.00
76.8407 283.00
77.145 298.00
77.4492 355.00
77.7535 633.00
78.0577 448.00
78.362 344.00
78.6663 406.00
78.9705 434.00
79.2748 376.00
79.579 374.00
79.8833 342.00
80.1876 351.00
80.4918 273.00
80.7961 295.00
81.1003 505.00
81.4046 647.00
81.7089 486.00
82.0131 329.00
82.3174 306.00
82.6217 470.00
82.9259 659.00
83.2302 361.00
83.5344 262.00
83.8387 377.00
84.143 311.00
84.4472 283.00
84.7515 280.00
85.0557 331.00
85.36 327.00
85.6643 278.00
85.9685 291.00
86.2728 489.00
86.577 500.00
86.8813 293.00
87.1856 364.00
87.4898 587.00
87.7941 637.00
88.0983 406.00
88.4026 290.00
88.7069 373.00
89.0111 342.00
89.3154 323.00
89.6196 314.00
89.9239 348.00
90.2282 361.00
90.5324 346.00
90.8367 433.00
91.1409 432.00
91.4452 338.00
91.7495 294.00
92.0537 247.00
92.358 435.00
92.6622 565.00
92.9665 463.00
93.2708 351.00
93.575 331.00
93.8793 318.00
94.1835 476.00
94.4878 381.00
94.7921 301.00
95.0963 402.00
95.4006 415.00
95.7048 348.00
96.0091 363.00
96.3134 422.00
96.6176 319.00
96.9219 265.00
97.2261 315.00
97.5304 330.00
97.8347 634.00
98.1389 483.00
98.4432 331.00
98.7474 271.00
99.0517 260.00
99.356 266.00
99.6602 290.00
99.9645 523.00
100.095 638.00