File: data/xrd_creation/results/NSC_200.xy
9.903433 2822.00
10.2077 2729.00
10.512 2718.00
10.8162 2709.00
11.1205 2497.00
11.4247 2483.00
11.729 2238.00
12.0333 2235.00
12.3375 2266.00
12.6418 2187.00
12.946 2159.00
13.2503 2162.00
13.5546 2138.00
13.8588 2243.00
14.1631 2224.00
14.4673 2053.00
14.7716 2375.00
15.0759 2818.00
15.3801 2007.00
15.6844 1917.00
15.9886 1912.00
16.2929 1946.00
16.5972 1894.00
16.9014 1956.00
17.2057 1980.00
17.5099 1914.00
17.8142 2349.00
18.1185 1793.00
18.4227 1828.00
18.727 1766.00
19.0312 1852.00
19.3355 1961.00
19.6398 3884.00
19.944 2747.00
20.2483 1952.00
20.5525 2037.00
20.8568 2410.00
21.1611 2466.00
21.4653 3401.00
21.7696 2856.00
22.0738 1920.00
22.3781 2516.00
22.6824 4061.00
22.9866 2023.00
23.2909 2086.00
23.5951 1714.00
23.8994 1753.00
24.2037 2452.00
24.5079 3087.00
24.8122 2497.00
25.1164 1861.00
25.4207 1511.00
25.725 1547.00
26.0292 1827.00
26.3335 1581.00
26.6378 1647.00
26.942 1597.00
27.2463 1716.00
27.5505 1577.00
27.8548 2549.00
28.1591 2398.00
28.4633 6648.00
28.7676 6936.00
29.0718 2042.00
29.3761 1672.00
29.6804 1619.00
29.9846 1720.00
30.2889 1614.00
30.5931 1864.00
30.8974 3608.00
31.2017 4075.00
31.5059 2679.00
31.8102 6399.00
32.1144 4287.00
32.4187 2196.00
32.723 1791.00
33.0272 1929.00
33.3315 2943.00
33.6357 2456.00
33.94 2713.00
34.2443 4184.00
34.5485 6270.00
34.8528 3480.00
35.157 2010.00
35.4613 1740.00
35.7656 3144.00
36.0698 1798.00
36.3741 2022.00
36.6783 1458.00
36.9826 1508.00
37.2869 1408.00
37.5911 1411.00
37.8954 1261.00
38.1996 1294.00
38.5039 1260.00
38.8082 1453.00
39.1124 1990.00
39.4167 1425.00
39.7209 1502.00
40.0252 1562.00
40.3295 1346.00
40.6337 1391.00
40.938 1670.00
41.2422 2744.00
41.5465 2109.00
41.8508 2044.00
42.155 1568.00
42.4593 1468.00
42.7635 1273.00
43.0678 1407.00
43.3721 1476.00
43.6763 1524.00
43.9806 1244.00
44.2849 1275.00
44.5891 1525.00
44.8934 1641.00
45.1976 1803.00
45.5019 1748.00
45.8062 1871.00
46.1104 1864.00
46.4147 1545.00
46.7189 1555.00
47.0232 1909.00
47.3275 1796.00
47.6317 1533.00
47.936 1272.00
48.2402 1369.00
48.5445 1383.00
48.8488 1347.00
49.153 1546.00
49.4573 2004.00
49.7615 2372.00
50.0658 1754.00
50.3701 1970.00
50.6743 2906.00
50.9786 2620.00
51.2828 2079.00
51.5871 1579.00
51.8914 1748.00
52.1956 1473.00
52.4999 1381.00
52.8041 1432.00
53.1084 1480.00
53.4127 1643.00
53.7169 1643.00
54.0212 1663.00
54.3254 1842.00
54.6297 1989.00
54.934 1781.00
55.2382 1394.00
55.5425 1769.00
55.8467 2195.00
56.151 2298.00
56.4553 1737.00
56.7595 1777.00
57.0638 1337.00
57.368 1508.00
57.6723 1889.00
57.9766 1931.00
58.2808 1634.00
58.5851 1800.00
58.8893 1690.00
59.1936 1762.00
59.4979 1509.00
59.8021 1409.00
60.1064 1795.00
60.4106 2117.00
60.7149 2014.00
61.0192 1722.00
61.3234 1729.00
61.6277 1739.00
61.932 1708.00
62.2362 1709.00
62.5405 1793.00
62.8447 1689.00
63.149 1565.00
63.4533 1777.00
63.7575 1531.00
64.0618 1242.00
64.366 1201.00
64.6703 1334.00
64.9745 1406.00
65.2788 1317.00
65.5831 1321.00
65.8873 1535.00
66.1916 1713.00
66.4959 1814.00
66.8001 1399.00
67.1044 1207.00
67.4086 1169.00
67.7129 1116.00
68.0172 1036.00
68.3214 1076.00
68.6257 1093.00
68.9299 1057.00
69.2342 1153.00
69.5385 1230.00
69.8427 1287.00
70.147 1119.00
70.4512 1206.00
70.7555 1186.00
71.0598 1163.00
71.364 1227.00
71.6683 1395.00
71.9725 1591.00
72.2768 1373.00
72.5811 1259.00
72.8853 1263.00
73.1896 1181.00
73.4938 1206.00
73.7981 1121.00
74.1024 1128.00
74.4066 1075.00
74.7109 1077.00
75.0151 1184.00
75.3194 1253.00
75.6237 1282.00
75.9279 1312.00
76.2322 1256.00
76.5364 1166.00
76.8407 1189.00
77.145 1159.00
77.4492 1114.00
77.7535 1103.00
78.0577 1135.00
78.362 1110.00
78.6663 1112.00
78.9705 1051.00
79.2748 1113.00
79.579 1153.00
79.8833 1159.00
80.1876 1116.00
80.4918 1101.00
80.7961 1060.00
81.1003 1051.00
81.4046 1054.00
81.7089 1108.00
82.0131 1107.00
82.3174 1361.00
82.6217 1207.00
82.9259 1173.00
83.2302 1166.00
83.5344 1308.00
83.8387 1276.00
84.143 1302.00
84.4472 1228.00
84.7515 1330.00
85.0557 1182.00
85.36 1121.00
85.6643 1120.00
85.9685 1115.00
86.2728 1134.00
86.577 1125.00
86.8813 1153.00
87.1856 1118.00
87.4898 1101.00
87.7941 1116.00
88.0983 1107.00
88.4026 1307.00
88.7069 1322.00
89.0111 1281.00
89.3154 1240.00
89.6196 1229.00
89.9239 1139.00
90.2282 1232.00
90.5324 1242.00
90.8367 1221.00
91.1409 1062.00
91.4452 1171.00
91.7495 1156.00
92.0537 1147.00
92.358 1039.00
92.6622 1035.00
92.9665 1040.00
93.2708 999.00
93.575 989.00
93.8793 1038.00
94.1835 1060.00
94.4878 1061.00
94.7921 1104.00
95.0963 1118.00
95.4006 1156.00
95.7048 1187.00
96.0091 1193.00
96.3134 1156.00
96.6176 1152.00
96.9219 1192.00
97.2261 1269.00
97.5304 1277.00
97.8347 1275.00
98.1389 1212.00
98.4432 1153.00
98.7474 1097.00
99.0517 1146.00
99.356 1213.00
99.6602 1217.00
99.9645 1264.00
100.095 1315.00