File: data/xrd_creation/results/NSC_70.xy
9.903433 2915.00
10.2077 2891.00
10.512 2860.00
10.8162 3075.00
11.1205 2632.00
11.4247 2359.00
11.729 2407.00
12.0333 2284.00
12.3375 2174.00
12.6418 2142.00
12.946 2212.00
13.2503 2196.00
13.5546 2530.00
13.8588 2085.00
14.1631 1868.00
14.4673 1914.00
14.7716 2006.00
15.0759 1828.00
15.3801 1885.00
15.6844 1844.00
15.9886 1801.00
16.2929 2097.00
16.5972 1715.00
16.9014 1750.00
17.2057 1829.00
17.5099 2188.00
17.8142 1675.00
18.1185 1562.00
18.4227 1611.00
18.727 1474.00
19.0312 1662.00
19.3355 1609.00
19.6398 1618.00
19.944 1706.00
20.2483 2313.00
20.5525 2444.00
20.8568 2800.00
21.1611 18328.00
21.4653 4522.00
21.7696 2227.00
22.0738 1692.00
22.3781 1347.00
22.6824 1316.00
22.9866 1391.00
23.2909 1798.00
23.5951 1610.00
23.8994 1513.00
24.2037 2496.00
24.5079 1817.00
24.8122 1255.00
25.1164 1173.00
25.4207 1318.00
25.725 1332.00
26.0292 1347.00
26.3335 1558.00
26.6378 2394.00
26.942 5223.00
27.2463 1609.00
27.5505 1357.00
27.8548 1258.00
28.1591 1045.00
28.4633 1224.00
28.7676 1025.00
29.0718 1222.00
29.3761 1111.00
29.6804 1283.00
29.9846 1453.00
30.2889 1026.00
30.5931 1250.00
30.8974 1095.00
31.2017 1062.00
31.5059 981.00
31.8102 1015.00
32.1144 1183.00
32.4187 1126.00
32.723 1281.00
33.0272 1530.00
33.3315 1782.00
33.6357 1450.00
33.94 2281.00
34.2443 4759.00
34.5485 9834.00
34.8528 11434.00
35.157 4022.00
35.4613 2318.00
35.7656 1100.00
36.0698 1184.00
36.3741 1109.00
36.6783 1045.00
36.9826 1189.00
37.2869 1311.00
37.5911 1154.00
37.8954 1154.00
38.1996 2038.00
38.5039 1120.00
38.8082 1100.00
39.1124 977.00
39.4167 1072.00
39.7209 1016.00
40.0252 1023.00
40.3295 1412.00
40.6337 1375.00
40.938 1389.00
41.2422 1579.00
41.5465 1028.00
41.8508 809.00
42.155 878.00
42.4593 980.00
42.7635 1934.00
43.0678 2197.00
43.3721 1451.00
43.6763 1201.00
43.9806 1304.00
44.2849 880.00
44.5891 948.00
44.8934 1064.00
45.1976 855.00
45.5019 818.00
45.8062 870.00
46.1104 762.00
46.4147 747.00
46.7189 820.00
47.0232 815.00
47.3275 797.00
47.6317 837.00
47.936 716.00
48.2402 791.00
48.5445 838.00
48.8488 754.00
49.153 961.00
49.4573 2691.00
49.7615 1873.00
50.0658 1560.00
50.3701 1470.00
50.6743 1130.00
50.9786 863.00
51.2828 699.00
51.5871 811.00
51.8914 1838.00
52.1956 2333.00
52.4999 952.00
52.8041 714.00
53.1084 668.00
53.4127 723.00
53.7169 830.00
54.0212 779.00
54.3254 802.00
54.6297 942.00
54.934 1283.00
55.2382 1134.00
55.5425 801.00
55.8467 760.00
56.151 735.00
56.4553 844.00
56.7595 830.00
57.0638 802.00
57.368 687.00
57.6723 674.00
57.9766 787.00
58.2808 805.00
58.5851 682.00
58.8893 641.00
59.1936 647.00
59.4979 693.00
59.8021 637.00
60.1064 687.00
60.4106 736.00
60.7149 655.00
61.0192 643.00
61.3234 770.00
61.6277 1828.00
61.932 2456.00
62.2362 2416.00
62.5405 2146.00
62.8447 961.00
63.149 777.00
63.4533 712.00
63.7575 641.00
64.0618 594.00
64.366 634.00
64.6703 674.00
64.9745 1066.00
65.2788 715.00
65.5831 770.00
65.8873 893.00
66.1916 1241.00
66.4959 800.00
66.8001 712.00
67.1044 619.00
67.4086 546.00
67.7129 543.00
68.0172 528.00
68.3214 516.00
68.6257 548.00
68.9299 529.00
69.2342 585.00
69.5385 593.00
69.8427 599.00
70.147 601.00
70.4512 553.00
70.7555 479.00
71.0598 491.00
71.364 625.00
71.6683 675.00
71.9725 555.00
72.2768 642.00
72.5811 833.00
72.8853 937.00
73.1896 862.00
73.4938 626.00
73.7981 534.00
74.1024 485.00
74.4066 534.00
74.7109 574.00
75.0151 576.00
75.3194 503.00
75.6237 503.00
75.9279 443.00
76.2322 544.00
76.5364 584.00
76.8407 555.00
77.145 550.00
77.4492 524.00
77.7535 524.00
78.0577 482.00
78.362 555.00
78.6663 581.00
78.9705 848.00
79.2748 631.00
79.579 495.00
79.8833 447.00
80.1876 428.00
80.4918 431.00
80.7961 414.00
81.1003 436.00
81.4046 569.00
81.7089 503.00
82.0131 395.00
82.3174 505.00
82.6217 773.00
82.9259 767.00
83.2302 555.00
83.5344 578.00
83.8387 759.00
84.143 757.00
84.4472 533.00
84.7515 472.00
85.0557 452.00
85.36 456.00
85.6643 464.00
85.9685 422.00
86.2728 391.00
86.577 447.00
86.8813 461.00
87.1856 451.00
87.4898 544.00
87.7941 520.00
88.0983 443.00
88.4026 452.00
88.7069 419.00
89.0111 421.00
89.3154 391.00
89.6196 466.00
89.9239 647.00
90.2282 668.00
90.5324 519.00
90.8367 505.00
91.1409 660.00
91.4452 577.00
91.7495 451.00
92.0537 429.00
92.358 455.00
92.6622 423.00
92.9665 503.00
93.2708 519.00
93.575 589.00
93.8793 543.00
94.1835 496.00
94.4878 412.00
94.7921 403.00
95.0963 410.00
95.4006 403.00
95.7048 430.00
96.0091 486.00
96.3134 547.00
96.6176 454.00
96.9219 416.00
97.2261 409.00
97.5304 387.00
97.8347 428.00
98.1389 447.00
98.4432 401.00
98.7474 439.00
99.0517 432.00
99.356 416.00
99.6602 405.00
99.9645 421.00
100.095 420.00