File: data/xrd_creation/results/NSC_89.xy
9.903433 2906.00
10.2077 2591.00
10.512 2471.00
10.8162 2446.00
11.1205 2379.00
11.4247 2235.00
11.729 2259.00
12.0333 2187.00
12.3375 2034.00
12.6418 1976.00
12.946 1950.00
13.2503 1850.00
13.5546 1789.00
13.8588 1882.00
14.1631 2108.00
14.4673 2486.00
14.7716 1715.00
15.0759 1654.00
15.3801 1639.00
15.6844 1601.00
15.9886 1576.00
16.2929 1575.00
16.5972 1553.00
16.9014 1486.00
17.2057 1507.00
17.5099 1426.00
17.8142 1495.00
18.1185 1338.00
18.4227 1364.00
18.727 1381.00
19.0312 1336.00
19.3355 1456.00
19.6398 2449.00
19.944 4832.00
20.2483 1456.00
20.5525 1807.00
20.8568 6274.00
21.1611 1690.00
21.4653 1274.00
21.7696 1244.00
22.0738 1169.00
22.3781 1202.00
22.6824 1097.00
22.9866 1137.00
23.2909 1089.00
23.5951 1261.00
23.8994 2526.00
24.2037 2728.00
24.5079 1102.00
24.8122 985.00
25.1164 1014.00
25.4207 931.00
25.725 941.00
26.0292 898.00
26.3335 924.00
26.6378 1249.00
26.942 855.00
27.2463 863.00
27.5505 872.00
27.8548 868.00
28.1591 828.00
28.4633 876.00
28.7676 1615.00
29.0718 3599.00
29.3761 929.00
29.6804 802.00
29.9846 800.00
30.2889 754.00
30.5931 728.00
30.8974 801.00
31.2017 778.00
31.5059 1105.00
31.8102 6234.00
32.1144 1168.00
32.4187 1232.00
32.723 733.00
33.0272 659.00
33.3315 714.00
33.6357 687.00
33.94 1107.00
34.2443 890.00
34.5485 653.00
34.8528 634.00
35.157 617.00
35.4613 676.00
35.7656 928.00
36.0698 2278.00
36.3741 1171.00
36.6783 2928.00
36.9826 695.00
37.2869 622.00
37.5911 590.00
37.8954 606.00
38.1996 585.00
38.5039 650.00
38.8082 608.00
39.1124 500.00
39.4167 521.00
39.7209 526.00
40.0252 490.00
40.3295 887.00
40.6337 569.00
40.938 497.00
41.2422 522.00
41.5465 499.00
41.8508 809.00
42.155 824.00
42.4593 978.00
42.7635 617.00
43.0678 563.00
43.3721 466.00
43.6763 482.00
43.9806 1032.00
44.2849 896.00
44.5891 470.00
44.8934 471.00
45.1976 588.00
45.5019 539.00
45.8062 1334.00
46.1104 703.00
46.4147 474.00
46.7189 479.00
47.0232 612.00
47.3275 2273.00
47.6317 769.00
47.936 451.00
48.2402 477.00
48.5445 592.00
48.8488 554.00
49.153 1595.00
49.4573 1304.00
49.7615 492.00
50.0658 501.00
50.3701 536.00
50.6743 422.00
50.9786 399.00
51.2828 467.00
51.5871 454.00
51.8914 805.00
52.1956 1833.00
52.4999 1085.00
52.8041 453.00
53.1084 589.00
53.4127 405.00
53.7169 397.00
54.0212 364.00
54.3254 377.00
54.6297 415.00
54.934 476.00
55.2382 401.00
55.5425 880.00
55.8467 537.00
56.151 392.00
56.4553 416.00
56.7595 929.00
57.0638 1199.00
57.368 1943.00
57.6723 561.00
57.9766 459.00
58.2808 445.00
58.5851 544.00
58.8893 770.00
59.1936 392.00
59.4979 360.00
59.8021 355.00
60.1064 559.00
60.4106 391.00
60.7149 344.00
61.0192 483.00
61.3234 1473.00
61.6277 471.00
61.932 462.00
62.2362 519.00
62.5405 546.00
62.8447 1487.00
63.149 1337.00
63.4533 500.00
63.7575 364.00
64.0618 382.00
64.366 493.00
64.6703 434.00
64.9745 403.00
65.2788 552.00
65.5831 971.00
65.8873 1011.00
66.1916 597.00
66.4959 365.00
66.8001 354.00
67.1044 671.00
67.4086 729.00
67.7129 377.00
68.0172 348.00
68.3214 332.00
68.6257 346.00
68.9299 343.00
69.2342 343.00
69.5385 1047.00
69.8427 555.00
70.147 307.00
70.4512 329.00
70.7555 338.00
71.0598 517.00
71.364 476.00
71.6683 372.00
71.9725 362.00
72.2768 278.00
72.5811 336.00
72.8853 296.00
73.1896 329.00
73.4938 809.00
73.7981 467.00
74.1024 326.00
74.4066 264.00
74.7109 360.00
75.0151 495.00
75.3194 627.00
75.6237 488.00
75.9279 425.00
76.2322 453.00
76.5364 327.00
76.8407 321.00
77.145 294.00
77.4492 372.00
77.7535 631.00
78.0577 525.00
78.362 337.00
78.6663 292.00
78.9705 374.00
79.2748 355.00
79.579 341.00
79.8833 356.00
80.1876 347.00
80.4918 284.00
80.7961 308.00
81.1003 500.00
81.4046 654.00
81.7089 509.00
82.0131 318.00
82.3174 314.00
82.6217 446.00
82.9259 683.00
83.2302 375.00
83.5344 340.00
83.8387 286.00
84.143 292.00
84.4472 275.00
84.7515 273.00
85.0557 367.00
85.36 315.00
85.6643 267.00
85.9685 313.00
86.2728 487.00
86.577 529.00
86.8813 384.00
87.1856 325.00
87.4898 570.00
87.7941 673.00
88.0983 458.00
88.4026 292.00
88.7069 382.00
89.0111 354.00
89.3154 331.00
89.6196 314.00
89.9239 323.00
90.2282 359.00
90.5324 375.00
90.8367 373.00
91.1409 394.00
91.4452 328.00
91.7495 324.00
92.0537 294.00
92.358 441.00
92.6622 568.00
92.9665 458.00
93.2708 332.00
93.575 309.00
93.8793 316.00
94.1835 493.00
94.4878 418.00
94.7921 321.00
95.0963 477.00
95.4006 450.00
95.7048 339.00
96.0091 338.00
96.3134 386.00
96.6176 336.00
96.9219 279.00
97.2261 279.00
97.5304 339.00
97.8347 632.00
98.1389 505.00
98.4432 352.00
98.7474 326.00
99.0517 262.00
99.356 278.00
99.6602 297.00
99.9645 508.00
100.095 623.00