File: data/xrd_creation/results/NSC_99.xy
9.903433 2705.00
10.2077 2565.00
10.512 2524.00
10.8162 2347.00
11.1205 2351.00
11.4247 2214.00
11.729 2031.00
12.0333 1932.00
12.3375 1893.00
12.6418 1873.00
12.946 1807.00
13.2503 1759.00
13.5546 1761.00
13.8588 1699.00
14.1631 1796.00
14.4673 1883.00
14.7716 1687.00
15.0759 1631.00
15.3801 1522.00
15.6844 1528.00
15.9886 1481.00
16.2929 1432.00
16.5972 1449.00
16.9014 1442.00
17.2057 1421.00
17.5099 1387.00
17.8142 1369.00
18.1185 1345.00
18.4227 1283.00
18.727 1321.00
19.0312 1308.00
19.3355 1272.00
19.6398 1458.00
19.944 1881.00
20.2483 2314.00
20.5525 1442.00
20.8568 1709.00
21.1611 6200.00
21.4653 1247.00
21.7696 1264.00
22.0738 1119.00
22.3781 1180.00
22.6824 1090.00
22.9866 1111.00
23.2909 1125.00
23.5951 1044.00
23.8994 1227.00
24.2037 2287.00
24.5079 1151.00
24.8122 1023.00
25.1164 1038.00
25.4207 989.00
25.725 1003.00
26.0292 1025.00
26.3335 1078.00
26.6378 1578.00
26.942 6120.00
27.2463 1061.00
27.5505 928.00
27.8548 905.00
28.1591 892.00
28.4633 845.00
28.7676 973.00
29.0718 1550.00
29.3761 1396.00
29.6804 832.00
29.9846 832.00
30.2889 786.00
30.5931 743.00
30.8974 819.00
31.2017 769.00
31.5059 803.00
31.8102 1164.00
32.1144 5561.00
32.4187 887.00
32.723 1032.00
33.0272 737.00
33.3315 779.00
33.6357 810.00
33.94 1244.00
34.2443 4732.00
34.5485 924.00
34.8528 652.00
35.157 639.00
35.4613 683.00
35.7656 734.00
36.0698 988.00
36.3741 1227.00
36.6783 1280.00
36.9826 1372.00
37.2869 664.00
37.5911 635.00
37.8954 679.00
38.1996 1758.00
38.5039 722.00
38.8082 818.00
39.1124 635.00
39.4167 679.00
39.7209 526.00
40.0252 516.00
40.3295 599.00
40.6337 935.00
40.938 485.00
41.2422 554.00
41.5465 483.00
41.8508 513.00
42.155 984.00
42.4593 627.00
42.7635 989.00
43.0678 580.00
43.3721 572.00
43.6763 498.00
43.9806 543.00
44.2849 1354.00
44.5891 570.00
44.8934 545.00
45.1976 569.00
45.5019 515.00
45.8062 493.00
46.1104 1501.00
46.4147 495.00
46.7189 488.00
47.0232 502.00
47.3275 585.00
47.6317 1627.00
47.936 491.00
48.2402 474.00
48.5445 497.00
48.8488 573.00
49.153 595.00
49.4573 2230.00
49.7615 566.00
50.0658 402.00
50.3701 648.00
50.6743 455.00
50.9786 430.00
51.2828 476.00
51.5871 535.00
51.8914 1273.00
52.1956 3381.00
52.4999 2196.00
52.8041 567.00
53.1084 476.00
53.4127 529.00
53.7169 391.00
54.0212 398.00
54.3254 456.00
54.6297 514.00
54.934 803.00
55.2382 850.00
55.5425 490.00
55.8467 870.00
56.151 415.00
56.4553 432.00
56.7595 479.00
57.0638 1235.00
57.368 1031.00
57.6723 1098.00
57.9766 620.00
58.2808 662.00
58.5851 461.00
58.8893 631.00
59.1936 554.00
59.4979 410.00
59.8021 394.00
60.1064 451.00
60.4106 461.00
60.7149 387.00
61.0192 435.00
61.3234 601.00
61.6277 941.00
61.932 501.00
62.2362 1142.00
62.5405 573.00
62.8447 553.00
63.149 1226.00
63.4533 821.00
63.7575 414.00
64.0618 373.00
64.366 422.00
64.6703 541.00
64.9745 1345.00
65.2788 681.00
65.5831 797.00
65.8873 841.00
66.1916 1682.00
66.4959 835.00
66.8001 390.00
67.1044 380.00
67.4086 821.00
67.7129 521.00
68.0172 396.00
68.3214 368.00
68.6257 304.00
68.9299 352.00
69.2342 363.00
69.5385 493.00
69.8427 720.00
70.147 394.00
70.4512 359.00
70.7555 349.00
71.0598 389.00
71.364 554.00
71.6683 707.00
71.9725 389.00
72.2768 401.00
72.5811 307.00
72.8853 338.00
73.1896 323.00
73.4938 490.00
73.7981 587.00
74.1024 411.00
74.4066 345.00
74.7109 389.00
75.0151 345.00
75.3194 626.00
75.6237 501.00
75.9279 397.00
76.2322 398.00
76.5364 431.00
76.8407 311.00
77.145 333.00
77.4492 385.00
77.7535 490.00
78.0577 444.00
78.362 406.00
78.6663 373.00
78.9705 1078.00
79.2748 611.00
79.579 407.00
79.8833 397.00
80.1876 356.00
80.4918 360.00
80.7961 319.00
81.1003 409.00
81.4046 830.00
81.7089 707.00
82.0131 400.00
82.3174 365.00
82.6217 382.00
82.9259 624.00
83.2302 552.00
83.5344 365.00
83.8387 543.00
84.143 609.00
84.4472 354.00
84.7515 327.00
85.0557 359.00
85.36 335.00
85.6643 336.00
85.9685 357.00
86.2728 367.00
86.577 586.00
86.8813 466.00
87.1856 342.00
87.4898 638.00
87.7941 717.00
88.0983 540.00
88.4026 369.00
88.7069 345.00
89.0111 349.00
89.3154 359.00
89.6196 383.00
89.9239 663.00
90.2282 647.00
90.5324 538.00
90.8367 473.00
91.1409 903.00
91.4452 688.00
91.7495 424.00
92.0537 342.00
92.358 336.00
92.6622 584.00
92.9665 564.00
93.2708 410.00
93.575 552.00
93.8793 487.00
94.1835 420.00
94.4878 417.00
94.7921 333.00
95.0963 342.00
95.4006 410.00
95.7048 445.00
96.0091 401.00
96.3134 537.00
96.6176 490.00
96.9219 357.00
97.2261 341.00
97.5304 317.00
97.8347 425.00
98.1389 493.00
98.4432 432.00
98.7474 356.00
99.0517 308.00
99.356 287.00
99.6602 319.00
99.9645 395.00
100.095 502.00