File: data/xrd_creation/results/NSC_35.xy
9.903433 3140.00
10.2077 3049.00
10.512 2842.00
10.8162 2913.00
11.1205 2677.00
11.4247 2760.00
11.729 2624.00
12.0333 2606.00
12.3375 2713.00
12.6418 3326.00
12.946 3925.00
13.2503 2914.00
13.5546 2553.00
13.8588 2730.00
14.1631 3243.00
14.4673 2354.00
14.7716 2308.00
15.0759 2310.00
15.3801 2295.00
15.6844 2291.00
15.9886 2318.00
16.2929 2352.00
16.5972 2268.00
16.9014 2226.00
17.2057 2270.00
17.5099 2240.00
17.8142 2250.00
18.1185 2051.00
18.4227 2048.00
18.727 2124.00
19.0312 2092.00
19.3355 2431.00
19.6398 4433.00
19.944 6008.00
20.2483 2476.00
20.5525 2182.00
20.8568 2330.00
21.1611 2641.00
21.4653 2827.00
21.7696 3218.00
22.0738 2063.00
22.3781 1919.00
22.6824 1941.00
22.9866 2651.00
23.2909 5088.00
23.5951 2382.00
23.8994 2042.00
24.2037 2125.00
24.5079 2148.00
24.8122 2082.00
25.1164 1725.00
25.4207 1767.00
25.725 1845.00
26.0292 1801.00
26.3335 1756.00
26.6378 1717.00
26.942 1661.00
27.2463 1681.00
27.5505 1717.00
27.8548 2029.00
28.1591 3372.00
28.4633 6107.00
28.7676 2121.00
29.0718 2141.00
29.3761 2299.00
29.6804 1697.00
29.9846 1686.00
30.2889 1973.00
30.5931 2295.00
30.8974 11559.00
31.2017 8932.00
31.5059 3921.00
31.8102 4357.00
32.1144 1683.00
32.4187 1615.00
32.723 1579.00
33.0272 1498.00
33.3315 1560.00
33.6357 1480.00
33.94 1550.00
34.2443 2141.00
34.5485 6912.00
34.8528 4170.00
35.157 1750.00
35.4613 2045.00
35.7656 3992.00
36.0698 1565.00
36.3741 1463.00
36.6783 1306.00
36.9826 1315.00
37.2869 1275.00
37.5911 1295.00
37.8954 1478.00
38.1996 1394.00
38.5039 1277.00
38.8082 1437.00
39.1124 1301.00
39.4167 1290.00
39.7209 1401.00
40.0252 1384.00
40.3295 1413.00
40.6337 1324.00
40.938 1517.00
41.2422 1607.00
41.5465 1553.00
41.8508 1770.00
42.155 2018.00
42.4593 1675.00
42.7635 1460.00
43.0678 1366.00
43.3721 1291.00
43.6763 1362.00
43.9806 1311.00
44.2849 1338.00
44.5891 1332.00
44.8934 1495.00
45.1976 1798.00
45.5019 1569.00
45.8062 2017.00
46.1104 1634.00
46.4147 1352.00
46.7189 1631.00
47.0232 3041.00
47.3275 2891.00
47.6317 1892.00
47.936 1404.00
48.2402 1452.00
48.5445 1459.00
48.8488 1417.00
49.153 1374.00
49.4573 1799.00
49.7615 1542.00
50.0658 1263.00
50.3701 2037.00
50.6743 1617.00
50.9786 2029.00
51.2828 4021.00
51.5871 1719.00
51.8914 1256.00
52.1956 1235.00
52.4999 1255.00
52.8041 1325.00
53.1084 1484.00
53.4127 1318.00
53.7169 1844.00
54.0212 1883.00
54.3254 2371.00
54.6297 1467.00
54.934 1212.00
55.2382 1141.00
55.5425 1601.00
55.8467 1483.00
56.151 1516.00
56.4553 1331.00
56.7595 1163.00
57.0638 1067.00
57.368 1354.00
57.6723 1256.00
57.9766 1173.00
58.2808 1288.00
58.5851 1274.00
58.8893 1240.00
59.1936 1497.00
59.4979 2177.00
59.8021 2005.00
60.1064 2066.00
60.4106 1614.00
60.7149 1578.00
61.0192 2464.00
61.3234 1546.00
61.6277 1724.00
61.932 1432.00
62.2362 1631.00
62.5405 1501.00
62.8447 1224.00
63.149 1585.00
63.4533 1207.00
63.7575 1163.00
64.0618 1321.00
64.366 1156.00
64.6703 1203.00
64.9745 1110.00
65.2788 1237.00
65.5831 1263.00
65.8873 1591.00
66.1916 1359.00
66.4959 1278.00
66.8001 1299.00
67.1044 1180.00
67.4086 1159.00
67.7129 1130.00
68.0172 1095.00
68.3214 1151.00
68.6257 1041.00
68.9299 1112.00
69.2342 1157.00
69.5385 1311.00
69.8427 1119.00
70.147 983.00
70.4512 1089.00
70.7555 1056.00
71.0598 1017.00
71.364 1128.00
71.6683 1115.00
71.9725 1021.00
72.2768 1159.00
72.5811 1221.00
72.8853 1149.00
73.1896 1172.00
73.4938 1125.00
73.7981 1059.00
74.1024 1116.00
74.4066 1020.00
74.7109 1021.00
75.0151 1068.00
75.3194 1166.00
75.6237 1182.00
75.9279 1035.00
76.2322 1033.00
76.5364 1175.00
76.8407 1133.00
77.145 1056.00
77.4492 1019.00
77.7535 1031.00
78.0577 1031.00
78.362 1005.00
78.6663 1014.00
78.9705 988.00
79.2748 1036.00
79.579 968.00
79.8833 903.00
80.1876 954.00
80.4918 959.00
80.7961 1135.00
81.1003 1121.00
81.4046 1145.00
81.7089 1175.00
82.0131 1147.00
82.3174 1106.00
82.6217 1072.00
82.9259 1078.00
83.2302 1125.00
83.5344 1201.00
83.8387 1013.00
84.143 946.00
84.4472 977.00
84.7515 1031.00
85.0557 1023.00
85.36 885.00
85.6643 953.00
85.9685 1137.00
86.2728 1073.00
86.577 1003.00
86.8813 896.00
87.1856 993.00
87.4898 1074.00
87.7941 1066.00
88.0983 997.00
88.4026 1100.00
88.7069 1102.00
89.0111 1041.00
89.3154 928.00
89.6196 983.00
89.9239 1079.00
90.2282 1086.00
90.5324 983.00
90.8367 1022.00
91.1409 1008.00
91.4452 1024.00
91.7495 1007.00
92.0537 935.00
92.358 950.00
92.6622 1033.00
92.9665 1026.00
93.2708 1019.00
93.575 964.00
93.8793 956.00
94.1835 1023.00
94.4878 1110.00
94.7921 994.00
95.0963 986.00
95.4006 1091.00
95.7048 1063.00
96.0091 917.00
96.3134 1041.00
96.6176 1191.00
96.9219 1183.00
97.2261 1047.00
97.5304 992.00
97.8347 996.00
98.1389 1037.00
98.4432 928.00
98.7474 956.00
99.0517 989.00
99.356 948.00
99.6602 1004.00
99.9645 950.00
100.095 965.00