File: data/xrd_creation/results/NSC_204.xy
9.903433 2807.00
10.2077 2761.00
10.512 2830.00
10.8162 2695.00
11.1205 2508.00
11.4247 2529.00
11.729 2367.00
12.0333 2320.00
12.3375 2380.00
12.6418 2225.00
12.946 2304.00
13.2503 2167.00
13.5546 2261.00
13.8588 2560.00
14.1631 3590.00
14.4673 2064.00
14.7716 2090.00
15.0759 2186.00
15.3801 2020.00
15.6844 1876.00
15.9886 1912.00
16.2929 1942.00
16.5972 1974.00
16.9014 1839.00
17.2057 1966.00
17.5099 1856.00
17.8142 2093.00
18.1185 1941.00
18.4227 1757.00
18.727 1849.00
19.0312 1785.00
19.3355 2327.00
19.6398 7867.00
19.944 8023.00
20.2483 2153.00
20.5525 1863.00
20.8568 1978.00
21.1611 3267.00
21.4653 1899.00
21.7696 1868.00
22.0738 1669.00
22.3781 1750.00
22.6824 2142.00
22.9866 2023.00
23.2909 3664.00
23.5951 2066.00
23.8994 1615.00
24.2037 1842.00
24.5079 2660.00
24.8122 1913.00
25.1164 1724.00
25.4207 1545.00
25.725 1515.00
26.0292 1450.00
26.3335 1490.00
26.6378 1459.00
26.942 1430.00
27.2463 1498.00
27.5505 1548.00
27.8548 2959.00
28.1591 3747.00
28.4633 3811.00
28.7676 6063.00
29.0718 1701.00
29.3761 1501.00
29.6804 1474.00
29.9846 1407.00
30.2889 1534.00
30.5931 2016.00
30.8974 4178.00
31.2017 8296.00
31.5059 3617.00
31.8102 3994.00
32.1144 3901.00
32.4187 1598.00
32.723 1388.00
33.0272 1372.00
33.3315 1523.00
33.6357 1452.00
33.94 1635.00
34.2443 2774.00
34.5485 9372.00
34.8528 4060.00
35.157 2058.00
35.4613 1504.00
35.7656 2587.00
36.0698 1582.00
36.3741 1542.00
36.6783 1250.00
36.9826 1254.00
37.2869 1214.00
37.5911 1195.00
37.8954 1204.00
38.1996 1124.00
38.5039 1122.00
38.8082 1166.00
39.1124 1596.00
39.4167 1349.00
39.7209 1535.00
40.0252 1315.00
40.3295 1247.00
40.6337 1231.00
40.938 1317.00
41.2422 1838.00
41.5465 1723.00
41.8508 1969.00
42.155 2085.00
42.4593 1635.00
42.7635 1291.00
43.0678 1079.00
43.3721 1160.00
43.6763 1121.00
43.9806 1146.00
44.2849 1238.00
44.5891 1989.00
44.8934 2337.00
45.1976 1792.00
45.5019 1363.00
45.8062 1317.00
46.1104 1549.00
46.4147 1469.00
46.7189 1897.00
47.0232 2975.00
47.3275 2457.00
47.6317 1512.00
47.936 1140.00
48.2402 1111.00
48.5445 1099.00
48.8488 1168.00
49.153 1212.00
49.4573 1727.00
49.7615 1920.00
50.0658 1479.00
50.3701 1323.00
50.6743 2072.00
50.9786 2966.00
51.2828 2944.00
51.5871 1608.00
51.8914 1407.00
52.1956 1107.00
52.4999 1028.00
52.8041 1071.00
53.1084 1156.00
53.4127 1704.00
53.7169 2335.00
54.0212 1963.00
54.3254 1464.00
54.6297 1498.00
54.934 1332.00
55.2382 1174.00
55.5425 1314.00
55.8467 1638.00
56.151 1768.00
56.4553 1337.00
56.7595 1373.00
57.0638 1060.00
57.368 1174.00
57.6723 1362.00
57.9766 1368.00
58.2808 1230.00
58.5851 1536.00
58.8893 1696.00
59.1936 2048.00
59.4979 2356.00
59.8021 1791.00
60.1064 1403.00
60.4106 1564.00
60.7149 1675.00
61.0192 1631.00
61.3234 1512.00
61.6277 1990.00
61.932 1798.00
62.2362 1560.00
62.5405 1668.00
62.8447 1541.00
63.149 1467.00
63.4533 1417.00
63.7575 1251.00
64.0618 1038.00
64.366 963.00
64.6703 1084.00
64.9745 1240.00
65.2788 1203.00
65.5831 1235.00
65.8873 1254.00
66.1916 1552.00
66.4959 1838.00
66.8001 1572.00
67.1044 1160.00
67.4086 1020.00
67.7129 998.00
68.0172 946.00
68.3214 1026.00
68.6257 1157.00
68.9299 1139.00
69.2342 1113.00
69.5385 1063.00
69.8427 1105.00
70.147 948.00
70.4512 916.00
70.7555 948.00
71.0598 1001.00
71.364 1031.00
71.6683 1121.00
71.9725 1322.00
72.2768 1234.00
72.5811 1302.00
72.8853 1216.00
73.1896 1198.00
73.4938 1176.00
73.7981 1029.00
74.1024 955.00
74.4066 958.00
74.7109 1019.00
75.0151 1006.00
75.3194 1071.00
75.6237 1135.00
75.9279 1204.00
76.2322 1095.00
76.5364 1021.00
76.8407 1041.00
77.145 1113.00
77.4492 1075.00
77.7535 976.00
78.0577 962.00
78.362 981.00
78.6663 948.00
78.9705 935.00
79.2748 927.00
79.579 926.00
79.8833 1064.00
80.1876 1101.00
80.4918 1154.00
80.7961 1117.00
81.1003 1069.00
81.4046 1055.00
81.7089 1022.00
82.0131 1057.00
82.3174 1109.00
82.6217 1062.00
82.9259 1055.00
83.2302 1004.00
83.5344 1057.00
83.8387 964.00
84.143 980.00
84.4472 981.00
84.7515 984.00
85.0557 958.00
85.36 937.00
85.6643 964.00
85.9685 1033.00
86.2728 1029.00
86.577 959.00
86.8813 1136.00
87.1856 1128.00
87.4898 1094.00
87.7941 995.00
88.0983 1029.00
88.4026 1095.00
88.7069 1111.00
89.0111 1106.00
89.3154 1131.00
89.6196 1026.00
89.9239 978.00
90.2282 1056.00
90.5324 1062.00
90.8367 1032.00
91.1409 976.00
91.4452 892.00
91.7495 915.00
92.0537 956.00
92.358 965.00
92.6622 993.00
92.9665 967.00
93.2708 1037.00
93.575 1033.00
93.8793 1087.00
94.1835 1014.00
94.4878 939.00
94.7921 1012.00
95.0963 975.00
95.4006 939.00
95.7048 1012.00
96.0091 975.00
96.3134 1029.00
96.6176 983.00
96.9219 1000.00
97.2261 1016.00
97.5304 1003.00
97.8347 1012.00
98.1389 981.00
98.4432 920.00
98.7474 883.00
99.0517 983.00
99.356 1026.00
99.6602 1118.00
99.9645 1198.00
100.095 1238.00