File: data/xrd_creation/results/NSC_45.xy
9.903433 2866.00
10.2077 2747.00
10.512 2688.00
10.8162 2530.00
11.1205 2436.00
11.4247 2439.00
11.729 2258.00
12.0333 2411.00
12.3375 2212.00
12.6418 2449.00
12.946 2283.00
13.2503 2004.00
13.5546 1992.00
13.8588 2059.00
14.1631 2163.00
14.4673 1933.00
14.7716 1846.00
15.0759 1820.00
15.3801 1863.00
15.6844 1813.00
15.9886 1754.00
16.2929 1730.00
16.5972 1753.00
16.9014 1725.00
17.2057 1775.00
17.5099 1682.00
17.8142 1667.00
18.1185 1697.00
18.4227 1640.00
18.727 1605.00
19.0312 1538.00
19.3355 1688.00
19.6398 1787.00
19.944 2528.00
20.2483 1601.00
20.5525 1502.00
20.8568 1733.00
21.1611 1607.00
21.4653 1565.00
21.7696 3407.00
22.0738 1488.00
22.3781 1486.00
22.6824 1435.00
22.9866 1385.00
23.2909 2195.00
23.5951 1360.00
23.8994 1328.00
24.2037 1809.00
24.5079 1363.00
24.8122 1229.00
25.1164 1183.00
25.4207 1252.00
25.725 1183.00
26.0292 1211.00
26.3335 1155.00
26.6378 1166.00
26.942 1091.00
27.2463 1152.00
27.5505 1123.00
27.8548 1144.00
28.1591 1406.00
28.4633 1072.00
28.7676 1095.00
29.0718 1133.00
29.3761 1096.00
29.6804 1261.00
29.9846 1210.00
30.2889 1210.00
30.5931 2254.00
30.8974 18643.00
31.2017 1553.00
31.5059 2136.00
31.8102 1316.00
32.1144 2056.00
32.4187 1254.00
32.723 1091.00
33.0272 1462.00
33.3315 1257.00
33.6357 1040.00
33.94 997.00
34.2443 1351.00
34.5485 2172.00
34.8528 1518.00
35.157 1040.00
35.4613 1897.00
35.7656 6406.00
36.0698 1077.00
36.3741 899.00
36.6783 818.00
36.9826 807.00
37.2869 817.00
37.5911 893.00
37.8954 1656.00
38.1996 875.00
38.5039 830.00
38.8082 769.00
39.1124 846.00
39.4167 801.00
39.7209 684.00
40.0252 954.00
40.3295 750.00
40.6337 696.00
40.938 716.00
41.2422 760.00
41.5465 830.00
41.8508 848.00
42.155 1626.00
42.4593 832.00
42.7635 806.00
43.0678 705.00
43.3721 853.00
43.6763 739.00
43.9806 898.00
44.2849 716.00
44.5891 706.00
44.8934 712.00
45.1976 788.00
45.5019 743.00
45.8062 1118.00
46.1104 1229.00
46.4147 615.00
46.7189 663.00
47.0232 680.00
47.3275 1224.00
47.6317 991.00
47.936 619.00
48.2402 638.00
48.5445 630.00
48.8488 640.00
49.153 706.00
49.4573 1225.00
49.7615 924.00
50.0658 669.00
50.3701 618.00
50.6743 732.00
50.9786 910.00
51.2828 7196.00
51.5871 1195.00
51.8914 840.00
52.1956 666.00
52.4999 648.00
52.8041 718.00
53.1084 989.00
53.4127 679.00
53.7169 604.00
54.0212 784.00
54.3254 813.00
54.6297 710.00
54.934 553.00
55.2382 579.00
55.5425 613.00
55.8467 703.00
56.151 1266.00
56.4553 825.00
56.7595 571.00
57.0638 537.00
57.368 556.00
57.6723 682.00
57.9766 719.00
58.2808 700.00
58.5851 582.00
58.8893 565.00
59.1936 692.00
59.4979 974.00
59.8021 704.00
60.1064 815.00
60.4106 792.00
60.7149 1374.00
61.0192 3514.00
61.3234 980.00
61.6277 771.00
61.932 732.00
62.2362 840.00
62.5405 1137.00
62.8447 611.00
63.149 547.00
63.4533 561.00
63.7575 772.00
64.0618 1067.00
64.366 597.00
64.6703 565.00
64.9745 497.00
65.2788 653.00
65.5831 704.00
65.8873 512.00
66.1916 516.00
66.4959 536.00
66.8001 686.00
67.1044 587.00
67.4086 582.00
67.7129 516.00
68.0172 535.00
68.3214 887.00
68.6257 559.00
68.9299 531.00
69.2342 568.00
69.5385 552.00
69.8427 707.00
70.147 470.00
70.4512 440.00
70.7555 415.00
71.0598 445.00
71.364 459.00
71.6683 393.00
71.9725 475.00
72.2768 460.00
72.5811 465.00
72.8853 455.00
73.1896 504.00
73.4938 482.00
73.7981 639.00
74.1024 610.00
74.4066 465.00
74.7109 464.00
75.0151 499.00
75.3194 823.00
75.6237 520.00
75.9279 444.00
76.2322 564.00
76.5364 759.00
76.8407 774.00
77.145 420.00
77.4492 472.00
77.7535 550.00
78.0577 672.00
78.362 450.00
78.6663 444.00
78.9705 444.00
79.2748 620.00
79.579 544.00
79.8833 416.00
80.1876 442.00
80.4918 470.00
80.7961 524.00
81.1003 468.00
81.4046 478.00
81.7089 537.00
82.0131 889.00
82.3174 660.00
82.6217 506.00
82.9259 479.00
83.2302 795.00
83.5344 964.00
83.8387 502.00
84.143 428.00
84.4472 422.00
84.7515 451.00
85.0557 419.00
85.36 479.00
85.6643 519.00
85.9685 989.00
86.2728 822.00
86.577 449.00
86.8813 399.00
87.1856 445.00
87.4898 466.00
87.7941 457.00
88.0983 447.00
88.4026 452.00
88.7069 562.00
89.0111 518.00
89.3154 440.00
89.6196 433.00
89.9239 644.00
90.2282 539.00
90.5324 423.00
90.8367 383.00
91.1409 412.00
91.4452 474.00
91.7495 434.00
92.0537 434.00
92.358 498.00
92.6622 684.00
92.9665 583.00
93.2708 396.00
93.575 416.00
93.8793 388.00
94.1835 410.00
94.4878 407.00
94.7921 448.00
95.0963 476.00
95.4006 643.00
95.7048 520.00
96.0091 460.00
96.3134 492.00
96.6176 960.00
96.9219 719.00
97.2261 494.00
97.5304 427.00
97.8347 512.00
98.1389 554.00
98.4432 487.00
98.7474 405.00
99.0517 443.00
99.356 604.00
99.6602 502.00
99.9645 418.00
100.095 416.00