File: data/xrd_creation/results/NSC_82.xy
9.903433 2762.00
10.2077 2617.00
10.512 2585.00
10.8162 2581.00
11.1205 2465.00
11.4247 2409.00
11.729 2359.00
12.0333 2254.00
12.3375 2257.00
12.6418 2094.00
12.946 2140.00
13.2503 2064.00
13.5546 2057.00
13.8588 2047.00
14.1631 2631.00
14.4673 2480.00
14.7716 1992.00
15.0759 1902.00
15.3801 1849.00
15.6844 1843.00
15.9886 1793.00
16.2929 1798.00
16.5972 1814.00
16.9014 1796.00
17.2057 1716.00
17.5099 1765.00
17.8142 1708.00
18.1185 1617.00
18.4227 1673.00
18.727 1673.00
19.0312 1720.00
19.3355 1782.00
19.6398 2802.00
19.944 3622.00
20.2483 2893.00
20.5525 4618.00
20.8568 2980.00
21.1611 1647.00
21.4653 1527.00
21.7696 1633.00
22.0738 1609.00
22.3781 1571.00
22.6824 1508.00
22.9866 1498.00
23.2909 1804.00
23.5951 3884.00
23.8994 6195.00
24.2037 3581.00
24.5079 1706.00
24.8122 1527.00
25.1164 1566.00
25.4207 1649.00
25.725 1419.00
26.0292 1404.00
26.3335 1441.00
26.6378 1350.00
26.942 1427.00
27.2463 1291.00
27.5505 1382.00
27.8548 1339.00
28.1591 1807.00
28.4633 2389.00
28.7676 2924.00
29.0718 2266.00
29.3761 1422.00
29.6804 1332.00
29.9846 1262.00
30.2889 1275.00
30.5931 1255.00
30.8974 1291.00
31.2017 1817.00
31.5059 3474.00
31.8102 4380.00
32.1144 3405.00
32.4187 1764.00
32.723 1308.00
33.0272 1223.00
33.3315 1196.00
33.6357 1201.00
33.94 1263.00
34.2443 1353.00
34.5485 1262.00
34.8528 1219.00
35.157 1370.00
35.4613 1681.00
35.7656 2224.00
36.0698 2219.00
36.3741 1850.00
36.6783 1238.00
36.9826 1087.00
37.2869 1099.00
37.5911 1102.00
37.8954 1090.00
38.1996 1071.00
38.5039 1017.00
38.8082 1019.00
39.1124 981.00
39.4167 916.00
39.7209 1049.00
40.0252 1092.00
40.3295 1183.00
40.6337 1138.00
40.938 1138.00
41.2422 1102.00
41.5465 1154.00
41.8508 1207.00
42.155 1251.00
42.4593 1203.00
42.7635 1115.00
43.0678 1112.00
43.3721 1155.00
43.6763 1285.00
43.9806 1278.00
44.2849 1145.00
44.5891 1043.00
44.8934 1072.00
45.1976 1187.00
45.5019 1543.00
45.8062 1494.00
46.1104 1482.00
46.4147 1346.00
46.7189 1298.00
47.0232 1216.00
47.3275 1168.00
47.6317 1103.00
47.936 1136.00
48.2402 1308.00
48.5445 1710.00
48.8488 1754.00
49.153 1814.00
49.4573 1402.00
49.7615 1123.00
50.0658 1020.00
50.3701 1085.00
50.6743 1092.00
50.9786 932.00
51.2828 1078.00
51.5871 1021.00
51.8914 1293.00
52.1956 1388.00
52.4999 1365.00
52.8041 1295.00
53.1084 1131.00
53.4127 1010.00
53.7169 999.00
54.0212 928.00
54.3254 950.00
54.6297 1002.00
54.934 1129.00
55.2382 1245.00
55.5425 1460.00
55.8467 1614.00
56.151 1691.00
56.4553 1560.00
56.7595 1539.00
57.0638 1297.00
57.368 1072.00
57.6723 1095.00
57.9766 1036.00
58.2808 991.00
58.5851 1022.00
58.8893 1042.00
59.1936 1030.00
59.4979 1071.00
59.8021 1065.00
60.1064 1089.00
60.4106 1106.00
60.7149 1076.00
61.0192 1116.00
61.3234 1157.00
61.6277 1288.00
61.932 1270.00
62.2362 1187.00
62.5405 1202.00
62.8447 1179.00
63.149 1109.00
63.4533 1088.00
63.7575 1097.00
64.0618 1209.00
64.366 1096.00
64.6703 1156.00
64.9745 1129.00
65.2788 1126.00
65.5831 1029.00
65.8873 993.00
66.1916 980.00
66.4959 969.00
66.8001 991.00
67.1044 971.00
67.4086 976.00
67.7129 964.00
68.0172 984.00
68.3214 1015.00
68.6257 950.00
68.9299 971.00
69.2342 866.00
69.5385 941.00
69.8427 814.00
70.147 867.00
70.4512 841.00
70.7555 815.00
71.0598 880.00
71.364 790.00
71.6683 865.00
71.9725 965.00
72.2768 920.00
72.5811 911.00
72.8853 909.00
73.1896 889.00
73.4938 800.00
73.7981 819.00
74.1024 802.00
74.4066 840.00
74.7109 874.00
75.0151 928.00
75.3194 921.00
75.6237 921.00
75.9279 1009.00
76.2322 1029.00
76.5364 969.00
76.8407 939.00
77.145 960.00
77.4492 958.00
77.7535 875.00
78.0577 829.00
78.362 811.00
78.6663 770.00
78.9705 873.00
79.2748 831.00
79.579 782.00
79.8833 782.00
80.1876 893.00
80.4918 840.00
80.7961 820.00
81.1003 873.00
81.4046 862.00
81.7089 763.00
82.0131 811.00
82.3174 854.00
82.6217 759.00
82.9259 803.00
83.2302 846.00
83.5344 807.00
83.8387 763.00
84.143 717.00
84.4472 831.00
84.7515 830.00
85.0557 848.00
85.36 836.00
85.6643 839.00
85.9685 874.00
86.2728 837.00
86.577 849.00
86.8813 874.00
87.1856 800.00
87.4898 887.00
87.7941 895.00
88.0983 818.00
88.4026 782.00
88.7069 795.00
89.0111 780.00
89.3154 820.00
89.6196 778.00
89.9239 745.00
90.2282 825.00
90.5324 834.00
90.8367 844.00
91.1409 858.00
91.4452 817.00
91.7495 828.00
92.0537 824.00
92.358 792.00
92.6622 781.00
92.9665 769.00
93.2708 831.00
93.575 765.00
93.8793 878.00
94.1835 814.00
94.4878 739.00
94.7921 833.00
95.0963 743.00
95.4006 784.00
95.7048 802.00
96.0091 782.00
96.3134 797.00
96.6176 817.00
96.9219 853.00
97.2261 861.00
97.5304 812.00
97.8347 859.00
98.1389 815.00
98.4432 815.00
98.7474 811.00
99.0517 781.00
99.356 782.00
99.6602 788.00
99.9645 756.00
100.095 741.00