File: data/xrd_creation/results/NSC_30.xy
9.903433 2972.00
10.2077 2958.00
10.512 2790.00
10.8162 2858.00
11.1205 2793.00
11.4247 2703.00
11.729 2573.00
12.0333 2608.00
12.3375 2740.00
12.6418 2465.00
12.946 2269.00
13.2503 2388.00
13.5546 2477.00
13.8588 2593.00
14.1631 4646.00
14.4673 2313.00
14.7716 2310.00
15.0759 2341.00
15.3801 2262.00
15.6844 2259.00
15.9886 2288.00
16.2929 2262.00
16.5972 2207.00
16.9014 2122.00
17.2057 2139.00
17.5099 2179.00
17.8142 2200.00
18.1185 2064.00
18.4227 2157.00
18.727 1994.00
19.0312 2134.00
19.3355 2659.00
19.6398 10172.00
19.944 2705.00
20.2483 7934.00
20.5525 3471.00
20.8568 2165.00
21.1611 2107.00
21.4653 2088.00
21.7696 2136.00
22.0738 2480.00
22.3781 2408.00
22.6824 2064.00
22.9866 2485.00
23.2909 3667.00
23.5951 11247.00
23.8994 2155.00
24.2037 2180.00
24.5079 2014.00
24.8122 2097.00
25.1164 1844.00
25.4207 1814.00
25.725 1687.00
26.0292 1739.00
26.3335 1742.00
26.6378 1733.00
26.942 1752.00
27.2463 1719.00
27.5505 1880.00
27.8548 1843.00
28.1591 3970.00
28.4633 8400.00
28.7676 1918.00
29.0718 1699.00
29.3761 1709.00
29.6804 1769.00
29.9846 1865.00
30.2889 1860.00
30.5931 1882.00
30.8974 2296.00
31.2017 9846.00
31.5059 4628.00
31.8102 3360.00
32.1144 1756.00
32.4187 1655.00
32.723 1599.00
33.0272 1616.00
33.3315 1606.00
33.6357 1751.00
33.94 1832.00
34.2443 2667.00
34.5485 2138.00
34.8528 2702.00
35.157 4136.00
35.4613 5138.00
35.7656 1927.00
36.0698 1671.00
36.3741 1579.00
36.6783 1484.00
36.9826 1560.00
37.2869 1458.00
37.5911 1430.00
37.8954 1430.00
38.1996 1485.00
38.5039 1360.00
38.8082 1575.00
39.1124 1375.00
39.4167 1513.00
39.7209 2132.00
40.0252 1413.00
40.3295 1451.00
40.6337 1499.00
40.938 1882.00
41.2422 2100.00
41.5465 2084.00
41.8508 1567.00
42.155 1631.00
42.4593 1476.00
42.7635 1977.00
43.0678 2248.00
43.3721 1513.00
43.6763 1527.00
43.9806 1467.00
44.2849 1429.00
44.5891 1796.00
44.8934 3342.00
45.1976 1825.00
45.5019 1719.00
45.8062 2414.00
46.1104 1953.00
46.4147 1794.00
46.7189 2099.00
47.0232 1749.00
47.3275 1528.00
47.6317 2643.00
47.936 4053.00
48.2402 1916.00
48.5445 1684.00
48.8488 1473.00
49.153 1454.00
49.4573 1853.00
49.7615 1504.00
50.0658 1426.00
50.3701 2193.00
50.6743 1752.00
50.9786 2226.00
51.2828 3561.00
51.5871 1918.00
51.8914 1509.00
52.1956 1400.00
52.4999 1321.00
52.8041 1409.00
53.1084 1356.00
53.4127 1472.00
53.7169 1475.00
54.0212 1969.00
54.3254 2153.00
54.6297 1846.00
54.934 2724.00
55.2382 3086.00
55.5425 2507.00
55.8467 1761.00
56.151 1594.00
56.4553 1550.00
56.7595 1516.00
57.0638 1372.00
57.368 1526.00
57.6723 1479.00
57.9766 1726.00
58.2808 2004.00
58.5851 1497.00
58.8893 1341.00
59.1936 1496.00
59.4979 1940.00
59.8021 2576.00
60.1064 1806.00
60.4106 1805.00
60.7149 2111.00
61.0192 2229.00
61.3234 1547.00
61.6277 1602.00
61.932 1707.00
62.2362 2199.00
62.5405 1715.00
62.8447 1705.00
63.149 2104.00
63.4533 1986.00
63.7575 1800.00
64.0618 1411.00
64.366 1337.00
64.6703 1413.00
64.9745 1584.00
65.2788 1428.00
65.5831 1527.00
65.8873 1815.00
66.1916 1892.00
66.4959 1402.00
66.8001 1459.00
67.1044 1703.00
67.4086 1600.00
67.7129 1593.00
68.0172 1363.00
68.3214 1363.00
68.6257 1472.00
68.9299 1413.00
69.2342 1312.00
69.5385 1274.00
69.8427 1297.00
70.147 1450.00
70.4512 1564.00
70.7555 1640.00
71.0598 1629.00
71.364 1343.00
71.6683 1252.00
71.9725 1342.00
72.2768 1353.00
72.5811 1206.00
72.8853 1376.00
73.1896 1378.00
73.4938 1540.00
73.7981 1551.00
74.1024 1489.00
74.4066 1459.00
74.7109 1686.00
75.0151 1654.00
75.3194 1673.00
75.6237 1364.00
75.9279 1246.00
76.2322 1258.00
76.5364 1322.00
76.8407 1313.00
77.145 1349.00
77.4492 1332.00
77.7535 1384.00
78.0577 1490.00
78.362 1612.00
78.6663 1503.00
78.9705 1444.00
79.2748 1262.00
79.579 1312.00
79.8833 1271.00
80.1876 1314.00
80.4918 1432.00
80.7961 1523.00
81.1003 1251.00
81.4046 1231.00
81.7089 1250.00
82.0131 1370.00
82.3174 1310.00
82.6217 1367.00
82.9259 1379.00
83.2302 1540.00
83.5344 1408.00
83.8387 1273.00
84.143 1376.00
84.4472 1531.00
84.7515 1393.00
85.0557 1436.00
85.36 1317.00
85.6643 1388.00
85.9685 1382.00
86.2728 1345.00
86.577 1375.00
86.8813 1295.00
87.1856 1245.00
87.4898 1329.00
87.7941 1360.00
88.0983 1346.00
88.4026 1377.00
88.7069 1580.00
89.0111 1547.00
89.3154 1524.00
89.6196 1443.00
89.9239 1386.00
90.2282 1328.00
90.5324 1307.00
90.8367 1264.00
91.1409 1346.00
91.4452 1409.00
91.7495 1283.00
92.0537 1232.00
92.358 1251.00
92.6622 1271.00
92.9665 1313.00
93.2708 1325.00
93.575 1424.00
93.8793 1364.00
94.1835 1382.00
94.4878 1283.00
94.7921 1525.00
95.0963 1375.00
95.4006 1433.00
95.7048 1415.00
96.0091 1353.00
96.3134 1298.00
96.6176 1347.00
96.9219 1254.00
97.2261 1238.00
97.5304 1221.00
97.8347 1234.00
98.1389 1254.00
98.4432 1326.00
98.7474 1350.00
99.0517 1361.00
99.356 1408.00
99.6602 1452.00
99.9645 1480.00
100.095 1472.00