File: data/xrd_creation/results/NSC_208.xy
9.903433 2955.00
10.2077 2977.00
10.512 2813.00
10.8162 2764.00
11.1205 2732.00
11.4247 2647.00
11.729 2602.00
12.0333 2454.00
12.3375 2447.00
12.6418 2455.00
12.946 2370.00
13.2503 2366.00
13.5546 2292.00
13.8588 2158.00
14.1631 2175.00
14.4673 2195.00
14.7716 2203.00
15.0759 2255.00
15.3801 2062.00
15.6844 2137.00
15.9886 2094.00
16.2929 2017.00
16.5972 2001.00
16.9014 2072.00
17.2057 2054.00
17.5099 2127.00
17.8142 2959.00
18.1185 2124.00
18.4227 1987.00
18.727 1977.00
19.0312 1987.00
19.3355 1967.00
19.6398 1936.00
19.944 1930.00
20.2483 2292.00
20.5525 2391.00
20.8568 2246.00
21.1611 2259.00
21.4653 1978.00
21.7696 1901.00
22.0738 1990.00
22.3781 1944.00
22.6824 1956.00
22.9866 2000.00
23.2909 1839.00
23.5951 1953.00
23.8994 2009.00
24.2037 2599.00
24.5079 4752.00
24.8122 3746.00
25.1164 2103.00
25.4207 1789.00
25.725 1711.00
26.0292 1720.00
26.3335 1752.00
26.6378 1936.00
26.942 1728.00
27.2463 1756.00
27.5505 1782.00
27.8548 2061.00
28.1591 2874.00
28.4633 13314.00
28.7676 9345.00
29.0718 2443.00
29.3761 2093.00
29.6804 1820.00
29.9846 1778.00
30.2889 1800.00
30.5931 1808.00
30.8974 1867.00
31.2017 2156.00
31.5059 3267.00
31.8102 11363.00
32.1144 5880.00
32.4187 2091.00
32.723 1808.00
33.0272 2026.00
33.3315 2031.00
33.6357 1977.00
33.94 1867.00
34.2443 2626.00
34.5485 5982.00
34.8528 5122.00
35.157 2166.00
35.4613 2447.00
35.7656 4470.00
36.0698 1952.00
36.3741 2407.00
36.6783 1507.00
36.9826 1469.00
37.2869 1421.00
37.5911 1369.00
37.8954 1321.00
38.1996 1471.00
38.5039 1395.00
38.8082 1952.00
39.1124 2539.00
39.4167 1504.00
39.7209 1435.00
40.0252 1331.00
40.3295 1550.00
40.6337 1485.00
40.938 2130.00
41.2422 3156.00
41.5465 2247.00
41.8508 2120.00
42.155 1373.00
42.4593 1323.00
42.7635 1307.00
43.0678 1243.00
43.3721 1304.00
43.6763 1195.00
43.9806 1270.00
44.2849 1270.00
44.5891 1241.00
44.8934 1406.00
45.1976 1708.00
45.5019 1721.00
45.8062 1784.00
46.1104 1911.00
46.4147 1244.00
46.7189 1208.00
47.0232 1161.00
47.3275 1281.00
47.6317 1269.00
47.936 1243.00
48.2402 1228.00
48.5445 1376.00
48.8488 1225.00
49.153 1498.00
49.4573 2431.00
49.7615 3341.00
50.0658 2080.00
50.3701 3115.00
50.6743 4508.00
50.9786 2819.00
51.2828 2332.00
51.5871 1780.00
51.8914 1679.00
52.1956 1245.00
52.4999 1271.00
52.8041 1454.00
53.1084 1263.00
53.4127 1179.00
53.7169 1144.00
54.0212 1320.00
54.3254 2033.00
54.6297 2319.00
54.934 1867.00
55.2382 1428.00
55.5425 2020.00
55.8467 3050.00
56.151 3413.00
56.4553 2294.00
56.7595 1636.00
57.0638 1235.00
57.368 1653.00
57.6723 1891.00
57.9766 1839.00
58.2808 1676.00
58.5851 2154.00
58.8893 1750.00
59.1936 1299.00
59.4979 1337.00
59.8021 1310.00
60.1064 1926.00
60.4106 2538.00
60.7149 2112.00
61.0192 1384.00
61.3234 1282.00
61.6277 1659.00
61.932 1945.00
62.2362 2097.00
62.5405 2166.00
62.8447 1755.00
63.149 1976.00
63.4533 2048.00
63.7575 1560.00
64.0618 1174.00
64.366 1301.00
64.6703 1364.00
64.9745 1516.00
65.2788 1168.00
65.5831 1407.00
65.8873 1707.00
66.1916 1889.00
66.4959 1915.00
66.8001 1221.00
67.1044 1069.00
67.4086 996.00
67.7129 1038.00
68.0172 975.00
68.3214 1031.00
68.6257 952.00
68.9299 970.00
69.2342 1160.00
69.5385 1251.00
69.8427 1235.00
70.147 1136.00
70.4512 1137.00
70.7555 1077.00
71.0598 982.00
71.364 1249.00
71.6683 1450.00
71.9725 1640.00
72.2768 1269.00
72.5811 1262.00
72.8853 1296.00
73.1896 1229.00
73.4938 1127.00
73.7981 1027.00
74.1024 954.00
74.4066 980.00
74.7109 1050.00
75.0151 1058.00
75.3194 1437.00
75.6237 1407.00
75.9279 1493.00
76.2322 1100.00
76.5364 1108.00
76.8407 1092.00
77.145 1211.00
77.4492 1136.00
77.7535 1146.00
78.0577 1224.00
78.362 1145.00
78.6663 1080.00
78.9705 1237.00
79.2748 1134.00
79.579 1260.00
79.8833 1139.00
80.1876 992.00
80.4918 1005.00
80.7961 1043.00
81.1003 1009.00
81.4046 1066.00
81.7089 1075.00
82.0131 1176.00
82.3174 1220.00
82.6217 1225.00
82.9259 1168.00
83.2302 1217.00
83.5344 1334.00
83.8387 1352.00
84.143 1363.00
84.4472 1361.00
84.7515 1362.00
85.0557 1280.00
85.36 1071.00
85.6643 1093.00
85.9685 1122.00
86.2728 1000.00
86.577 1080.00
86.8813 1122.00
87.1856 992.00
87.4898 1024.00
87.7941 1070.00
88.0983 1115.00
88.4026 1252.00
88.7069 1302.00
89.0111 1415.00
89.3154 1313.00
89.6196 1257.00
89.9239 1165.00
90.2282 1196.00
90.5324 1206.00
90.8367 1159.00
91.1409 1017.00
91.4452 1047.00
91.7495 940.00
92.0537 1055.00
92.358 1025.00
92.6622 926.00
92.9665 863.00
93.2708 929.00
93.575 939.00
93.8793 1039.00
94.1835 1030.00
94.4878 1064.00
94.7921 1096.00
95.0963 1004.00
95.4006 1104.00
95.7048 1193.00
96.0091 1265.00
96.3134 1164.00
96.6176 1240.00
96.9219 1291.00
97.2261 1319.00
97.5304 1441.00
97.8347 1376.00
98.1389 1240.00
98.4432 1071.00
98.7474 1180.00
99.0517 1254.00
99.356 1270.00
99.6602 1319.00
99.9645 1241.00
100.095 1254.00