File: data/xrd_creation/results/NSC_137.xy
9.903433 2611.00
10.2077 2666.00
10.512 2433.00
10.8162 2357.00
11.1205 2309.00
11.4247 2207.00
11.729 2213.00
12.0333 2043.00
12.3375 2087.00
12.6418 2147.00
12.946 1942.00
13.2503 1810.00
13.5546 1848.00
13.8588 1730.00
14.1631 1800.00
14.4673 1838.00
14.7716 1771.00
15.0759 1774.00
15.3801 1967.00
15.6844 4163.00
15.9886 9791.00
16.2929 1881.00
16.5972 1731.00
16.9014 1657.00
17.2057 1622.00
17.5099 1704.00
17.8142 1591.00
18.1185 1645.00
18.4227 1896.00
18.727 1554.00
19.0312 1553.00
19.3355 1452.00
19.6398 1500.00
19.944 1491.00
20.2483 1628.00
20.5525 2100.00
20.8568 7530.00
21.1611 2521.00
21.4653 2647.00
21.7696 17317.00
22.0738 2129.00
22.3781 1959.00
22.6824 1607.00
22.9866 2751.00
23.2909 9231.00
23.5951 1600.00
23.8994 1427.00
24.2037 1415.00
24.5079 1462.00
24.8122 1540.00
25.1164 1482.00
25.4207 1322.00
25.725 1297.00
26.0292 1337.00
26.3335 1433.00
26.6378 1412.00
26.942 7292.00
27.2463 2191.00
27.5505 4662.00
27.8548 1275.00
28.1591 1343.00
28.4633 1808.00
28.7676 1219.00
29.0718 1206.00
29.3761 1146.00
29.6804 1257.00
29.9846 1282.00
30.2889 1093.00
30.5931 1123.00
30.8974 1167.00
31.2017 1166.00
31.5059 2233.00
31.8102 1254.00
32.1144 1317.00
32.4187 4407.00
32.723 1682.00
33.0272 3678.00
33.3315 2824.00
33.6357 1424.00
33.94 1324.00
34.2443 5647.00
34.5485 1452.00
34.8528 4477.00
35.157 1235.00
35.4613 1247.00
35.7656 1333.00
36.0698 3332.00
36.3741 10516.00
36.6783 1465.00
36.9826 1189.00
37.2869 1116.00
37.5911 1174.00
37.8954 3180.00
38.1996 1010.00
38.5039 1171.00
38.8082 1079.00
39.1124 960.00
39.4167 964.00
39.7209 936.00
40.0252 991.00
40.3295 3311.00
40.6337 1132.00
40.938 990.00
41.2422 985.00
41.5465 1036.00
41.8508 1955.00
42.155 1241.00
42.4593 961.00
42.7635 926.00
43.0678 872.00
43.3721 975.00
43.6763 906.00
43.9806 1076.00
44.2849 1106.00
44.5891 1015.00
44.8934 2327.00
45.1976 958.00
45.5019 1360.00
45.8062 1789.00
46.1104 1892.00
46.4147 969.00
46.7189 949.00
47.0232 2185.00
47.3275 1278.00
47.6317 1020.00
47.936 1166.00
48.2402 1033.00
48.5445 1239.00
48.8488 1473.00
49.153 2729.00
49.4573 3909.00
49.7615 1226.00
50.0658 1062.00
50.3701 1056.00
50.6743 4118.00
50.9786 1709.00
51.2828 4518.00
51.5871 1272.00
51.8914 3194.00
52.1956 1215.00
52.4999 1092.00
52.8041 992.00
53.1084 1066.00
53.4127 1027.00
53.7169 2101.00
54.0212 2602.00
54.3254 1483.00
54.6297 1234.00
54.934 3181.00
55.2382 2263.00
55.5425 1124.00
55.8467 1121.00
56.151 979.00
56.4553 1504.00
56.7595 2383.00
57.0638 983.00
57.368 957.00
57.6723 907.00
57.9766 892.00
58.2808 1029.00
58.5851 1035.00
58.8893 1069.00
59.1936 2333.00
59.4979 1684.00
59.8021 1375.00
60.1064 1336.00
60.4106 1870.00
60.7149 1789.00
61.0192 2189.00
61.3234 2810.00
61.6277 2677.00
61.932 1523.00
62.2362 1719.00
62.5405 2591.00
62.8447 943.00
63.149 891.00
63.4533 871.00
63.7575 904.00
64.0618 1154.00
64.366 1041.00
64.6703 933.00
64.9745 957.00
65.2788 964.00
65.5831 889.00
65.8873 802.00
66.1916 884.00
66.4959 1152.00
66.8001 949.00
67.1044 1487.00
67.4086 1611.00
67.7129 1339.00
68.0172 946.00
68.3214 995.00
68.6257 883.00
68.9299 967.00
69.2342 1413.00
69.5385 1133.00
69.8427 997.00
70.147 1386.00
70.4512 996.00
70.7555 1911.00
71.0598 1528.00
71.364 996.00
71.6683 1464.00
71.9725 1715.00
72.2768 1172.00
72.5811 1061.00
72.8853 1142.00
73.1896 1420.00
73.4938 2017.00
73.7981 1698.00
74.1024 1656.00
74.4066 1036.00
74.7109 958.00
75.0151 914.00
75.3194 1059.00
75.6237 1516.00
75.9279 1032.00
76.2322 1228.00
76.5364 1009.00
76.8407 1740.00
77.145 1072.00
77.4492 823.00
77.7535 897.00
78.0577 900.00
78.362 917.00
78.6663 962.00
78.9705 1049.00
79.2748 953.00
79.579 862.00
79.8833 947.00
80.1876 1549.00
80.4918 1189.00
80.7961 947.00
81.1003 915.00
81.4046 873.00
81.7089 967.00
82.0131 1996.00
82.3174 2157.00
82.6217 1370.00
82.9259 1606.00
83.2302 1343.00
83.5344 948.00
83.8387 853.00
84.143 896.00
84.4472 914.00
84.7515 1220.00
85.0557 1278.00
85.36 1018.00
85.6643 815.00
85.9685 907.00
86.2728 1169.00
86.577 1434.00
86.8813 1133.00
87.1856 1153.00
87.4898 1125.00
87.7941 896.00
88.0983 997.00
88.4026 1005.00
88.7069 1081.00
89.0111 939.00
89.3154 911.00
89.6196 939.00
89.9239 1189.00
90.2282 1341.00
90.5324 1573.00
90.8367 1298.00
91.1409 1156.00
91.4452 1242.00
91.7495 1130.00
92.0537 990.00
92.358 1017.00
92.6622 1067.00
92.9665 1125.00
93.2708 1112.00
93.575 1191.00
93.8793 1021.00
94.1835 928.00
94.4878 888.00
94.7921 927.00
95.0963 928.00
95.4006 1131.00
95.7048 1036.00
96.0091 1073.00
96.3134 1004.00
96.6176 871.00
96.9219 864.00
97.2261 964.00
97.5304 1192.00
97.8347 1198.00
98.1389 990.00
98.4432 1144.00
98.7474 1012.00
99.0517 986.00
99.356 991.00
99.6602 1452.00
99.9645 1551.00
100.095 1372.00