File: data/xrd_creation/results/NSC_97.xy
9.903433 2669.00
10.2077 2622.00
10.512 2519.00
10.8162 2438.00
11.1205 2171.00
11.4247 2211.00
11.729 2149.00
12.0333 2044.00
12.3375 1943.00
12.6418 1891.00
12.946 1862.00
13.2503 1765.00
13.5546 1709.00
13.8588 1645.00
14.1631 1843.00
14.4673 1551.00
14.7716 1535.00
15.0759 1459.00
15.3801 1502.00
15.6844 1397.00
15.9886 1349.00
16.2929 1307.00
16.5972 1291.00
16.9014 1253.00
17.2057 1193.00
17.5099 1219.00
17.8142 1213.00
18.1185 1183.00
18.4227 1162.00
18.727 1115.00
19.0312 1105.00
19.3355 1132.00
19.6398 1477.00
19.944 1150.00
20.2483 1140.00
20.5525 1279.00
20.8568 1245.00
21.1611 1010.00
21.4653 928.00
21.7696 909.00
22.0738 916.00
22.3781 883.00
22.6824 909.00
22.9866 921.00
23.2909 820.00
23.5951 886.00
23.8994 1683.00
24.2037 839.00
24.5079 814.00
24.8122 800.00
25.1164 802.00
25.4207 818.00
25.725 889.00
26.0292 739.00
26.3335 1488.00
26.6378 1400.00
26.942 769.00
27.2463 722.00
27.5505 772.00
27.8548 786.00
28.1591 731.00
28.4633 691.00
28.7676 1150.00
29.0718 736.00
29.3761 594.00
29.6804 659.00
29.9846 678.00
30.2889 562.00
30.5931 602.00
30.8974 600.00
31.2017 661.00
31.5059 706.00
31.8102 1164.00
32.1144 657.00
32.4187 576.00
32.723 635.00
33.0272 566.00
33.3315 598.00
33.6357 1187.00
33.94 1157.00
34.2443 580.00
34.5485 499.00
34.8528 530.00
35.157 521.00
35.4613 485.00
35.7656 706.00
36.0698 552.00
36.3741 822.00
36.6783 478.00
36.9826 483.00
37.2869 475.00
37.5911 460.00
37.8954 1049.00
38.1996 423.00
38.5039 446.00
38.8082 535.00
39.1124 413.00
39.4167 395.00
39.7209 401.00
40.0252 403.00
40.3295 450.00
40.6337 437.00
40.938 375.00
41.2422 380.00
41.5465 386.00
41.8508 422.00
42.155 415.00
42.4593 419.00
42.7635 416.00
43.0678 352.00
43.3721 365.00
43.6763 370.00
43.9806 501.00
44.2849 333.00
44.5891 345.00
44.8934 350.00
45.1976 376.00
45.5019 324.00
45.8062 440.00
46.1104 389.00
46.4147 338.00
46.7189 327.00
47.0232 380.00
47.3275 454.00
47.6317 362.00
47.936 300.00
48.2402 321.00
48.5445 340.00
48.8488 319.00
49.153 551.00
49.4573 366.00
49.7615 322.00
50.0658 331.00
50.3701 315.00
50.6743 293.00
50.9786 325.00
51.2828 385.00
51.5871 1111.00
51.8914 923.00
52.1956 627.00
52.4999 326.00
52.8041 319.00
53.1084 347.00
53.4127 267.00
53.7169 269.00
54.0212 284.00
54.3254 306.00
54.6297 661.00
54.934 362.00
55.2382 292.00
55.5425 311.00
55.8467 278.00
56.151 278.00
56.4553 268.00
56.7595 380.00
57.0638 478.00
57.368 322.00
57.6723 425.00
57.9766 358.00
58.2808 271.00
58.5851 237.00
58.8893 299.00
59.1936 248.00
59.4979 248.00
59.8021 284.00
60.1064 267.00
60.4106 269.00
60.7149 260.00
61.0192 278.00
61.3234 335.00
61.6277 328.00
61.932 482.00
62.2362 308.00
62.5405 333.00
62.8447 326.00
63.149 337.00
63.4533 276.00
63.7575 238.00
64.0618 271.00
64.366 277.00
64.6703 617.00
64.9745 297.00
65.2788 348.00
65.5831 350.00
65.8873 706.00
66.1916 352.00
66.4959 229.00
66.8001 273.00
67.1044 267.00
67.4086 279.00
67.7129 220.00
68.0172 238.00
68.3214 222.00
68.6257 230.00
68.9299 238.00
69.2342 299.00
69.5385 284.00
69.8427 222.00
70.147 215.00
70.4512 226.00
70.7555 259.00
71.0598 265.00
71.364 335.00
71.6683 230.00
71.9725 223.00
72.2768 230.00
72.5811 196.00
72.8853 192.00
73.1896 259.00
73.4938 230.00
73.7981 235.00
74.1024 210.00
74.4066 183.00
74.7109 227.00
75.0151 240.00
75.3194 238.00
75.6237 215.00
75.9279 231.00
76.2322 229.00
76.5364 256.00
76.8407 228.00
77.145 206.00
77.4492 288.00
77.7535 267.00
78.0577 225.00
78.362 262.00
78.6663 475.00
78.9705 310.00
79.2748 225.00
79.579 270.00
79.8833 241.00
80.1876 241.00
80.4918 235.00
80.7961 245.00
81.1003 365.00
81.4046 278.00
81.7089 232.00
82.0131 232.00
82.3174 243.00
82.6217 264.00
82.9259 251.00
83.2302 247.00
83.5344 353.00
83.8387 274.00
84.143 265.00
84.4472 231.00
84.7515 230.00
85.0557 207.00
85.36 221.00
85.6643 243.00
85.9685 240.00
86.2728 247.00
86.577 205.00
86.8813 233.00
87.1856 332.00
87.4898 306.00
87.7941 220.00
88.0983 223.00
88.4026 219.00
88.7069 218.00
89.0111 214.00
89.3154 231.00
89.6196 326.00
89.9239 323.00
90.2282 238.00
90.5324 228.00
90.8367 408.00
91.1409 327.00
91.4452 204.00
91.7495 209.00
92.0537 215.00
92.358 245.00
92.6622 213.00
92.9665 203.00
93.2708 306.00
93.575 281.00
93.8793 199.00
94.1835 200.00
94.4878 205.00
94.7921 203.00
95.0963 212.00
95.4006 211.00
95.7048 234.00
96.0091 232.00
96.3134 272.00
96.6176 178.00
96.9219 188.00
97.2261 170.00
97.5304 185.00
97.8347 220.00
98.1389 226.00
98.4432 204.00
98.7474 187.00
99.0517 182.00
99.356 209.00
99.6602 198.00
99.9645 196.00
100.095 223.00