File: data/xrd_creation/results/NSC_31.xy
9.903433 3028.00
10.2077 2934.00
10.512 2937.00
10.8162 2705.00
11.1205 2637.00
11.4247 2542.00
11.729 2600.00
12.0333 2418.00
12.3375 2398.00
12.6418 2405.00
12.946 2323.00
13.2503 2374.00
13.5546 2346.00
13.8588 2237.00
14.1631 2251.00
14.4673 2453.00
14.7716 3045.00
15.0759 2325.00
15.3801 2165.00
15.6844 2162.00
15.9886 2096.00
16.2929 2109.00
16.5972 2125.00
16.9014 2000.00
17.2057 2113.00
17.5099 2151.00
17.8142 1941.00
18.1185 1997.00
18.4227 1843.00
18.727 1875.00
19.0312 1921.00
19.3355 2576.00
19.6398 2029.00
19.944 2031.00
20.2483 2131.00
20.5525 2097.00
20.8568 3173.00
21.1611 4274.00
21.4653 3170.00
21.7696 1915.00
22.0738 2469.00
22.3781 4979.00
22.6824 1982.00
22.9866 1654.00
23.2909 1752.00
23.5951 1731.00
23.8994 2029.00
24.2037 2101.00
24.5079 2025.00
24.8122 1657.00
25.1164 1622.00
25.4207 1697.00
25.725 2183.00
26.0292 1665.00
26.3335 1574.00
26.6378 1582.00
26.942 1608.00
27.2463 1703.00
27.5505 1688.00
27.8548 2089.00
28.1591 5110.00
28.4633 2561.00
28.7676 1635.00
29.0718 1723.00
29.3761 1582.00
29.6804 1522.00
29.9846 1494.00
30.2889 1776.00
30.5931 4347.00
30.8974 3073.00
31.2017 2110.00
31.5059 3742.00
31.8102 1887.00
32.1144 2422.00
32.4187 1623.00
32.723 2138.00
33.0272 3666.00
33.3315 2739.00
33.6357 2623.00
33.94 3006.00
34.2443 2885.00
34.5485 1962.00
34.8528 1511.00
35.157 1855.00
35.4613 1724.00
35.7656 1607.00
36.0698 1506.00
36.3741 1416.00
36.6783 1546.00
36.9826 1428.00
37.2869 1310.00
37.5911 1264.00
37.8954 1249.00
38.1996 1229.00
38.5039 1450.00
38.8082 1377.00
39.1124 1278.00
39.4167 1389.00
39.7209 1667.00
40.0252 1299.00
40.3295 1388.00
40.6337 1650.00
40.938 2325.00
41.2422 1837.00
41.5465 1707.00
41.8508 1287.00
42.155 1231.00
42.4593 1208.00
42.7635 1389.00
43.0678 1437.00
43.3721 1781.00
43.6763 1278.00
43.9806 1219.00
44.2849 1309.00
44.5891 1387.00
44.8934 1593.00
45.1976 1585.00
45.5019 1923.00
45.8062 1769.00
46.1104 1448.00
46.4147 1506.00
46.7189 1474.00
47.0232 1848.00
47.3275 1568.00
47.6317 1301.00
47.936 1360.00
48.2402 1474.00
48.5445 1191.00
48.8488 1176.00
49.153 1691.00
49.4573 1574.00
49.7615 1175.00
50.0658 1581.00
50.3701 1730.00
50.6743 1572.00
50.9786 1315.00
51.2828 1490.00
51.5871 1294.00
51.8914 1436.00
52.1956 1583.00
52.4999 1369.00
52.8041 1353.00
53.1084 1389.00
53.4127 1501.00
53.7169 1748.00
54.0212 1773.00
54.3254 1398.00
54.6297 1343.00
54.934 1326.00
55.2382 1623.00
55.5425 1530.00
55.8467 1447.00
56.151 1398.00
56.4553 1280.00
56.7595 1145.00
57.0638 1519.00
57.368 1895.00
57.6723 1612.00
57.9766 1495.00
58.2808 1580.00
58.5851 1222.00
58.8893 1251.00
59.1936 1332.00
59.4979 1342.00
59.8021 1800.00
60.1064 1984.00
60.4106 1739.00
60.7149 1402.00
61.0192 1314.00
61.3234 1490.00
61.6277 1226.00
61.932 1296.00
62.2362 1306.00
62.5405 1232.00
62.8447 1472.00
63.149 1180.00
63.4533 1042.00
63.7575 1061.00
64.0618 1163.00
64.366 1246.00
64.6703 1230.00
64.9745 1171.00
65.2788 1206.00
65.5831 1417.00
65.8873 1316.00
66.1916 1183.00
66.4959 1086.00
66.8001 1067.00
67.1044 1078.00
67.4086 974.00
67.7129 1113.00
68.0172 1016.00
68.3214 949.00
68.6257 976.00
68.9299 1051.00
69.2342 1048.00
69.5385 995.00
69.8427 993.00
70.147 1112.00
70.4512 1096.00
70.7555 1141.00
71.0598 1156.00
71.364 1205.00
71.6683 1174.00
71.9725 1170.00
72.2768 1189.00
72.5811 1092.00
72.8853 919.00
73.1896 943.00
73.4938 1024.00
73.7981 1073.00
74.1024 1042.00
74.4066 1122.00
74.7109 1106.00
75.0151 1048.00
75.3194 1061.00
75.6237 1019.00
75.9279 1079.00
76.2322 1088.00
76.5364 1041.00
76.8407 1015.00
77.145 925.00
77.4492 948.00
77.7535 1059.00
78.0577 992.00
78.362 938.00
78.6663 985.00
78.9705 938.00
79.2748 980.00
79.579 991.00
79.8833 1032.00
80.1876 976.00
80.4918 948.00
80.7961 878.00
81.1003 883.00
81.4046 903.00
81.7089 1006.00
82.0131 1028.00
82.3174 1026.00
82.6217 1069.00
82.9259 1069.00
83.2302 1128.00
83.5344 1030.00
83.8387 1075.00
84.143 1053.00
84.4472 969.00
84.7515 975.00
85.0557 947.00
85.36 851.00
85.6643 896.00
85.9685 925.00
86.2728 935.00
86.577 949.00
86.8813 891.00
87.1856 899.00
87.4898 1005.00
87.7941 1005.00
88.0983 1051.00
88.4026 1036.00
88.7069 1030.00
89.0111 1006.00
89.3154 1093.00
89.6196 1094.00
89.9239 1074.00
90.2282 988.00
90.5324 971.00
90.8367 983.00
91.1409 1065.00
91.4452 1024.00
91.7495 1013.00
92.0537 874.00
92.358 865.00
92.6622 889.00
92.9665 924.00
93.2708 888.00
93.575 883.00
93.8793 966.00
94.1835 969.00
94.4878 883.00
94.7921 953.00
95.0963 1060.00
95.4006 940.00
95.7048 976.00
96.0091 974.00
96.3134 972.00
96.6176 1083.00
96.9219 1036.00
97.2261 951.00
97.5304 996.00
97.8347 980.00
98.1389 948.00
98.4432 888.00
98.7474 949.00
99.0517 1060.00
99.356 961.00
99.6602 994.00
99.9645 915.00
100.095 922.00