File: data/xrd_creation/results/NSC_211.xy
9.903433 3029.00
10.2077 2854.00
10.512 2713.00
10.8162 2717.00
11.1205 2593.00
11.4247 2641.00
11.729 2562.00
12.0333 2482.00
12.3375 2447.00
12.6418 2384.00
12.946 2402.00
13.2503 2309.00
13.5546 2252.00
13.8588 2216.00
14.1631 2245.00
14.4673 2193.00
14.7716 2164.00
15.0759 2073.00
15.3801 2152.00
15.6844 2088.00
15.9886 2003.00
16.2929 2171.00
16.5972 1963.00
16.9014 1899.00
17.2057 1976.00
17.5099 2020.00
17.8142 2772.00
18.1185 2026.00
18.4227 1903.00
18.727 1873.00
19.0312 1952.00
19.3355 2006.00
19.6398 1830.00
19.944 1955.00
20.2483 2908.00
20.5525 2572.00
20.8568 1952.00
21.1611 2075.00
21.4653 1822.00
21.7696 2303.00
22.0738 1831.00
22.3781 1869.00
22.6824 1796.00
22.9866 1769.00
23.2909 1688.00
23.5951 1788.00
23.8994 1736.00
24.2037 2198.00
24.5079 4174.00
24.8122 3341.00
25.1164 1874.00
25.4207 1849.00
25.725 2069.00
26.0292 1619.00
26.3335 1553.00
26.6378 2029.00
26.942 1676.00
27.2463 1575.00
27.5505 1669.00
27.8548 1856.00
28.1591 2425.00
28.4633 9903.00
28.7676 8182.00
29.0718 2267.00
29.3761 1718.00
29.6804 1598.00
29.9846 1614.00
30.2889 1688.00
30.5931 1876.00
30.8974 7046.00
31.2017 2028.00
31.5059 2726.00
31.8102 8619.00
32.1144 5226.00
32.4187 1950.00
32.723 1728.00
33.0272 2776.00
33.3315 2500.00
33.6357 2187.00
33.94 1635.00
34.2443 2179.00
34.5485 4909.00
34.8528 4567.00
35.157 1979.00
35.4613 2141.00
35.7656 5919.00
36.0698 1875.00
36.3741 2143.00
36.6783 1395.00
36.9826 1312.00
37.2869 1314.00
37.5911 1222.00
37.8954 1300.00
38.1996 1406.00
38.5039 1265.00
38.8082 1994.00
39.1124 2282.00
39.4167 1292.00
39.7209 1194.00
40.0252 1233.00
40.3295 1263.00
40.6337 1271.00
40.938 1696.00
41.2422 2802.00
41.5465 1907.00
41.8508 1841.00
42.155 1411.00
42.4593 1121.00
42.7635 1097.00
43.0678 1164.00
43.3721 1185.00
43.6763 1142.00
43.9806 1274.00
44.2849 1153.00
44.5891 1128.00
44.8934 1121.00
45.1976 1594.00
45.5019 1528.00
45.8062 1583.00
46.1104 1962.00
46.4147 1074.00
46.7189 1001.00
47.0232 1076.00
47.3275 1189.00
47.6317 1294.00
47.936 1084.00
48.2402 1298.00
48.5445 1155.00
48.8488 1063.00
49.153 1312.00
49.4573 1966.00
49.7615 3129.00
50.0658 1789.00
50.3701 2224.00
50.6743 4040.00
50.9786 2449.00
51.2828 3754.00
51.5871 1510.00
51.8914 1542.00
52.1956 1123.00
52.4999 1052.00
52.8041 1136.00
53.1084 1191.00
53.4127 1014.00
53.7169 1019.00
54.0212 1259.00
54.3254 1718.00
54.6297 2225.00
54.934 1654.00
55.2382 1401.00
55.5425 1695.00
55.8467 2612.00
56.151 2971.00
56.4553 2048.00
56.7595 1513.00
57.0638 1195.00
57.368 1332.00
57.6723 1620.00
57.9766 1694.00
58.2808 1348.00
58.5851 1858.00
58.8893 1596.00
59.1936 1269.00
59.4979 1318.00
59.8021 1291.00
60.1064 1528.00
60.4106 2319.00
60.7149 2110.00
61.0192 1741.00
61.3234 1164.00
61.6277 1349.00
61.932 1743.00
62.2362 1826.00
62.5405 2189.00
62.8447 1551.00
63.149 1625.00
63.4533 1881.00
63.7575 1446.00
64.0618 1179.00
64.366 1070.00
64.6703 1237.00
64.9745 1332.00
65.2788 1151.00
65.5831 1298.00
65.8873 1443.00
66.1916 1637.00
66.4959 1659.00
66.8001 1126.00
67.1044 888.00
67.4086 885.00
67.7129 851.00
68.0172 902.00
68.3214 929.00
68.6257 834.00
68.9299 951.00
69.2342 926.00
69.5385 1038.00
69.8427 1165.00
70.147 988.00
70.4512 1058.00
70.7555 954.00
71.0598 918.00
71.364 991.00
71.6683 1272.00
71.9725 1458.00
72.2768 1031.00
72.5811 1031.00
72.8853 1131.00
73.1896 1032.00
73.4938 1041.00
73.7981 946.00
74.1024 899.00
74.4066 877.00
74.7109 851.00
75.0151 958.00
75.3194 1362.00
75.6237 1223.00
75.9279 1333.00
76.2322 1016.00
76.5364 980.00
76.8407 1058.00
77.145 1003.00
77.4492 1025.00
77.7535 1002.00
78.0577 1093.00
78.362 1095.00
78.6663 1002.00
78.9705 1029.00
79.2748 1011.00
79.579 1208.00
79.8833 985.00
80.1876 910.00
80.4918 765.00
80.7961 836.00
81.1003 849.00
81.4046 897.00
81.7089 872.00
82.0131 1079.00
82.3174 1194.00
82.6217 1074.00
82.9259 1050.00
83.2302 1249.00
83.5344 1217.00
83.8387 1221.00
84.143 1239.00
84.4472 1124.00
84.7515 1188.00
85.0557 1249.00
85.36 1016.00
85.6643 1016.00
85.9685 1023.00
86.2728 935.00
86.577 895.00
86.8813 980.00
87.1856 915.00
87.4898 905.00
87.7941 917.00
88.0983 986.00
88.4026 1121.00
88.7069 1139.00
89.0111 1217.00
89.3154 1117.00
89.6196 1076.00
89.9239 1095.00
90.2282 1115.00
90.5324 1038.00
90.8367 1013.00
91.1409 844.00
91.4452 914.00
91.7495 771.00
92.0537 877.00
92.358 939.00
92.6622 969.00
92.9665 857.00
93.2708 815.00
93.575 824.00
93.8793 847.00
94.1835 932.00
94.4878 889.00
94.7921 950.00
95.0963 954.00
95.4006 1002.00
95.7048 1022.00
96.0091 1096.00
96.3134 1031.00
96.6176 1035.00
96.9219 1171.00
97.2261 1179.00
97.5304 1221.00
97.8347 1280.00
98.1389 1055.00
98.4432 990.00
98.7474 979.00
99.0517 1164.00
99.356 1050.00
99.6602 1197.00
99.9645 1117.00
100.095 1128.00