File: data/xrd_creation/results/NSC_146.xy
9.903433 2557.00
10.2077 2549.00
10.512 2501.00
10.8162 2502.00
11.1205 2279.00
11.4247 2447.00
11.729 2165.00
12.0333 2193.00
12.3375 2250.00
12.6418 2195.00
12.946 3258.00
13.2503 2001.00
13.5546 2610.00
13.8588 2473.00
14.1631 1733.00
14.4673 1729.00
14.7716 1649.00
15.0759 1576.00
15.3801 1622.00
15.6844 1831.00
15.9886 1572.00
16.2929 1660.00
16.5972 2814.00
16.9014 1637.00
17.2057 1559.00
17.5099 1438.00
17.8142 1437.00
18.1185 1492.00
18.4227 1676.00
18.727 1358.00
19.0312 1330.00
19.3355 1329.00
19.6398 1499.00
19.944 3677.00
20.2483 1847.00
20.5525 2824.00
20.8568 8252.00
21.1611 9870.00
21.4653 8188.00
21.7696 2645.00
22.0738 1392.00
22.3781 1233.00
22.6824 1279.00
22.9866 1410.00
23.2909 1294.00
23.5951 1267.00
23.8994 3132.00
24.2037 1708.00
24.5079 1970.00
24.8122 2559.00
25.1164 1492.00
25.4207 1146.00
25.725 1523.00
26.0292 1034.00
26.3335 1347.00
26.6378 1558.00
26.942 1155.00
27.2463 1368.00
27.5505 987.00
27.8548 1073.00
28.1591 1231.00
28.4633 1116.00
28.7676 918.00
29.0718 856.00
29.3761 1309.00
29.6804 1591.00
29.9846 1074.00
30.2889 1420.00
30.5931 1498.00
30.8974 976.00
31.2017 962.00
31.5059 1015.00
31.8102 1927.00
32.1144 3432.00
32.4187 2748.00
32.723 1629.00
33.0272 1374.00
33.3315 1220.00
33.6357 1381.00
33.94 1564.00
34.2443 12789.00
34.5485 12922.00
34.8528 9915.00
35.157 7300.00
35.4613 1316.00
35.7656 1264.00
36.0698 1940.00
36.3741 2364.00
36.6783 3027.00
36.9826 1417.00
37.2869 1116.00
37.5911 1241.00
37.8954 1056.00
38.1996 927.00
38.5039 872.00
38.8082 951.00
39.1124 892.00
39.4167 1010.00
39.7209 1062.00
40.0252 885.00
40.3295 796.00
40.6337 1234.00
40.938 958.00
41.2422 1053.00
41.5465 1298.00
41.8508 828.00
42.155 879.00
42.4593 1659.00
42.7635 1516.00
43.0678 1308.00
43.3721 937.00
43.6763 876.00
43.9806 960.00
44.2849 860.00
44.5891 1146.00
44.8934 725.00
45.1976 891.00
45.5019 923.00
45.8062 907.00
46.1104 850.00
46.4147 884.00
46.7189 1017.00
47.0232 758.00
47.3275 1042.00
47.6317 1300.00
47.936 1756.00
48.2402 795.00
48.5445 979.00
48.8488 805.00
49.153 1191.00
49.4573 3313.00
49.7615 3768.00
50.0658 1184.00
50.3701 783.00
50.6743 1255.00
50.9786 934.00
51.2828 899.00
51.5871 847.00
51.8914 753.00
52.1956 750.00
52.4999 846.00
52.8041 1120.00
53.1084 693.00
53.4127 1165.00
53.7169 983.00
54.0212 1025.00
54.3254 1096.00
54.6297 879.00
54.934 850.00
55.2382 1202.00
55.5425 1256.00
55.8467 1283.00
56.151 1151.00
56.4553 890.00
56.7595 1529.00
57.0638 1388.00
57.368 758.00
57.6723 640.00
57.9766 655.00
58.2808 821.00
58.5851 840.00
58.8893 658.00
59.1936 750.00
59.4979 740.00
59.8021 928.00
60.1064 823.00
60.4106 942.00
60.7149 857.00
61.0192 1748.00
61.3234 4264.00
61.6277 3322.00
61.932 1870.00
62.2362 1668.00
62.5405 1743.00
62.8447 1676.00
63.149 1920.00
63.4533 929.00
63.7575 936.00
64.0618 935.00
64.366 947.00
64.6703 811.00
64.9745 848.00
65.2788 976.00
65.5831 985.00
65.8873 927.00
66.1916 867.00
66.4959 953.00
66.8001 861.00
67.1044 689.00
67.4086 689.00
67.7129 718.00
68.0172 895.00
68.3214 1284.00
68.6257 718.00
68.9299 609.00
69.2342 718.00
69.5385 803.00
69.8427 607.00
70.147 634.00
70.4512 591.00
70.7555 657.00
71.0598 838.00
71.364 622.00
71.6683 717.00
71.9725 937.00
72.2768 810.00
72.5811 757.00
72.8853 930.00
73.1896 787.00
73.4938 675.00
73.7981 737.00
74.1024 649.00
74.4066 567.00
74.7109 614.00
75.0151 577.00
75.3194 502.00
75.6237 567.00
75.9279 633.00
76.2322 557.00
76.5364 704.00
76.8407 659.00
77.145 612.00
77.4492 590.00
77.7535 537.00
78.0577 554.00
78.362 508.00
78.6663 592.00
78.9705 598.00
79.2748 590.00
79.579 567.00
79.8833 580.00
80.1876 520.00
80.4918 555.00
80.7961 609.00
81.1003 493.00
81.4046 536.00
81.7089 578.00
82.0131 939.00
82.3174 1033.00
82.6217 1037.00
82.9259 995.00
83.2302 794.00
83.5344 719.00
83.8387 641.00
84.143 584.00
84.4472 456.00
84.7515 534.00
85.0557 512.00
85.36 500.00
85.6643 558.00
85.9685 584.00
86.2728 553.00
86.577 583.00
86.8813 548.00
87.1856 490.00
87.4898 544.00
87.7941 540.00
88.0983 570.00
88.4026 581.00
88.7069 563.00
89.0111 543.00
89.3154 511.00
89.6196 545.00
89.9239 649.00
90.2282 596.00
90.5324 489.00
90.8367 477.00
91.1409 553.00
91.4452 518.00
91.7495 582.00
92.0537 654.00
92.358 607.00
92.6622 557.00
92.9665 622.00
93.2708 594.00
93.575 504.00
93.8793 472.00
94.1835 517.00
94.4878 573.00
94.7921 538.00
95.0963 545.00
95.4006 658.00
95.7048 624.00
96.0091 470.00
96.3134 534.00
96.6176 524.00
96.9219 525.00
97.2261 546.00
97.5304 581.00
97.8347 524.00
98.1389 574.00
98.4432 567.00
98.7474 628.00
99.0517 583.00
99.356 545.00
99.6602 543.00
99.9645 477.00
100.095 552.00