File: data/xrd_creation/results/NSC_85.xy
9.903433 2861.00
10.2077 2756.00
10.512 2623.00
10.8162 2611.00
11.1205 2464.00
11.4247 2396.00
11.729 2279.00
12.0333 2222.00
12.3375 2256.00
12.6418 2209.00
12.946 2093.00
13.2503 1964.00
13.5546 2043.00
13.8588 1998.00
14.1631 2287.00
14.4673 3312.00
14.7716 1857.00
15.0759 1922.00
15.3801 1869.00
15.6844 1824.00
15.9886 1784.00
16.2929 1813.00
16.5972 1752.00
16.9014 1720.00
17.2057 1666.00
17.5099 1729.00
17.8142 1751.00
18.1185 1566.00
18.4227 1642.00
18.727 1720.00
19.0312 1629.00
19.3355 1690.00
19.6398 2071.00
19.944 4035.00
20.2483 2815.00
20.5525 3868.00
20.8568 2591.00
21.1611 1542.00
21.4653 1518.00
21.7696 1468.00
22.0738 1482.00
22.3781 1373.00
22.6824 1377.00
22.9866 1418.00
23.2909 1737.00
23.5951 2590.00
23.8994 6801.00
24.2037 1931.00
24.5079 1801.00
24.8122 1425.00
25.1164 1336.00
25.4207 1309.00
25.725 1292.00
26.0292 1313.00
26.3335 1260.00
26.6378 1397.00
26.942 1791.00
27.2463 1355.00
27.5505 1324.00
27.8548 1264.00
28.1591 1266.00
28.4633 1679.00
28.7676 3941.00
29.0718 1628.00
29.3761 1135.00
29.6804 1171.00
29.9846 1192.00
30.2889 1113.00
30.5931 1096.00
30.8974 1192.00
31.2017 1351.00
31.5059 2255.00
31.8102 6391.00
32.1144 3391.00
32.4187 1305.00
32.723 1139.00
33.0272 1102.00
33.3315 1053.00
33.6357 1059.00
33.94 1146.00
34.2443 1364.00
34.5485 1356.00
34.8528 1191.00
35.157 1152.00
35.4613 1934.00
35.7656 3016.00
36.0698 2593.00
36.3741 1220.00
36.6783 1016.00
36.9826 982.00
37.2869 998.00
37.5911 984.00
37.8954 978.00
38.1996 1085.00
38.5039 981.00
38.8082 950.00
39.1124 958.00
39.4167 897.00
39.7209 974.00
40.0252 916.00
40.3295 1120.00
40.6337 1123.00
40.938 899.00
41.2422 918.00
41.5465 923.00
41.8508 1084.00
42.155 1109.00
42.4593 1176.00
42.7635 1083.00
43.0678 1101.00
43.3721 1354.00
43.6763 1393.00
43.9806 1077.00
44.2849 927.00
44.5891 856.00
44.8934 809.00
45.1976 932.00
45.5019 1173.00
45.8062 1843.00
46.1104 1173.00
46.4147 1202.00
46.7189 1326.00
47.0232 933.00
47.3275 1073.00
47.6317 1203.00
47.936 1019.00
48.2402 1312.00
48.5445 2164.00
48.8488 2148.00
49.153 1160.00
49.4573 1070.00
49.7615 916.00
50.0658 870.00
50.3701 872.00
50.6743 823.00
50.9786 838.00
51.2828 838.00
51.5871 874.00
51.8914 1068.00
52.1956 2052.00
52.4999 1999.00
52.8041 1182.00
53.1084 816.00
53.4127 792.00
53.7169 778.00
54.0212 855.00
54.3254 779.00
54.6297 878.00
54.934 1129.00
55.2382 1215.00
55.5425 1480.00
55.8467 1445.00
56.151 1719.00
56.4553 1371.00
56.7595 926.00
57.0638 943.00
57.368 869.00
57.6723 932.00
57.9766 829.00
58.2808 804.00
58.5851 751.00
58.8893 818.00
59.1936 958.00
59.4979 1064.00
59.8021 876.00
60.1064 799.00
60.4106 864.00
60.7149 1185.00
61.0192 1306.00
61.3234 1180.00
61.6277 1189.00
61.932 1371.00
62.2362 1198.00
62.5405 970.00
62.8447 903.00
63.149 893.00
63.4533 1115.00
63.7575 1153.00
64.0618 1090.00
64.366 1085.00
64.6703 1083.00
64.9745 1007.00
65.2788 930.00
65.5831 756.00
65.8873 786.00
66.1916 880.00
66.4959 868.00
66.8001 843.00
67.1044 883.00
67.4086 1012.00
67.7129 987.00
68.0172 851.00
68.3214 869.00
68.6257 926.00
68.9299 1017.00
69.2342 856.00
69.5385 805.00
69.8427 807.00
70.147 775.00
70.4512 729.00
70.7555 685.00
71.0598 732.00
71.364 826.00
71.6683 894.00
71.9725 884.00
72.2768 902.00
72.5811 817.00
72.8853 743.00
73.1896 731.00
73.4938 694.00
73.7981 665.00
74.1024 664.00
74.4066 693.00
74.7109 715.00
75.0151 975.00
75.3194 970.00
75.6237 921.00
75.9279 888.00
76.2322 941.00
76.5364 808.00
76.8407 840.00
77.145 815.00
77.4492 695.00
77.7535 712.00
78.0577 651.00
78.362 661.00
78.6663 784.00
78.9705 770.00
79.2748 699.00
79.579 759.00
79.8833 830.00
80.1876 829.00
80.4918 748.00
80.7961 650.00
81.1003 692.00
81.4046 706.00
81.7089 703.00
82.0131 721.00
82.3174 824.00
82.6217 795.00
82.9259 708.00
83.2302 697.00
83.5344 673.00
83.8387 752.00
84.143 758.00
84.4472 726.00
84.7515 718.00
85.0557 726.00
85.36 733.00
85.6643 708.00
85.9685 749.00
86.2728 778.00
86.577 737.00
86.8813 730.00
87.1856 745.00
87.4898 672.00
87.7941 734.00
88.0983 678.00
88.4026 752.00
88.7069 738.00
89.0111 758.00
89.3154 738.00
89.6196 763.00
89.9239 817.00
90.2282 718.00
90.5324 866.00
90.8367 844.00
91.1409 916.00
91.4452 754.00
91.7495 694.00
92.0537 670.00
92.358 685.00
92.6622 715.00
92.9665 748.00
93.2708 769.00
93.575 778.00
93.8793 784.00
94.1835 696.00
94.4878 641.00
94.7921 628.00
95.0963 702.00
95.4006 688.00
95.7048 718.00
96.0091 735.00
96.3134 816.00
96.6176 815.00
96.9219 792.00
97.2261 758.00
97.5304 822.00
97.8347 741.00
98.1389 759.00
98.4432 725.00
98.7474 685.00
99.0517 605.00
99.356 632.00
99.6602 666.00
99.9645 702.00
100.095 637.00