File: data/xrd_creation/results/NSC_176.xy
9.903433 2613.00
10.2077 2542.00
10.512 2405.00
10.8162 2276.00
11.1205 2279.00
11.4247 2086.00
11.729 2171.00
12.0333 1954.00
12.3375 1953.00
12.6418 1846.00
12.946 1829.00
13.2503 1842.00
13.5546 1736.00
13.8588 1879.00
14.1631 2369.00
14.4673 2811.00
14.7716 1707.00
15.0759 1762.00
15.3801 2099.00
15.6844 1638.00
15.9886 1551.00
16.2929 1592.00
16.5972 1510.00
16.9014 1444.00
17.2057 1561.00
17.5099 1479.00
17.8142 1485.00
18.1185 1439.00
18.4227 1386.00
18.727 1370.00
19.0312 1360.00
19.3355 1616.00
19.6398 3684.00
19.944 8736.00
20.2483 2280.00
20.5525 12909.00
20.8568 3355.00
21.1611 1816.00
21.4653 1348.00
21.7696 1470.00
22.0738 3383.00
22.3781 1370.00
22.6824 1276.00
22.9866 1219.00
23.2909 1257.00
23.5951 2314.00
23.8994 4228.00
24.2037 1223.00
24.5079 1188.00
24.8122 1237.00
25.1164 1460.00
25.4207 3759.00
25.725 1218.00
26.0292 1638.00
26.3335 2122.00
26.6378 1093.00
26.942 1083.00
27.2463 943.00
27.5505 1074.00
27.8548 1109.00
28.1591 1129.00
28.4633 3114.00
28.7676 4244.00
29.0718 1076.00
29.3761 980.00
29.6804 943.00
29.9846 915.00
30.2889 1136.00
30.5931 2275.00
30.8974 1008.00
31.2017 1323.00
31.5059 8526.00
31.8102 2771.00
32.1144 1083.00
32.4187 1026.00
32.723 978.00
33.0272 933.00
33.3315 1946.00
33.6357 2036.00
33.94 1449.00
34.2443 1361.00
34.5485 872.00
34.8528 944.00
35.157 1619.00
35.4613 4890.00
35.7656 4906.00
36.0698 2235.00
36.3741 1049.00
36.6783 835.00
36.9826 808.00
37.2869 826.00
37.5911 892.00
37.8954 1188.00
38.1996 1120.00
38.5039 1528.00
38.8082 990.00
39.1124 787.00
39.4167 783.00
39.7209 1070.00
40.0252 1635.00
40.3295 881.00
40.6337 945.00
40.938 817.00
41.2422 899.00
41.5465 2158.00
41.8508 2216.00
42.155 1157.00
42.4593 996.00
42.7635 820.00
43.0678 975.00
43.3721 2510.00
43.6763 991.00
43.9806 1098.00
44.2849 930.00
44.5891 800.00
44.8934 1001.00
45.1976 2262.00
45.5019 1386.00
45.8062 797.00
46.1104 1253.00
46.4147 2886.00
46.7189 1415.00
47.0232 1944.00
47.3275 882.00
47.6317 845.00
47.936 1024.00
48.2402 3103.00
48.5445 2346.00
48.8488 1131.00
49.153 1045.00
49.4573 874.00
49.7615 1152.00
50.0658 843.00
50.3701 742.00
50.6743 802.00
50.9786 1062.00
51.2828 1226.00
51.5871 3129.00
51.8914 2474.00
52.1956 1052.00
52.4999 775.00
52.8041 838.00
53.1084 799.00
53.4127 779.00
53.7169 792.00
54.0212 775.00
54.3254 875.00
54.6297 1670.00
54.934 1472.00
55.2382 1036.00
55.5425 2479.00
55.8467 3603.00
56.151 1754.00
56.4553 844.00
56.7595 771.00
57.0638 761.00
57.368 778.00
57.6723 779.00
57.9766 670.00
58.2808 1090.00
58.5851 1659.00
58.8893 1377.00
59.1936 991.00
59.4979 746.00
59.8021 1013.00
60.1064 1690.00
60.4106 2244.00
60.7149 1074.00
61.0192 869.00
61.3234 1829.00
61.6277 1904.00
61.932 1105.00
62.2362 935.00
62.5405 1291.00
62.8447 1355.00
63.149 1042.00
63.4533 933.00
63.7575 1226.00
64.0618 1663.00
64.366 1766.00
64.6703 1050.00
64.9745 800.00
65.2788 838.00
65.5831 882.00
65.8873 1034.00
66.1916 1484.00
66.4959 1898.00
66.8001 1301.00
67.1044 913.00
67.4086 938.00
67.7129 1318.00
68.0172 1308.00
68.3214 1344.00
68.6257 921.00
68.9299 955.00
69.2342 1163.00
69.5385 1058.00
69.8427 855.00
70.147 763.00
70.4512 808.00
70.7555 940.00
71.0598 889.00
71.364 1250.00
71.6683 1181.00
71.9725 813.00
72.2768 757.00
72.5811 701.00
72.8853 750.00
73.1896 706.00
73.4938 784.00
73.7981 930.00
74.1024 1244.00
74.4066 1217.00
74.7109 890.00
75.0151 902.00
75.3194 1092.00
75.6237 1227.00
75.9279 1034.00
76.2322 787.00
76.5364 745.00
76.8407 680.00
77.145 721.00
77.4492 867.00
77.7535 1002.00
78.0577 922.00
78.362 727.00
78.6663 891.00
78.9705 1239.00
79.2748 1600.00
79.579 1329.00
79.8833 933.00
80.1876 860.00
80.4918 884.00
80.7961 800.00
81.1003 877.00
81.4046 1195.00
81.7089 1041.00
82.0131 791.00
82.3174 807.00
82.6217 820.00
82.9259 819.00
83.2302 792.00
83.5344 749.00
83.8387 1040.00
84.143 1078.00
84.4472 894.00
84.7515 785.00
85.0557 842.00
85.36 938.00
85.6643 877.00
85.9685 969.00
86.2728 1040.00
86.577 1016.00
86.8813 946.00
87.1856 874.00
87.4898 824.00
87.7941 802.00
88.0983 755.00
88.4026 856.00
88.7069 872.00
89.0111 754.00
89.3154 761.00
89.6196 917.00
89.9239 1216.00
90.2282 1192.00
90.5324 936.00
90.8367 872.00
91.1409 813.00
91.4452 787.00
91.7495 845.00
92.0537 1043.00
92.358 1119.00
92.6622 991.00
92.9665 949.00
93.2708 981.00
93.575 824.00
93.8793 843.00
94.1835 918.00
94.4878 953.00
94.7921 884.00
95.0963 815.00
95.4006 863.00
95.7048 1073.00
96.0091 922.00
96.3134 885.00
96.6176 921.00
96.9219 1018.00
97.2261 991.00
97.5304 904.00
97.8347 801.00
98.1389 756.00
98.4432 784.00
98.7474 752.00
99.0517 797.00
99.356 838.00
99.6602 884.00
99.9645 915.00
100.095 911.00