File: data/xrd_creation/results/NSC_38.xy
9.903433 2953.00
10.2077 2851.00
10.512 2918.00
10.8162 2814.00
11.1205 2601.00
11.4247 2591.00
11.729 2446.00
12.0333 2479.00
12.3375 2317.00
12.6418 2399.00
12.946 2390.00
13.2503 2299.00
13.5546 2297.00
13.8588 2449.00
14.1631 2401.00
14.4673 2297.00
14.7716 2444.00
15.0759 2402.00
15.3801 2287.00
15.6844 2236.00
15.9886 2331.00
16.2929 2148.00
16.5972 2205.00
16.9014 2149.00
17.2057 2175.00
17.5099 2298.00
17.8142 2279.00
18.1185 2111.00
18.4227 2045.00
18.727 2014.00
19.0312 2110.00
19.3355 2304.00
19.6398 4083.00
19.944 2957.00
20.2483 2063.00
20.5525 2064.00
20.8568 2182.00
21.1611 2118.00
21.4653 2167.00
21.7696 2644.00
22.0738 2121.00
22.3781 2079.00
22.6824 3282.00
22.9866 2238.00
23.2909 2392.00
23.5951 1868.00
23.8994 1938.00
24.2037 2488.00
24.5079 2087.00
24.8122 2481.00
25.1164 1842.00
25.4207 1874.00
25.725 1787.00
26.0292 1782.00
26.3335 1730.00
26.6378 1793.00
26.942 1754.00
27.2463 1764.00
27.5505 1794.00
27.8548 2776.00
28.1591 2279.00
28.4633 7785.00
28.7676 2208.00
29.0718 1821.00
29.3761 1788.00
29.6804 1783.00
29.9846 1837.00
30.2889 1860.00
30.5931 2434.00
30.8974 8765.00
31.2017 4358.00
31.5059 2477.00
31.8102 5431.00
32.1144 1920.00
32.4187 1747.00
32.723 1718.00
33.0272 1775.00
33.3315 2213.00
33.6357 1768.00
33.94 1901.00
34.2443 3262.00
34.5485 5565.00
34.8528 2138.00
35.157 1673.00
35.4613 2056.00
35.7656 3490.00
36.0698 1756.00
36.3741 1586.00
36.6783 1407.00
36.9826 1483.00
37.2869 1459.00
37.5911 1490.00
37.8954 1668.00
38.1996 1417.00
38.5039 1418.00
38.8082 1617.00
39.1124 1483.00
39.4167 1522.00
39.7209 1508.00
40.0252 1515.00
40.3295 1356.00
40.6337 1333.00
40.938 1895.00
41.2422 1839.00
41.5465 1766.00
41.8508 1817.00
42.155 1838.00
42.4593 1597.00
42.7635 1311.00
43.0678 1324.00
43.3721 1361.00
43.6763 1447.00
43.9806 1350.00
44.2849 1437.00
44.5891 1633.00
44.8934 1663.00
45.1976 1767.00
45.5019 1352.00
45.8062 1841.00
46.1104 1632.00
46.4147 1458.00
46.7189 1667.00
47.0232 2223.00
47.3275 1513.00
47.6317 1408.00
47.936 1385.00
48.2402 1431.00
48.5445 1393.00
48.8488 1376.00
49.153 1501.00
49.4573 2433.00
49.7615 1662.00
50.0658 1434.00
50.3701 2489.00
50.6743 1889.00
50.9786 2187.00
51.2828 3519.00
51.5871 1723.00
51.8914 1414.00
52.1956 1333.00
52.4999 1294.00
52.8041 1373.00
53.1084 1442.00
53.4127 1593.00
53.7169 1814.00
54.0212 1553.00
54.3254 1923.00
54.6297 1473.00
54.934 1428.00
55.2382 1410.00
55.5425 1909.00
55.8467 1786.00
56.151 1774.00
56.4553 1614.00
56.7595 1252.00
57.0638 1302.00
57.368 1613.00
57.6723 1492.00
57.9766 1465.00
58.2808 1531.00
58.5851 1482.00
58.8893 1400.00
59.1936 1641.00
59.4979 1785.00
59.8021 1431.00
60.1064 1855.00
60.4106 1713.00
60.7149 1565.00
61.0192 2294.00
61.3234 1662.00
61.6277 1845.00
61.932 1367.00
62.2362 1653.00
62.5405 1601.00
62.8447 1409.00
63.149 1698.00
63.4533 1325.00
63.7575 1235.00
64.0618 1289.00
64.366 1263.00
64.6703 1282.00
64.9745 1277.00
65.2788 1281.00
65.5831 1395.00
65.8873 1625.00
66.1916 1562.00
66.4959 1363.00
66.8001 1245.00
67.1044 1165.00
67.4086 1125.00
67.7129 1172.00
68.0172 1150.00
68.3214 1279.00
68.6257 1246.00
68.9299 1240.00
69.2342 1225.00
69.5385 1187.00
69.8427 1238.00
70.147 1066.00
70.4512 1147.00
70.7555 1190.00
71.0598 1175.00
71.364 1345.00
71.6683 1242.00
71.9725 1258.00
72.2768 1354.00
72.5811 1310.00
72.8853 1161.00
73.1896 1102.00
73.4938 1099.00
73.7981 1139.00
74.1024 1166.00
74.4066 1094.00
74.7109 1162.00
75.0151 1128.00
75.3194 1310.00
75.6237 1289.00
75.9279 1169.00
76.2322 1097.00
76.5364 1256.00
76.8407 1220.00
77.145 1112.00
77.4492 1085.00
77.7535 1085.00
78.0577 1154.00
78.362 1156.00
78.6663 1115.00
78.9705 1065.00
79.2748 1224.00
79.579 1149.00
79.8833 1138.00
80.1876 1100.00
80.4918 1134.00
80.7961 1172.00
81.1003 1166.00
81.4046 1101.00
81.7089 1217.00
82.0131 1278.00
82.3174 1285.00
82.6217 1158.00
82.9259 1173.00
83.2302 1318.00
83.5344 1310.00
83.8387 1132.00
84.143 1150.00
84.4472 1216.00
84.7515 1070.00
85.0557 1102.00
85.36 1106.00
85.6643 1039.00
85.9685 1157.00
86.2728 1261.00
86.577 1173.00
86.8813 1180.00
87.1856 1140.00
87.4898 1138.00
87.7941 1131.00
88.0983 1209.00
88.4026 1226.00
88.7069 1242.00
89.0111 1126.00
89.3154 1144.00
89.6196 1093.00
89.9239 1208.00
90.2282 1195.00
90.5324 1215.00
90.8367 1068.00
91.1409 1094.00
91.4452 1167.00
91.7495 1061.00
92.0537 1105.00
92.358 1034.00
92.6622 1174.00
92.9665 1075.00
93.2708 1081.00
93.575 1075.00
93.8793 1125.00
94.1835 1145.00
94.4878 1105.00
94.7921 1062.00
95.0963 1099.00
95.4006 1159.00
95.7048 1131.00
96.0091 1103.00
96.3134 1170.00
96.6176 1346.00
96.9219 1302.00
97.2261 1120.00
97.5304 1052.00
97.8347 1111.00
98.1389 1132.00
98.4432 982.00
98.7474 1057.00
99.0517 1105.00
99.356 1197.00
99.6602 1242.00
99.9645 1139.00
100.095 1157.00