File: data/xrd_creation/results/NSC_47.xy
9.903433 2801.00
10.2077 2670.00
10.512 2576.00
10.8162 2507.00
11.1205 2575.00
11.4247 2300.00
11.729 2284.00
12.0333 2278.00
12.3375 2968.00
12.6418 2795.00
12.946 1956.00
13.2503 1923.00
13.5546 1900.00
13.8588 1948.00
14.1631 1769.00
14.4673 1854.00
14.7716 1769.00
15.0759 1732.00
15.3801 1643.00
15.6844 1648.00
15.9886 1630.00
16.2929 1630.00
16.5972 1615.00
16.9014 1531.00
17.2057 1470.00
17.5099 1490.00
17.8142 1436.00
18.1185 1415.00
18.4227 1486.00
18.727 1473.00
19.0312 1797.00
19.3355 1771.00
19.6398 1705.00
19.944 1284.00
20.2483 1372.00
20.5525 1789.00
20.8568 1371.00
21.1611 1443.00
21.4653 1771.00
21.7696 1240.00
22.0738 1209.00
22.3781 1238.00
22.6824 1261.00
22.9866 4102.00
23.2909 1307.00
23.5951 1216.00
23.8994 1890.00
24.2037 1772.00
24.5079 1089.00
24.8122 1055.00
25.1164 1013.00
25.4207 978.00
25.725 954.00
26.0292 983.00
26.3335 923.00
26.6378 863.00
26.942 912.00
27.2463 1110.00
27.5505 905.00
27.8548 999.00
28.1591 930.00
28.4633 825.00
28.7676 911.00
29.0718 875.00
29.3761 920.00
29.6804 1088.00
29.9846 885.00
30.2889 1303.00
30.5931 5985.00
30.8974 1040.00
31.2017 1180.00
31.5059 1052.00
31.8102 4898.00
32.1144 1703.00
32.4187 1027.00
32.723 3084.00
33.0272 1127.00
33.3315 808.00
33.6357 739.00
33.94 907.00
34.2443 1290.00
34.5485 1002.00
34.8528 989.00
35.157 3943.00
35.4613 2673.00
35.7656 779.00
36.0698 669.00
36.3741 623.00
36.6783 619.00
36.9826 630.00
37.2869 787.00
37.5911 1367.00
37.8954 675.00
38.1996 763.00
38.5039 665.00
38.8082 572.00
39.1124 705.00
39.4167 565.00
39.7209 567.00
40.0252 531.00
40.3295 542.00
40.6337 527.00
40.938 627.00
41.2422 801.00
41.5465 663.00
41.8508 1812.00
42.155 642.00
42.4593 586.00
42.7635 547.00
43.0678 1129.00
43.3721 749.00
43.6763 1008.00
43.9806 663.00
44.2849 476.00
44.5891 486.00
44.8934 496.00
45.1976 495.00
45.5019 618.00
45.8062 720.00
46.1104 510.00
46.4147 485.00
46.7189 671.00
47.0232 2103.00
47.3275 760.00
47.6317 479.00
47.936 458.00
48.2402 445.00
48.5445 436.00
48.8488 483.00
49.153 726.00
49.4573 1074.00
49.7615 527.00
50.0658 418.00
50.3701 484.00
50.6743 535.00
50.9786 2551.00
51.2828 1208.00
51.5871 616.00
51.8914 709.00
52.1956 443.00
52.4999 519.00
52.8041 970.00
53.1084 736.00
53.4127 423.00
53.7169 484.00
54.0212 597.00
54.3254 523.00
54.6297 413.00
54.934 399.00
55.2382 437.00
55.5425 624.00
55.8467 1200.00
56.151 660.00
56.4553 625.00
56.7595 383.00
57.0638 435.00
57.368 620.00
57.6723 563.00
57.9766 1115.00
58.2808 564.00
58.5851 383.00
58.8893 402.00
59.1936 610.00
59.4979 448.00
59.8021 541.00
60.1064 990.00
60.4106 987.00
60.7149 2270.00
61.0192 623.00
61.3234 491.00
61.6277 554.00
61.932 798.00
62.2362 984.00
62.5405 594.00
62.8447 486.00
63.149 418.00
63.4533 469.00
63.7575 595.00
64.0618 729.00
64.366 612.00
64.6703 476.00
64.9745 385.00
65.2788 424.00
65.5831 382.00
65.8873 481.00
66.1916 513.00
66.4959 442.00
66.8001 486.00
67.1044 367.00
67.4086 375.00
67.7129 377.00
68.0172 673.00
68.3214 547.00
68.6257 561.00
68.9299 564.00
69.2342 346.00
69.5385 437.00
69.8427 504.00
70.147 436.00
70.4512 362.00
70.7555 287.00
71.0598 282.00
71.364 272.00
71.6683 298.00
71.9725 339.00
72.2768 293.00
72.5811 313.00
72.8853 339.00
73.1896 349.00
73.4938 410.00
73.7981 417.00
74.1024 427.00
74.4066 452.00
74.7109 346.00
75.0151 484.00
75.3194 337.00
75.6237 368.00
75.9279 581.00
76.2322 449.00
76.5364 404.00
76.8407 322.00
77.145 396.00
77.4492 429.00
77.7535 442.00
78.0577 439.00
78.362 395.00
78.6663 310.00
78.9705 323.00
79.2748 378.00
79.579 353.00
79.8833 399.00
80.1876 310.00
80.4918 381.00
80.7961 341.00
81.1003 366.00
81.4046 478.00
81.7089 524.00
82.0131 405.00
82.3174 304.00
82.6217 300.00
82.9259 390.00
83.2302 639.00
83.5344 478.00
83.8387 375.00
84.143 306.00
84.4472 297.00
84.7515 356.00
85.0557 627.00
85.36 638.00
85.6643 449.00
85.9685 447.00
86.2728 284.00
86.577 292.00
86.8813 318.00
87.1856 349.00
87.4898 329.00
87.7941 317.00
88.0983 284.00
88.4026 393.00
88.7069 390.00
89.0111 334.00
89.3154 407.00
89.6196 364.00
89.9239 331.00
90.2282 307.00
90.5324 263.00
90.8367 318.00
91.1409 391.00
91.4452 324.00
91.7495 370.00
92.0537 426.00
92.358 468.00
92.6622 379.00
92.9665 286.00
93.2708 262.00
93.575 246.00
93.8793 311.00
94.1835 281.00
94.4878 362.00
94.7921 510.00
95.0963 455.00
95.4006 437.00
95.7048 383.00
96.0091 448.00
96.3134 708.00
96.6176 576.00
96.9219 420.00
97.2261 295.00
97.5304 285.00
97.8347 416.00
98.1389 393.00
98.4432 360.00
98.7474 271.00
99.0517 351.00
99.356 365.00
99.6602 338.00
99.9645 271.00
100.095 327.00