File: data/xrd_creation/results/NSC_5.xy
9.903433 3092.00
10.2077 2982.00
10.512 2929.00
10.8162 2951.00
11.1205 2811.00
11.4247 2681.00
11.729 2637.00
12.0333 2544.00
12.3375 2470.00
12.6418 2327.00
12.946 2348.00
13.2503 2407.00
13.5546 2200.00
13.8588 2366.00
14.1631 3093.00
14.4673 3354.00
14.7716 2344.00
15.0759 2278.00
15.3801 2189.00
15.6844 2180.00
15.9886 2192.00
16.2929 2167.00
16.5972 2132.00
16.9014 2123.00
17.2057 2132.00
17.5099 2232.00
17.8142 2042.00
18.1185 2086.00
18.4227 2071.00
18.727 2003.00
19.0312 2018.00
19.3355 2106.00
19.6398 4088.00
19.944 4922.00
20.2483 2870.00
20.5525 12286.00
20.8568 2334.00
21.1611 2019.00
21.4653 2038.00
21.7696 2009.00
22.0738 2135.00
22.3781 1993.00
22.6824 1912.00
22.9866 1904.00
23.2909 2096.00
23.5951 6173.00
23.8994 3698.00
24.2037 2026.00
24.5079 2159.00
24.8122 2056.00
25.1164 1765.00
25.4207 1795.00
25.725 1726.00
26.0292 1752.00
26.3335 1773.00
26.6378 1747.00
26.942 1699.00
27.2463 1740.00
27.5505 1762.00
27.8548 1747.00
28.1591 1822.00
28.4633 7859.00
28.7676 2755.00
29.0718 1719.00
29.3761 1586.00
29.6804 1610.00
29.9846 1682.00
30.2889 1631.00
30.5931 1676.00
30.8974 1875.00
31.2017 2713.00
31.5059 11320.00
31.8102 3937.00
32.1144 1837.00
32.4187 1661.00
32.723 1591.00
33.0272 1687.00
33.3315 1521.00
33.6357 1728.00
33.94 1834.00
34.2443 1669.00
34.5485 2054.00
34.8528 1818.00
35.157 3110.00
35.4613 2700.00
35.7656 4906.00
36.0698 1667.00
36.3741 1572.00
36.6783 1505.00
36.9826 1405.00
37.2869 1426.00
37.5911 1396.00
37.8954 1395.00
38.1996 1393.00
38.5039 1410.00
38.8082 1434.00
39.1124 1517.00
39.4167 1393.00
39.7209 1762.00
40.0252 1600.00
40.3295 1393.00
40.6337 1360.00
40.938 1593.00
41.2422 1834.00
41.5465 2102.00
41.8508 1670.00
42.155 1579.00
42.4593 1404.00
42.7635 1408.00
43.0678 2455.00
43.3721 1604.00
43.6763 1370.00
43.9806 1515.00
44.2849 1291.00
44.5891 1458.00
44.8934 2142.00
45.1976 2812.00
45.5019 1469.00
45.8062 1589.00
46.1104 2704.00
46.4147 1535.00
46.7189 2131.00
47.0232 1487.00
47.3275 1290.00
47.6317 1598.00
47.936 2622.00
48.2402 3185.00
48.5445 1587.00
48.8488 1730.00
49.153 1531.00
49.4573 1569.00
49.7615 1605.00
50.0658 1348.00
50.3701 1658.00
50.6743 1704.00
50.9786 1794.00
51.2828 2607.00
51.5871 2647.00
51.8914 1892.00
52.1956 1471.00
52.4999 1341.00
52.8041 1380.00
53.1084 1282.00
53.4127 1297.00
53.7169 1351.00
54.0212 1410.00
54.3254 2466.00
54.6297 1545.00
54.934 1520.00
55.2382 2874.00
55.5425 4108.00
55.8467 2040.00
56.151 1466.00
56.4553 1473.00
56.7595 1537.00
57.0638 1439.00
57.368 1403.00
57.6723 1377.00
57.9766 1547.00
58.2808 1902.00
58.5851 1811.00
58.8893 1346.00
59.1936 1307.00
59.4979 1407.00
59.8021 2066.00
60.1064 2252.00
60.4106 1609.00
60.7149 1497.00
61.0192 2608.00
61.3234 1852.00
61.6277 1540.00
61.932 1549.00
62.2362 2007.00
62.5405 1841.00
62.8447 1434.00
63.149 1725.00
63.4533 1860.00
63.7575 1908.00
64.0618 1696.00
64.366 1304.00
64.6703 1382.00
64.9745 1413.00
65.2788 1494.00
65.5831 1415.00
65.8873 1538.00
66.1916 2046.00
66.4959 1482.00
66.8001 1230.00
67.1044 1443.00
67.4086 1512.00
67.7129 1648.00
68.0172 1412.00
68.3214 1256.00
68.6257 1284.00
68.9299 1576.00
69.2342 1394.00
69.5385 1186.00
69.8427 1305.00
70.147 1301.00
70.4512 1285.00
70.7555 1492.00
71.0598 1889.00
71.364 1554.00
71.6683 1252.00
71.9725 1302.00
72.2768 1317.00
72.5811 1198.00
72.8853 1215.00
73.1896 1251.00
73.4938 1501.00
73.7981 1615.00
74.1024 1432.00
74.4066 1299.00
74.7109 1466.00
75.0151 1736.00
75.3194 1610.00
75.6237 1485.00
75.9279 1239.00
76.2322 1248.00
76.5364 1302.00
76.8407 1323.00
77.145 1316.00
77.4492 1276.00
77.7535 1311.00
78.0577 1188.00
78.362 1442.00
78.6663 1636.00
78.9705 1502.00
79.2748 1394.00
79.579 1289.00
79.8833 1283.00
80.1876 1215.00
80.4918 1299.00
80.7961 1578.00
81.1003 1479.00
81.4046 1222.00
81.7089 1218.00
82.0131 1180.00
82.3174 1247.00
82.6217 1287.00
82.9259 1283.00
83.2302 1625.00
83.5344 1592.00
83.8387 1316.00
84.143 1314.00
84.4472 1448.00
84.7515 1489.00
85.0557 1412.00
85.36 1419.00
85.6643 1343.00
85.9685 1436.00
86.2728 1338.00
86.577 1275.00
86.8813 1311.00
87.1856 1172.00
87.4898 1285.00
87.7941 1313.00
88.0983 1324.00
88.4026 1334.00
88.7069 1346.00
89.0111 1447.00
89.3154 1772.00
89.6196 1439.00
89.9239 1344.00
90.2282 1264.00
90.5324 1242.00
90.8367 1222.00
91.1409 1276.00
91.4452 1445.00
91.7495 1370.00
92.0537 1233.00
92.358 1266.00
92.6622 1232.00
92.9665 1202.00
93.2708 1285.00
93.575 1269.00
93.8793 1377.00
94.1835 1374.00
94.4878 1220.00
94.7921 1456.00
95.0963 1417.00
95.4006 1337.00
95.7048 1436.00
96.0091 1498.00
96.3134 1510.00
96.6176 1389.00
96.9219 1300.00
97.2261 1334.00
97.5304 1204.00
97.8347 1234.00
98.1389 1121.00
98.4432 1220.00
98.7474 1400.00
99.0517 1366.00
99.356 1374.00
99.6602 1429.00
99.9645 1535.00
100.095 1419.00