File: data/xrd_creation/results/NSC_105.xy
9.903433 2702.00
10.2077 2618.00
10.512 2475.00
10.8162 2334.00
11.1205 2179.00
11.4247 2163.00
11.729 1995.00
12.0333 1924.00
12.3375 1896.00
12.6418 1782.00
12.946 1704.00
13.2503 1560.00
13.5546 1578.00
13.8588 1473.00
14.1631 1453.00
14.4673 1380.00
14.7716 1347.00
15.0759 1378.00
15.3801 1377.00
15.6844 1289.00
15.9886 1249.00
16.2929 1336.00
16.5972 1203.00
16.9014 1220.00
17.2057 1176.00
17.5099 1197.00
17.8142 1149.00
18.1185 1110.00
18.4227 1101.00
18.727 1068.00
19.0312 1047.00
19.3355 1046.00
19.6398 949.00
19.944 955.00
20.2483 935.00
20.5525 915.00
20.8568 902.00
21.1611 864.00
21.4653 884.00
21.7696 861.00
22.0738 853.00
22.3781 821.00
22.6824 823.00
22.9866 777.00
23.2909 790.00
23.5951 798.00
23.8994 794.00
24.2037 726.00
24.5079 677.00
24.8122 706.00
25.1164 714.00
25.4207 726.00
25.725 690.00
26.0292 740.00
26.3335 645.00
26.6378 647.00
26.942 706.00
27.2463 659.00
27.5505 627.00
27.8548 623.00
28.1591 597.00
28.4633 612.00
28.7676 580.00
29.0718 600.00
29.3761 586.00
29.6804 609.00
29.9846 547.00
30.2889 544.00
30.5931 545.00
30.8974 535.00
31.2017 561.00
31.5059 532.00
31.8102 481.00
32.1144 543.00
32.4187 498.00
32.723 518.00
33.0272 520.00
33.3315 468.00
33.6357 481.00
33.94 434.00
34.2443 445.00
34.5485 388.00
34.8528 451.00
35.157 433.00
35.4613 418.00
35.7656 400.00
36.0698 428.00
36.3741 403.00
36.6783 387.00
36.9826 389.00
37.2869 400.00
37.5911 394.00
37.8954 382.00
38.1996 347.00
38.5039 382.00
38.8082 341.00
39.1124 350.00
39.4167 340.00
39.7209 369.00
40.0252 333.00
40.3295 337.00
40.6337 358.00
40.938 319.00
41.2422 346.00
41.5465 377.00
41.8508 345.00
42.155 355.00
42.4593 349.00
42.7635 339.00
43.0678 347.00
43.3721 345.00
43.6763 314.00
43.9806 310.00
44.2849 338.00
44.5891 264.00
44.8934 306.00
45.1976 299.00
45.5019 306.00
45.8062 304.00
46.1104 277.00
46.4147 303.00
46.7189 303.00
47.0232 278.00
47.3275 274.00
47.6317 287.00
47.936 291.00
48.2402 260.00
48.5445 294.00
48.8488 293.00
49.153 264.00
49.4573 282.00
49.7615 272.00
50.0658 238.00
50.3701 260.00
50.6743 293.00
50.9786 275.00
51.2828 247.00
51.5871 266.00
51.8914 245.00
52.1956 249.00
52.4999 233.00
52.8041 271.00
53.1084 280.00
53.4127 233.00
53.7169 249.00
54.0212 259.00
54.3254 247.00
54.6297 223.00
54.934 241.00
55.2382 270.00
55.5425 213.00
55.8467 256.00
56.151 249.00
56.4553 227.00
56.7595 249.00
57.0638 264.00
57.368 205.00
57.6723 219.00
57.9766 200.00
58.2808 235.00
58.5851 221.00
58.8893 231.00
59.1936 216.00
59.4979 192.00
59.8021 214.00
60.1064 224.00
60.4106 206.00
60.7149 208.00
61.0192 201.00
61.3234 178.00
61.6277 201.00
61.932 197.00
62.2362 165.00
62.5405 219.00
62.8447 220.00
63.149 192.00
63.4533 206.00
63.7575 197.00
64.0618 187.00
64.366 183.00
64.6703 177.00
64.9745 196.00
65.2788 190.00
65.5831 185.00
65.8873 203.00
66.1916 164.00
66.4959 192.00
66.8001 177.00
67.1044 181.00
67.4086 202.00
67.7129 180.00
68.0172 187.00
68.3214 208.00
68.6257 183.00
68.9299 174.00
69.2342 198.00
69.5385 197.00
69.8427 170.00
70.147 194.00
70.4512 195.00
70.7555 194.00
71.0598 164.00
71.364 180.00
71.6683 182.00
71.9725 205.00
72.2768 190.00
72.5811 186.00
72.8853 181.00
73.1896 206.00
73.4938 209.00
73.7981 195.00
74.1024 220.00
74.4066 192.00
74.7109 205.00
75.0151 206.00
75.3194 211.00
75.6237 217.00
75.9279 193.00
76.2322 219.00
76.5364 188.00
76.8407 206.00
77.145 222.00
77.4492 185.00
77.7535 209.00
78.0577 187.00
78.362 178.00
78.6663 204.00
78.9705 228.00
79.2748 221.00
79.579 206.00
79.8833 229.00
80.1876 200.00
80.4918 206.00
80.7961 236.00
81.1003 198.00
81.4046 209.00
81.7089 247.00
82.0131 207.00
82.3174 222.00
82.6217 211.00
82.9259 211.00
83.2302 213.00
83.5344 232.00
83.8387 198.00
84.143 217.00
84.4472 228.00
84.7515 227.00
85.0557 231.00
85.36 232.00
85.6643 209.00
85.9685 203.00
86.2728 211.00
86.577 208.00
86.8813 187.00
87.1856 206.00
87.4898 201.00
87.7941 196.00
88.0983 196.00
88.4026 188.00
88.7069 189.00
89.0111 188.00
89.3154 199.00
89.6196 179.00
89.9239 200.00
90.2282 169.00
90.5324 212.00
90.8367 175.00
91.1409 172.00
91.4452 202.00
91.7495 196.00
92.0537 197.00
92.358 198.00
92.6622 186.00
92.9665 180.00
93.2708 188.00
93.575 177.00
93.8793 194.00
94.1835 176.00
94.4878 157.00
94.7921 167.00
95.0963 156.00
95.4006 171.00
95.7048 190.00
96.0091 196.00
96.3134 187.00
96.6176 193.00
96.9219 179.00
97.2261 181.00
97.5304 182.00
97.8347 195.00
98.1389 170.00
98.4432 210.00
98.7474 175.00
99.0517 157.00
99.356 179.00
99.6602 163.00
99.9645 161.00
100.095 173.00