File: data/xrd_creation/results/NSC_57.xy
9.903433 2656.00
10.2077 2623.00
10.512 2597.00
10.8162 2485.00
11.1205 2341.00
11.4247 2363.00
11.729 2207.00
12.0333 2125.00
12.3375 2001.00
12.6418 2028.00
12.946 2154.00
13.2503 2105.00
13.5546 2079.00
13.8588 1936.00
14.1631 1816.00
14.4673 1782.00
14.7716 2000.00
15.0759 3077.00
15.3801 1738.00
15.6844 1707.00
15.9886 1594.00
16.2929 1642.00
16.5972 1552.00
16.9014 1582.00
17.2057 1982.00
17.5099 2752.00
17.8142 1729.00
18.1185 2126.00
18.4227 1849.00
18.727 2519.00
19.0312 1636.00
19.3355 1425.00
19.6398 1352.00
19.944 1515.00
20.2483 1538.00
20.5525 3061.00
20.8568 4351.00
21.1611 1657.00
21.4653 3724.00
21.7696 7867.00
22.0738 3853.00
22.3781 1596.00
22.6824 1379.00
22.9866 1737.00
23.2909 1629.00
23.5951 1750.00
23.8994 1591.00
24.2037 2812.00
24.5079 1754.00
24.8122 1509.00
25.1164 6668.00
25.4207 3203.00
25.725 2036.00
26.0292 3086.00
26.3335 2172.00
26.6378 2822.00
26.942 1703.00
27.2463 1235.00
27.5505 1107.00
27.8548 1082.00
28.1591 1023.00
28.4633 1244.00
28.7676 1390.00
29.0718 1216.00
29.3761 1581.00
29.6804 1172.00
29.9846 1493.00
30.2889 4465.00
30.5931 3039.00
30.8974 2521.00
31.2017 1317.00
31.5059 1675.00
31.8102 1236.00
32.1144 1106.00
32.4187 1339.00
32.723 1173.00
33.0272 1872.00
33.3315 6451.00
33.6357 1341.00
33.94 1790.00
34.2443 1141.00
34.5485 1027.00
34.8528 1021.00
35.157 1093.00
35.4613 1224.00
35.7656 1280.00
36.0698 1554.00
36.3741 2354.00
36.6783 1221.00
36.9826 1002.00
37.2869 956.00
37.5911 1267.00
37.8954 1751.00
38.1996 1637.00
38.5039 2704.00
38.8082 974.00
39.1124 878.00
39.4167 1243.00
39.7209 1116.00
40.0252 964.00
40.3295 1027.00
40.6337 1156.00
40.938 899.00
41.2422 854.00
41.5465 978.00
41.8508 990.00
42.155 1062.00
42.4593 1013.00
42.7635 791.00
43.0678 759.00
43.3721 711.00
43.6763 926.00
43.9806 1379.00
44.2849 966.00
44.5891 1026.00
44.8934 949.00
45.1976 864.00
45.5019 948.00
45.8062 960.00
46.1104 1343.00
46.4147 1291.00
46.7189 884.00
47.0232 876.00
47.3275 966.00
47.6317 879.00
47.936 1423.00
48.2402 1895.00
48.5445 1384.00
48.8488 982.00
49.153 872.00
49.4573 1551.00
49.7615 2383.00
50.0658 1103.00
50.3701 859.00
50.6743 956.00
50.9786 932.00
51.2828 816.00
51.5871 1646.00
51.8914 2096.00
52.1956 872.00
52.4999 811.00
52.8041 977.00
53.1084 777.00
53.4127 869.00
53.7169 719.00
54.0212 798.00
54.3254 940.00
54.6297 1442.00
54.934 2271.00
55.2382 977.00
55.5425 747.00
55.8467 1074.00
56.151 761.00
56.4553 697.00
56.7595 787.00
57.0638 771.00
57.368 793.00
57.6723 685.00
57.9766 779.00
58.2808 1524.00
58.5851 1863.00
58.8893 1067.00
59.1936 762.00
59.4979 811.00
59.8021 1257.00
60.1064 1235.00
60.4106 1865.00
60.7149 927.00
61.0192 758.00
61.3234 883.00
61.6277 1103.00
61.932 1004.00
62.2362 858.00
62.5405 771.00
62.8447 662.00
63.149 1043.00
63.4533 799.00
63.7575 736.00
64.0618 997.00
64.366 1603.00
64.6703 1170.00
64.9745 774.00
65.2788 970.00
65.5831 978.00
65.8873 1120.00
66.1916 2174.00
66.4959 1447.00
66.8001 742.00
67.1044 828.00
67.4086 796.00
67.7129 894.00
68.0172 775.00
68.3214 772.00
68.6257 816.00
68.9299 1166.00
69.2342 1078.00
69.5385 1178.00
69.8427 834.00
70.147 700.00
70.4512 847.00
70.7555 1182.00
71.0598 844.00
71.364 634.00
71.6683 634.00
71.9725 568.00
72.2768 609.00
72.5811 616.00
72.8853 705.00
73.1896 817.00
73.4938 960.00
73.7981 791.00
74.1024 658.00
74.4066 588.00
74.7109 699.00
75.0151 788.00
75.3194 772.00
75.6237 769.00
75.9279 674.00
76.2322 661.00
76.5364 633.00
76.8407 668.00
77.145 661.00
77.4492 781.00
77.7535 1087.00
78.0577 768.00
78.362 670.00
78.6663 634.00
78.9705 670.00
79.2748 852.00
79.579 752.00
79.8833 753.00
80.1876 730.00
80.4918 617.00
80.7961 600.00
81.1003 561.00
81.4046 540.00
81.7089 576.00
82.0131 633.00
82.3174 800.00
82.6217 818.00
82.9259 618.00
83.2302 597.00
83.5344 651.00
83.8387 596.00
84.143 693.00
84.4472 685.00
84.7515 683.00
85.0557 668.00
85.36 567.00
85.6643 641.00
85.9685 622.00
86.2728 698.00
86.577 746.00
86.8813 603.00
87.1856 644.00
87.4898 773.00
87.7941 808.00
88.0983 620.00
88.4026 533.00
88.7069 588.00
89.0111 632.00
89.3154 621.00
89.6196 639.00
89.9239 577.00
90.2282 599.00
90.5324 504.00
90.8367 535.00
91.1409 533.00
91.4452 625.00
91.7495 805.00
92.0537 795.00
92.358 800.00
92.6622 951.00
92.9665 909.00
93.2708 795.00
93.575 655.00
93.8793 601.00
94.1835 575.00
94.4878 602.00
94.7921 593.00
95.0963 563.00
95.4006 550.00
95.7048 601.00
96.0091 652.00
96.3134 590.00
96.6176 598.00
96.9219 562.00
97.2261 527.00
97.5304 546.00
97.8347 581.00
98.1389 609.00
98.4432 710.00
98.7474 717.00
99.0517 643.00
99.356 601.00
99.6602 579.00
99.9645 695.00
100.095 679.00