File: data/xrd_creation/results/NSC_190.xy
9.903433 2663.00
10.2077 2604.00
10.512 2513.00
10.8162 2488.00
11.1205 2369.00
11.4247 2347.00
11.729 2207.00
12.0333 2451.00
12.3375 2891.00
12.6418 2064.00
12.946 2069.00
13.2503 2042.00
13.5546 2037.00
13.8588 2193.00
14.1631 2124.00
14.4673 1857.00
14.7716 1890.00
15.0759 1843.00
15.3801 1841.00
15.6844 1876.00
15.9886 1757.00
16.2929 1816.00
16.5972 1959.00
16.9014 2979.00
17.2057 1869.00
17.5099 1868.00
17.8142 1806.00
18.1185 1727.00
18.4227 1677.00
18.727 1719.00
19.0312 1813.00
19.3355 2562.00
19.6398 9141.00
19.944 5073.00
20.2483 1664.00
20.5525 1768.00
20.8568 1796.00
21.1611 2811.00
21.4653 1780.00
21.7696 1629.00
22.0738 1530.00
22.3781 1497.00
22.6824 1761.00
22.9866 2131.00
23.2909 1758.00
23.5951 1514.00
23.8994 1520.00
24.2037 1843.00
24.5079 1691.00
24.8122 1499.00
25.1164 1454.00
25.4207 1375.00
25.725 1305.00
26.0292 1372.00
26.3335 1403.00
26.6378 1754.00
26.942 3282.00
27.2463 2113.00
27.5505 4428.00
27.8548 3813.00
28.1591 1760.00
28.4633 1910.00
28.7676 2042.00
29.0718 1487.00
29.3761 1327.00
29.6804 1436.00
29.9846 2295.00
30.2889 2332.00
30.5931 1487.00
30.8974 1734.00
31.2017 3427.00
31.5059 5971.00
31.8102 1961.00
32.1144 1815.00
32.4187 1500.00
32.723 3530.00
33.0272 1475.00
33.3315 1440.00
33.6357 1640.00
33.94 5371.00
34.2443 10311.00
34.5485 2407.00
34.8528 3140.00
35.157 2314.00
35.4613 1403.00
35.7656 1507.00
36.0698 1437.00
36.3741 1401.00
36.6783 1560.00
36.9826 1159.00
37.2869 1110.00
37.5911 1181.00
37.8954 1123.00
38.1996 1215.00
38.5039 1183.00
38.8082 1126.00
39.1124 1223.00
39.4167 1226.00
39.7209 1681.00
40.0252 1938.00
40.3295 1093.00
40.6337 1207.00
40.938 1090.00
41.2422 1317.00
41.5465 1879.00
41.8508 1250.00
42.155 1379.00
42.4593 1244.00
42.7635 1383.00
43.0678 1269.00
43.3721 1048.00
43.6763 1574.00
43.9806 1126.00
44.2849 1150.00
44.5891 3018.00
44.8934 2411.00
45.1976 1162.00
45.5019 1126.00
45.8062 1214.00
46.1104 1260.00
46.4147 1261.00
46.7189 1925.00
47.0232 3738.00
47.3275 1700.00
47.6317 1101.00
47.936 1005.00
48.2402 1017.00
48.5445 1059.00
48.8488 1061.00
49.153 1450.00
49.4573 3234.00
49.7615 1538.00
50.0658 1146.00
50.3701 1107.00
50.6743 1696.00
50.9786 1323.00
51.2828 1887.00
51.5871 2976.00
51.8914 1460.00
52.1956 1059.00
52.4999 1034.00
52.8041 1157.00
53.1084 3448.00
53.4127 2549.00
53.7169 1154.00
54.0212 1161.00
54.3254 1124.00
54.6297 1303.00
54.934 1570.00
55.2382 1065.00
55.5425 1285.00
55.8467 1283.00
56.151 1278.00
56.4553 1096.00
56.7595 1131.00
57.0638 1181.00
57.368 1330.00
57.6723 1309.00
57.9766 1209.00
58.2808 1079.00
58.5851 1160.00
58.8893 1402.00
59.1936 3257.00
59.4979 2025.00
59.8021 1788.00
60.1064 1342.00
60.4106 1206.00
60.7149 1521.00
61.0192 2086.00
61.3234 1398.00
61.6277 1519.00
61.932 1609.00
62.2362 1316.00
62.5405 1301.00
62.8447 1275.00
63.149 1585.00
63.4533 1580.00
63.7575 1408.00
64.0618 1135.00
64.366 1173.00
64.6703 1370.00
64.9745 1033.00
65.2788 1006.00
65.5831 1073.00
65.8873 1248.00
66.1916 1203.00
66.4959 1370.00
66.8001 1598.00
67.1044 1620.00
67.4086 1241.00
67.7129 1168.00
68.0172 1374.00
68.3214 1418.00
68.6257 979.00
68.9299 1102.00
69.2342 1088.00
69.5385 1028.00
69.8427 958.00
70.147 890.00
70.4512 900.00
70.7555 968.00
71.0598 1149.00
71.364 1275.00
71.6683 1590.00
71.9725 1055.00
72.2768 934.00
72.5811 942.00
72.8853 975.00
73.1896 1112.00
73.4938 1245.00
73.7981 1261.00
74.1024 1128.00
74.4066 1030.00
74.7109 1066.00
75.0151 1284.00
75.3194 960.00
75.6237 955.00
75.9279 1033.00
76.2322 892.00
76.5364 904.00
76.8407 1104.00
77.145 1123.00
77.4492 1001.00
77.7535 947.00
78.0577 889.00
78.362 883.00
78.6663 863.00
78.9705 908.00
79.2748 924.00
79.579 951.00
79.8833 1247.00
80.1876 1311.00
80.4918 1255.00
80.7961 1070.00
81.1003 930.00
81.4046 1100.00
81.7089 1356.00
82.0131 1072.00
82.3174 958.00
82.6217 869.00
82.9259 944.00
83.2302 1050.00
83.5344 963.00
83.8387 890.00
84.143 908.00
84.4472 910.00
84.7515 944.00
85.0557 903.00
85.36 856.00
85.6643 851.00
85.9685 907.00
86.2728 942.00
86.577 1089.00
86.8813 1172.00
87.1856 1110.00
87.4898 1062.00
87.7941 933.00
88.0983 936.00
88.4026 1027.00
88.7069 961.00
89.0111 994.00
89.3154 1009.00
89.6196 1113.00
89.9239 1219.00
90.2282 1134.00
90.5324 989.00
90.8367 932.00
91.1409 973.00
91.4452 1067.00
91.7495 949.00
92.0537 890.00
92.358 819.00
92.6622 895.00
92.9665 948.00
93.2708 1062.00
93.575 1239.00
93.8793 978.00
94.1835 891.00
94.4878 1026.00
94.7921 1045.00
95.0963 1016.00
95.4006 955.00
95.7048 988.00
96.0091 943.00
96.3134 918.00
96.6176 857.00
96.9219 931.00
97.2261 820.00
97.5304 844.00
97.8347 846.00
98.1389 854.00
98.4432 852.00
98.7474 915.00
99.0517 941.00
99.356 1099.00
99.6602 1349.00
99.9645 1222.00
100.095 1177.00