File: data/xrd_creation/results/NSC_197.xy
9.903433 2845.00
10.2077 2846.00
10.512 2685.00
10.8162 2684.00
11.1205 2588.00
11.4247 2419.00
11.729 2388.00
12.0333 2464.00
12.3375 2487.00
12.6418 2186.00
12.946 2208.00
13.2503 2099.00
13.5546 2122.00
13.8588 2221.00
14.1631 2502.00
14.4673 2088.00
14.7716 2231.00
15.0759 2536.00
15.3801 2004.00
15.6844 1958.00
15.9886 1942.00
16.2929 1847.00
16.5972 1816.00
16.9014 2046.00
17.2057 2378.00
17.5099 1868.00
17.8142 2373.00
18.1185 1715.00
18.4227 1717.00
18.727 1707.00
19.0312 1631.00
19.3355 1924.00
19.6398 4814.00
19.944 8113.00
20.2483 1821.00
20.5525 1792.00
20.8568 1682.00
21.1611 1731.00
21.4653 2067.00
21.7696 2187.00
22.0738 1710.00
22.3781 1686.00
22.6824 2048.00
22.9866 1750.00
23.2909 2217.00
23.5951 1459.00
23.8994 1405.00
24.2037 1719.00
24.5079 2758.00
24.8122 2183.00
25.1164 1642.00
25.4207 1711.00
25.725 1424.00
26.0292 1459.00
26.3335 1572.00
26.6378 1870.00
26.942 6097.00
27.2463 1732.00
27.5505 1488.00
27.8548 2166.00
28.1591 3544.00
28.4633 5792.00
28.7676 5463.00
29.0718 1624.00
29.3761 1444.00
29.6804 4607.00
29.9846 1386.00
30.2889 1526.00
30.5931 1827.00
30.8974 1652.00
31.2017 2547.00
31.5059 6142.00
31.8102 5543.00
32.1144 3184.00
32.4187 1483.00
32.723 1349.00
33.0272 1409.00
33.3315 1475.00
33.6357 1695.00
33.94 2200.00
34.2443 7159.00
34.5485 6381.00
34.8528 2966.00
35.157 3305.00
35.4613 1660.00
35.7656 2678.00
36.0698 1459.00
36.3741 1596.00
36.6783 1142.00
36.9826 1113.00
37.2869 1185.00
37.5911 2387.00
37.8954 1116.00
38.1996 1963.00
38.5039 1277.00
38.8082 1223.00
39.1124 1688.00
39.4167 1273.00
39.7209 1197.00
40.0252 1458.00
40.3295 1230.00
40.6337 1092.00
40.938 1257.00
41.2422 2008.00
41.5465 1632.00
41.8508 1660.00
42.155 1319.00
42.4593 1340.00
42.7635 1262.00
43.0678 1007.00
43.3721 974.00
43.6763 1026.00
43.9806 995.00
44.2849 988.00
44.5891 1343.00
44.8934 2184.00
45.1976 1718.00
45.5019 1155.00
45.8062 1424.00
46.1104 1387.00
46.4147 1048.00
46.7189 1188.00
47.0232 1963.00
47.3275 2185.00
47.6317 1269.00
47.936 909.00
48.2402 1125.00
48.5445 1449.00
48.8488 1020.00
49.153 1156.00
49.4573 1480.00
49.7615 2376.00
50.0658 1505.00
50.3701 1504.00
50.6743 2325.00
50.9786 1935.00
51.2828 1685.00
51.5871 1810.00
51.8914 2565.00
52.1956 3173.00
52.4999 1658.00
52.8041 1069.00
53.1084 1141.00
53.4127 1834.00
53.7169 1759.00
54.0212 1265.00
54.3254 1298.00
54.6297 1622.00
54.934 1582.00
55.2382 1394.00
55.5425 1350.00
55.8467 1756.00
56.151 1755.00
56.4553 1271.00
56.7595 1273.00
57.0638 998.00
57.368 1202.00
57.6723 1329.00
57.9766 1450.00
58.2808 1367.00
58.5851 1434.00
58.8893 1340.00
59.1936 1425.00
59.4979 1950.00
59.8021 1730.00
60.1064 1473.00
60.4106 1691.00
60.7149 1533.00
61.0192 1278.00
61.3234 1527.00
61.6277 1472.00
61.932 1549.00
62.2362 1648.00
62.5405 1426.00
62.8447 1225.00
63.149 1300.00
63.4533 1564.00
63.7575 1313.00
64.0618 984.00
64.366 1101.00
64.6703 1268.00
64.9745 1644.00
65.2788 1242.00
65.5831 1126.00
65.8873 1816.00
66.1916 2382.00
66.4959 1667.00
66.8001 1216.00
67.1044 1305.00
67.4086 1067.00
67.7129 929.00
68.0172 851.00
68.3214 915.00
68.6257 1051.00
68.9299 897.00
69.2342 917.00
69.5385 938.00
69.8427 931.00
70.147 900.00
70.4512 825.00
70.7555 823.00
71.0598 900.00
71.364 1075.00
71.6683 1345.00
71.9725 1372.00
72.2768 1098.00
72.5811 1023.00
72.8853 1057.00
73.1896 937.00
73.4938 933.00
73.7981 923.00
74.1024 955.00
74.4066 996.00
74.7109 807.00
75.0151 871.00
75.3194 1013.00
75.6237 1193.00
75.9279 1093.00
76.2322 988.00
76.5364 939.00
76.8407 914.00
77.145 909.00
77.4492 953.00
77.7535 919.00
78.0577 951.00
78.362 958.00
78.6663 899.00
78.9705 1214.00
79.2748 1041.00
79.579 995.00
79.8833 948.00
80.1876 902.00
80.4918 970.00
80.7961 1070.00
81.1003 1007.00
81.4046 989.00
81.7089 851.00
82.0131 898.00
82.3174 1000.00
82.6217 1019.00
82.9259 892.00
83.2302 924.00
83.5344 998.00
83.8387 1190.00
84.143 1142.00
84.4472 979.00
84.7515 982.00
85.0557 955.00
85.36 893.00
85.6643 894.00
85.9685 819.00
86.2728 832.00
86.577 844.00
86.8813 871.00
87.1856 1051.00
87.4898 1169.00
87.7941 1038.00
88.0983 998.00
88.4026 1007.00
88.7069 1128.00
89.0111 1053.00
89.3154 957.00
89.6196 1016.00
89.9239 1199.00
90.2282 1168.00
90.5324 1059.00
90.8367 1056.00
91.1409 1240.00
91.4452 1058.00
91.7495 889.00
92.0537 925.00
92.358 855.00
92.6622 860.00
92.9665 830.00
93.2708 798.00
93.575 1030.00
93.8793 977.00
94.1835 978.00
94.4878 870.00
94.7921 885.00
95.0963 883.00
95.4006 927.00
95.7048 965.00
96.0091 1054.00
96.3134 1098.00
96.6176 1005.00
96.9219 921.00
97.2261 1015.00
97.5304 972.00
97.8347 974.00
98.1389 859.00
98.4432 820.00
98.7474 790.00
99.0517 941.00
99.356 993.00
99.6602 943.00
99.9645 1004.00
100.095 1153.00