File: data/xrd_creation/results/NSC_107.xy
9.903433 2722.00
10.2077 2645.00
10.512 2591.00
10.8162 2448.00
11.1205 2343.00
11.4247 2273.00
11.729 2270.00
12.0333 2116.00
12.3375 1952.00
12.6418 1967.00
12.946 1903.00
13.2503 1862.00
13.5546 1787.00
13.8588 1772.00
14.1631 1798.00
14.4673 2419.00
14.7716 2217.00
15.0759 1656.00
15.3801 1578.00
15.6844 1629.00
15.9886 1589.00
16.2929 1542.00
16.5972 1505.00
16.9014 1523.00
17.2057 1508.00
17.5099 1456.00
17.8142 1461.00
18.1185 1418.00
18.4227 1388.00
18.727 1355.00
19.0312 1373.00
19.3355 1347.00
19.6398 1545.00
19.944 3291.00
20.2483 4239.00
20.5525 1572.00
20.8568 2556.00
21.1611 13792.00
21.4653 1650.00
21.7696 1312.00
22.0738 1339.00
22.3781 1190.00
22.6824 1175.00
22.9866 1133.00
23.2909 1097.00
23.5951 1161.00
23.8994 1469.00
24.2037 3275.00
24.5079 1730.00
24.8122 1121.00
25.1164 1045.00
25.4207 1001.00
25.725 973.00
26.0292 955.00
26.3335 1004.00
26.6378 1025.00
26.942 1333.00
27.2463 889.00
27.5505 849.00
27.8548 921.00
28.1591 886.00
28.4633 897.00
28.7676 1004.00
29.0718 2121.00
29.3761 3011.00
29.6804 933.00
29.9846 846.00
30.2889 855.00
30.5931 833.00
30.8974 816.00
31.2017 885.00
31.5059 930.00
31.8102 1566.00
32.1144 12996.00
32.4187 1111.00
32.723 1808.00
33.0272 815.00
33.3315 829.00
33.6357 763.00
33.94 781.00
34.2443 1136.00
34.5485 854.00
34.8528 703.00
35.157 689.00
35.4613 744.00
35.7656 838.00
36.0698 1241.00
36.3741 2535.00
36.6783 1559.00
36.9826 3306.00
37.2869 774.00
37.5911 645.00
37.8954 600.00
38.1996 659.00
38.5039 663.00
38.8082 907.00
39.1124 613.00
39.4167 578.00
39.7209 602.00
40.0252 567.00
40.3295 628.00
40.6337 1481.00
40.938 591.00
41.2422 564.00
41.5465 599.00
41.8508 622.00
42.155 1623.00
42.4593 781.00
42.7635 1779.00
43.0678 634.00
43.3721 651.00
43.6763 498.00
43.9806 620.00
44.2849 2467.00
44.5891 823.00
44.8934 585.00
45.1976 575.00
45.5019 687.00
45.8062 587.00
46.1104 3077.00
46.4147 639.00
46.7189 523.00
47.0232 561.00
47.3275 749.00
47.6317 3710.00
47.936 623.00
48.2402 532.00
48.5445 562.00
48.8488 758.00
49.153 667.00
49.4573 4028.00
49.7615 825.00
50.0658 515.00
50.3701 768.00
50.6743 579.00
50.9786 503.00
51.2828 458.00
51.5871 497.00
51.8914 568.00
52.1956 871.00
52.4999 4430.00
52.8041 658.00
53.1084 480.00
53.4127 686.00
53.7169 444.00
54.0212 452.00
54.3254 430.00
54.6297 510.00
54.934 486.00
55.2382 492.00
55.5425 557.00
55.8467 1445.00
56.151 547.00
56.4553 503.00
56.7595 572.00
57.0638 2119.00
57.368 1411.00
57.6723 2216.00
57.9766 554.00
58.2808 453.00
58.5851 571.00
58.8893 976.00
59.1936 841.00
59.4979 495.00
59.8021 437.00
60.1064 528.00
60.4106 741.00
60.7149 455.00
61.0192 515.00
61.3234 790.00
61.6277 1626.00
61.932 515.00
62.2362 586.00
62.5405 702.00
62.8447 669.00
63.149 2736.00
63.4533 1280.00
63.7575 509.00
64.0618 441.00
64.366 498.00
64.6703 623.00
64.9745 465.00
65.2788 485.00
65.5831 1010.00
65.8873 1259.00
66.1916 1382.00
66.4959 532.00
66.8001 418.00
67.1044 462.00
67.4086 1553.00
67.7129 755.00
68.0172 501.00
68.3214 431.00
68.6257 386.00
68.9299 406.00
69.2342 381.00
69.5385 606.00
69.8427 1229.00
70.147 489.00
70.4512 353.00
70.7555 377.00
71.0598 490.00
71.364 564.00
71.6683 520.00
71.9725 503.00
72.2768 381.00
72.5811 421.00
72.8853 409.00
73.1896 364.00
73.4938 516.00
73.7981 1032.00
74.1024 455.00
74.4066 361.00
74.7109 370.00
75.0151 464.00
75.3194 1000.00
75.6237 683.00
75.9279 595.00
76.2322 591.00
76.5364 532.00
76.8407 372.00
77.145 350.00
77.4492 410.00
77.7535 502.00
78.0577 790.00
78.362 491.00
78.6663 402.00
78.9705 419.00
79.2748 495.00
79.579 419.00
79.8833 436.00
80.1876 453.00
80.4918 411.00
80.7961 355.00
81.1003 435.00
81.4046 929.00
81.7089 861.00
82.0131 624.00
82.3174 432.00
82.6217 405.00
82.9259 886.00
83.2302 774.00
83.5344 437.00
83.8387 357.00
84.143 352.00
84.4472 334.00
84.7515 331.00
85.0557 421.00
85.36 423.00
85.6643 368.00
85.9685 385.00
86.2728 407.00
86.577 838.00
86.8813 677.00
87.1856 382.00
87.4898 477.00
87.7941 996.00
88.0983 744.00
88.4026 412.00
88.7069 357.00
89.0111 531.00
89.3154 415.00
89.6196 367.00
89.9239 362.00
90.2282 378.00
90.5324 548.00
90.8367 525.00
91.1409 527.00
91.4452 503.00
91.7495 443.00
92.0537 434.00
92.358 399.00
92.6622 857.00
92.9665 777.00
93.2708 479.00
93.575 331.00
93.8793 393.00
94.1835 506.00
94.4878 492.00
94.7921 454.00
95.0963 399.00
95.4006 632.00
95.7048 527.00
96.0091 375.00
96.3134 452.00
96.6176 494.00
96.9219 448.00
97.2261 377.00
97.5304 383.00
97.8347 547.00
98.1389 868.00
98.4432 644.00
98.7474 386.00
99.0517 372.00
99.356 339.00
99.6602 332.00
99.9645 436.00
100.095 603.00