File: data/xrd_creation/results/NSC_215.xy
9.903433 2637.00
10.2077 2600.00
10.512 2577.00
10.8162 2432.00
11.1205 2385.00
11.4247 2311.00
11.729 2177.00
12.0333 2091.00
12.3375 2021.00
12.6418 1929.00
12.946 1979.00
13.2503 1929.00
13.5546 2193.00
13.8588 2193.00
14.1631 1816.00
14.4673 1935.00
14.7716 2482.00
15.0759 1665.00
15.3801 1715.00
15.6844 1689.00
15.9886 1781.00
16.2929 1624.00
16.5972 1609.00
16.9014 1569.00
17.2057 1564.00
17.5099 1673.00
17.8142 1483.00
18.1185 1493.00
18.4227 1565.00
18.727 1579.00
19.0312 2571.00
19.3355 3603.00
19.6398 4271.00
19.944 1647.00
20.2483 1671.00
20.5525 1524.00
20.8568 1644.00
21.1611 2730.00
21.4653 2331.00
21.7696 1418.00
22.0738 1694.00
22.3781 3148.00
22.6824 1564.00
22.9866 1975.00
23.2909 1361.00
23.5951 1340.00
23.8994 1448.00
24.2037 1717.00
24.5079 1490.00
24.8122 1260.00
25.1164 1216.00
25.4207 1174.00
25.725 1347.00
26.0292 1253.00
26.3335 1271.00
26.6378 1230.00
26.942 1269.00
27.2463 1269.00
27.5505 2494.00
27.8548 1919.00
28.1591 2308.00
28.4633 2943.00
28.7676 1197.00
29.0718 1137.00
29.3761 1116.00
29.6804 1079.00
29.9846 1094.00
30.2889 1503.00
30.5931 4705.00
30.8974 2979.00
31.2017 1379.00
31.5059 2296.00
31.8102 2049.00
32.1144 1427.00
32.4187 1187.00
32.723 1414.00
33.0272 1925.00
33.3315 1834.00
33.6357 1780.00
33.94 2582.00
34.2443 3256.00
34.5485 2976.00
34.8528 1257.00
35.157 1072.00
35.4613 1609.00
35.7656 1260.00
36.0698 1300.00
36.3741 1009.00
36.6783 1143.00
36.9826 1078.00
37.2869 989.00
37.5911 913.00
37.8954 869.00
38.1996 873.00
38.5039 998.00
38.8082 1193.00
39.1124 1070.00
39.4167 997.00
39.7209 1253.00
40.0252 1172.00
40.3295 982.00
40.6337 1121.00
40.938 1880.00
41.2422 1469.00
41.5465 1297.00
41.8508 1372.00
42.155 1134.00
42.4593 1063.00
42.7635 997.00
43.0678 1012.00
43.3721 1285.00
43.6763 987.00
43.9806 1184.00
44.2849 1116.00
44.5891 1604.00
44.8934 1482.00
45.1976 1172.00
45.5019 1396.00
45.8062 1548.00
46.1104 1362.00
46.4147 1347.00
46.7189 1968.00
47.0232 1713.00
47.3275 1203.00
47.6317 1006.00
47.936 1008.00
48.2402 1024.00
48.5445 869.00
48.8488 918.00
49.153 1114.00
49.4573 1437.00
49.7615 1097.00
50.0658 1420.00
50.3701 2038.00
50.6743 1893.00
50.9786 1308.00
51.2828 1004.00
51.5871 1085.00
51.8914 1093.00
52.1956 1151.00
52.4999 1148.00
52.8041 1111.00
53.1084 1207.00
53.4127 1620.00
53.7169 2368.00
54.0212 1447.00
54.3254 1219.00
54.6297 1150.00
54.934 1063.00
55.2382 1133.00
55.5425 1315.00
55.8467 1285.00
56.151 1231.00
56.4553 1234.00
56.7595 1009.00
57.0638 1141.00
57.368 1428.00
57.6723 1528.00
57.9766 1185.00
58.2808 1506.00
58.5851 1485.00
58.8893 1384.00
59.1936 1496.00
59.4979 1423.00
59.8021 1234.00
60.1064 1569.00
60.4106 1412.00
60.7149 1202.00
61.0192 1146.00
61.3234 1261.00
61.6277 1661.00
61.932 1330.00
62.2362 1350.00
62.5405 1165.00
62.8447 1204.00
63.149 1124.00
63.4533 1013.00
63.7575 933.00
64.0618 944.00
64.366 1067.00
64.6703 1207.00
64.9745 1156.00
65.2788 1316.00
65.5831 1311.00
65.8873 1318.00
66.1916 1266.00
66.4959 1131.00
66.8001 1108.00
67.1044 952.00
67.4086 868.00
67.7129 880.00
68.0172 824.00
68.3214 860.00
68.6257 962.00
68.9299 1046.00
69.2342 1036.00
69.5385 924.00
69.8427 907.00
70.147 927.00
70.4512 1069.00
70.7555 901.00
71.0598 881.00
71.364 985.00
71.6683 1025.00
71.9725 1085.00
72.2768 1212.00
72.5811 1238.00
72.8853 1089.00
73.1896 908.00
73.4938 888.00
73.7981 905.00
74.1024 979.00
74.4066 971.00
74.7109 970.00
75.0151 938.00
75.3194 970.00
75.6237 1044.00
75.9279 1157.00
76.2322 1075.00
76.5364 1020.00
76.8407 971.00
77.145 890.00
77.4492 904.00
77.7535 882.00
78.0577 914.00
78.362 896.00
78.6663 933.00
78.9705 947.00
79.2748 1010.00
79.579 1043.00
79.8833 963.00
80.1876 876.00
80.4918 932.00
80.7961 972.00
81.1003 955.00
81.4046 894.00
81.7089 894.00
82.0131 979.00
82.3174 992.00
82.6217 1055.00
82.9259 970.00
83.2302 1073.00
83.5344 1024.00
83.8387 973.00
84.143 956.00
84.4472 919.00
84.7515 968.00
85.0557 939.00
85.36 933.00
85.6643 990.00
85.9685 900.00
86.2728 1025.00
86.577 1036.00
86.8813 991.00
87.1856 1024.00
87.4898 971.00
87.7941 991.00
88.0983 948.00
88.4026 903.00
88.7069 1021.00
89.0111 1063.00
89.3154 1000.00
89.6196 1030.00
89.9239 1025.00
90.2282 1028.00
90.5324 1006.00
90.8367 921.00
91.1409 942.00
91.4452 967.00
91.7495 980.00
92.0537 1027.00
92.358 937.00
92.6622 1051.00
92.9665 1085.00
93.2708 939.00
93.575 982.00
93.8793 972.00
94.1835 976.00
94.4878 938.00
94.7921 883.00
95.0963 947.00
95.4006 903.00
95.7048 989.00
96.0091 960.00
96.3134 1001.00
96.6176 992.00
96.9219 1032.00
97.2261 1016.00
97.5304 1010.00
97.8347 1022.00
98.1389 989.00
98.4432 1009.00
98.7474 951.00
99.0517 929.00
99.356 1028.00
99.6602 1156.00
99.9645 1171.00
100.095 1081.00