File: data/xrd_creation/results/NSC_207.xy
9.903433 3098.00
10.2077 2872.00
10.512 2804.00
10.8162 2777.00
11.1205 2768.00
11.4247 2780.00
11.729 2657.00
12.0333 2625.00
12.3375 2554.00
12.6418 2413.00
12.946 2398.00
13.2503 2436.00
13.5546 2318.00
13.8588 2324.00
14.1631 2278.00
14.4673 2218.00
14.7716 2149.00
15.0759 2219.00
15.3801 2237.00
15.6844 2042.00
15.9886 2139.00
16.2929 2076.00
16.5972 2180.00
16.9014 2112.00
17.2057 2136.00
17.5099 2116.00
17.8142 3314.00
18.1185 2092.00
18.4227 2065.00
18.727 1966.00
19.0312 2084.00
19.3355 1992.00
19.6398 2013.00
19.944 1968.00
20.2483 2513.00
20.5525 2242.00
20.8568 2116.00
21.1611 2108.00
21.4653 1993.00
21.7696 1847.00
22.0738 1855.00
22.3781 1843.00
22.6824 1876.00
22.9866 1847.00
23.2909 1881.00
23.5951 1801.00
23.8994 1881.00
24.2037 2559.00
24.5079 5532.00
24.8122 4210.00
25.1164 2152.00
25.4207 1793.00
25.725 1765.00
26.0292 1692.00
26.3335 1666.00
26.6378 2073.00
26.942 1791.00
27.2463 1725.00
27.5505 1810.00
27.8548 2152.00
28.1591 2979.00
28.4633 13889.00
28.7676 11046.00
29.0718 2711.00
29.3761 2044.00
29.6804 1816.00
29.9846 1780.00
30.2889 1797.00
30.5931 1746.00
30.8974 1793.00
31.2017 2088.00
31.5059 2972.00
31.8102 11665.00
32.1144 6692.00
32.4187 2244.00
32.723 1872.00
33.0272 2277.00
33.3315 2080.00
33.6357 1902.00
33.94 1827.00
34.2443 2484.00
34.5485 6554.00
34.8528 5912.00
35.157 2286.00
35.4613 2259.00
35.7656 5752.00
36.0698 2145.00
36.3741 2725.00
36.6783 1529.00
36.9826 1355.00
37.2869 1350.00
37.5911 1347.00
37.8954 1346.00
38.1996 1378.00
38.5039 1385.00
38.8082 1955.00
39.1124 2857.00
39.4167 1532.00
39.7209 1351.00
40.0252 1336.00
40.3295 1461.00
40.6337 1451.00
40.938 2084.00
41.2422 3768.00
41.5465 2361.00
41.8508 2291.00
42.155 1424.00
42.4593 1257.00
42.7635 1174.00
43.0678 1228.00
43.3721 1132.00
43.6763 1112.00
43.9806 1277.00
44.2849 1231.00
44.5891 1174.00
44.8934 1388.00
45.1976 1844.00
45.5019 1856.00
45.8062 1843.00
46.1104 2236.00
46.4147 1253.00
46.7189 1153.00
47.0232 1139.00
47.3275 1169.00
47.6317 1331.00
47.936 1209.00
48.2402 1162.00
48.5445 1278.00
48.8488 1223.00
49.153 1472.00
49.4573 2303.00
49.7615 3987.00
50.0658 2286.00
50.3701 3084.00
50.6743 5472.00
50.9786 3036.00
51.2828 2660.00
51.5871 1725.00
51.8914 1824.00
52.1956 1182.00
52.4999 1144.00
52.8041 1124.00
53.1084 1083.00
53.4127 1087.00
53.7169 1206.00
54.0212 1291.00
54.3254 1846.00
54.6297 2771.00
54.934 1996.00
55.2382 1605.00
55.5425 2018.00
55.8467 3486.00
56.151 3911.00
56.4553 2681.00
56.7595 1929.00
57.0638 1315.00
57.368 1640.00
57.6723 2054.00
57.9766 2100.00
58.2808 1647.00
58.5851 2308.00
58.8893 1945.00
59.1936 1449.00
59.4979 1343.00
59.8021 1417.00
60.1064 1866.00
60.4106 3075.00
60.7149 2459.00
61.0192 1391.00
61.3234 1271.00
61.6277 1567.00
61.932 2202.00
62.2362 2156.00
62.5405 2410.00
62.8447 1842.00
63.149 2037.00
63.4533 2541.00
63.7575 1795.00
64.0618 1097.00
64.366 1164.00
64.6703 1415.00
64.9745 1580.00
65.2788 1284.00
65.5831 1444.00
65.8873 1698.00
66.1916 2108.00
66.4959 2213.00
66.8001 1395.00
67.1044 1106.00
67.4086 981.00
67.7129 976.00
68.0172 1010.00
68.3214 1036.00
68.6257 930.00
68.9299 980.00
69.2342 1186.00
69.5385 1223.00
69.8427 1364.00
70.147 1120.00
70.4512 1184.00
70.7555 1047.00
71.0598 1054.00
71.364 1297.00
71.6683 1585.00
71.9725 1873.00
72.2768 1349.00
72.5811 1298.00
72.8853 1477.00
73.1896 1248.00
73.4938 1194.00
73.7981 984.00
74.1024 1049.00
74.4066 1036.00
74.7109 1027.00
75.0151 1083.00
75.3194 1423.00
75.6237 1476.00
75.9279 1664.00
76.2322 1173.00
76.5364 1193.00
76.8407 1151.00
77.145 1412.00
77.4492 1287.00
77.7535 1181.00
78.0577 1263.00
78.362 1229.00
78.6663 1141.00
78.9705 1206.00
79.2748 1129.00
79.579 1357.00
79.8833 1108.00
80.1876 978.00
80.4918 982.00
80.7961 1005.00
81.1003 995.00
81.4046 1122.00
81.7089 1148.00
82.0131 1192.00
82.3174 1438.00
82.6217 1276.00
82.9259 1258.00
83.2302 1245.00
83.5344 1440.00
83.8387 1568.00
84.143 1542.00
84.4472 1404.00
84.7515 1533.00
85.0557 1471.00
85.36 1149.00
85.6643 1205.00
85.9685 1226.00
86.2728 1096.00
86.577 1100.00
86.8813 1181.00
87.1856 1110.00
87.4898 1036.00
87.7941 1126.00
88.0983 1136.00
88.4026 1387.00
88.7069 1342.00
89.0111 1463.00
89.3154 1531.00
89.6196 1341.00
89.9239 1298.00
90.2282 1342.00
90.5324 1403.00
90.8367 1429.00
91.1409 1043.00
91.4452 1125.00
91.7495 1129.00
92.0537 1065.00
92.358 1058.00
92.6622 1011.00
92.9665 996.00
93.2708 950.00
93.575 934.00
93.8793 1029.00
94.1835 1072.00
94.4878 1034.00
94.7921 1206.00
95.0963 1126.00
95.4006 1188.00
95.7048 1263.00
96.0091 1351.00
96.3134 1315.00
96.6176 1253.00
96.9219 1349.00
97.2261 1436.00
97.5304 1596.00
97.8347 1628.00
98.1389 1280.00
98.4432 1175.00
98.7474 1226.00
99.0517 1382.00
99.356 1317.00
99.6602 1471.00
99.9645 1308.00
100.095 1346.00