File: data/xrd_creation/results/NSC_138.xy
9.903433 2713.00
10.2077 2616.00
10.512 2531.00
10.8162 2481.00
11.1205 2387.00
11.4247 2342.00
11.729 2190.00
12.0333 2148.00
12.3375 2074.00
12.6418 2034.00
12.946 1970.00
13.2503 1907.00
13.5546 1777.00
13.8588 1943.00
14.1631 3299.00
14.4673 1719.00
14.7716 1721.00
15.0759 1626.00
15.3801 1640.00
15.6844 1539.00
15.9886 1568.00
16.2929 1528.00
16.5972 1517.00
16.9014 1474.00
17.2057 1495.00
17.5099 1384.00
17.8142 1446.00
18.1185 1372.00
18.4227 1438.00
18.727 1360.00
19.0312 1334.00
19.3355 1340.00
19.6398 1684.00
19.944 7842.00
20.2483 1728.00
20.5525 1248.00
20.8568 1267.00
21.1611 1337.00
21.4653 1132.00
21.7696 1110.00
22.0738 1124.00
22.3781 1223.00
22.6824 1079.00
22.9866 1183.00
23.2909 2344.00
23.5951 10061.00
23.8994 1249.00
24.2037 2732.00
24.5079 1173.00
24.8122 983.00
25.1164 985.00
25.4207 1043.00
25.725 1017.00
26.0292 942.00
26.3335 971.00
26.6378 964.00
26.942 1002.00
27.2463 944.00
27.5505 871.00
27.8548 996.00
28.1591 1209.00
28.4633 2887.00
28.7676 803.00
29.0718 879.00
29.3761 823.00
29.6804 765.00
29.9846 793.00
30.2889 846.00
30.5931 888.00
30.8974 1226.00
31.2017 3016.00
31.5059 6036.00
31.8102 1800.00
32.1144 867.00
32.4187 700.00
32.723 765.00
33.0272 715.00
33.3315 676.00
33.6357 658.00
33.94 720.00
34.2443 744.00
34.5485 1139.00
34.8528 2042.00
35.157 3110.00
35.4613 706.00
35.7656 658.00
36.0698 606.00
36.3741 568.00
36.6783 612.00
36.9826 611.00
37.2869 522.00
37.5911 561.00
37.8954 587.00
38.1996 574.00
38.5039 560.00
38.8082 498.00
39.1124 567.00
39.4167 552.00
39.7209 542.00
40.0252 608.00
40.3295 599.00
40.6337 897.00
40.938 540.00
41.2422 489.00
41.5465 519.00
41.8508 643.00
42.155 1124.00
42.4593 3353.00
42.7635 573.00
43.0678 708.00
43.3721 542.00
43.6763 499.00
43.9806 471.00
44.2849 449.00
44.5891 460.00
44.8934 527.00
45.1976 2593.00
45.5019 1636.00
45.8062 517.00
46.1104 453.00
46.4147 440.00
46.7189 450.00
47.0232 535.00
47.3275 1614.00
47.6317 2107.00
47.936 1917.00
48.2402 552.00
48.5445 434.00
48.8488 449.00
49.153 551.00
49.4573 1151.00
49.7615 472.00
50.0658 437.00
50.3701 456.00
50.6743 394.00
50.9786 440.00
51.2828 471.00
51.5871 2510.00
51.8914 2127.00
52.1956 436.00
52.4999 389.00
52.8041 589.00
53.1084 451.00
53.4127 424.00
53.7169 462.00
54.0212 516.00
54.3254 988.00
54.6297 1592.00
54.934 422.00
55.2382 387.00
55.5425 393.00
55.8467 515.00
56.151 658.00
56.4553 336.00
56.7595 319.00
57.0638 336.00
57.368 295.00
57.6723 358.00
57.9766 326.00
58.2808 503.00
58.5851 364.00
58.8893 355.00
59.1936 385.00
59.4979 493.00
59.8021 576.00
60.1064 1310.00
60.4106 2800.00
60.7149 468.00
61.0192 389.00
61.3234 407.00
61.6277 526.00
61.932 1044.00
62.2362 458.00
62.5405 1170.00
62.8447 430.00
63.149 356.00
63.4533 1143.00
63.7575 419.00
64.0618 629.00
64.366 371.00
64.6703 323.00
64.9745 340.00
65.2788 295.00
65.5831 420.00
65.8873 285.00
66.1916 612.00
66.4959 496.00
66.8001 584.00
67.1044 501.00
67.4086 692.00
67.7129 1078.00
68.0172 301.00
68.3214 287.00
68.6257 279.00
68.9299 302.00
69.2342 280.00
69.5385 318.00
69.8427 1209.00
70.147 436.00
70.4512 368.00
70.7555 501.00
71.0598 620.00
71.364 495.00
71.6683 264.00
71.9725 246.00
72.2768 317.00
72.5811 360.00
72.8853 284.00
73.1896 323.00
73.4938 1336.00
73.7981 588.00
74.1024 290.00
74.4066 497.00
74.7109 430.00
75.0151 309.00
75.3194 389.00
75.6237 241.00
75.9279 367.00
76.2322 276.00
76.5364 256.00
76.8407 274.00
77.145 273.00
77.4492 379.00
77.7535 328.00
78.0577 208.00
78.362 390.00
78.6663 307.00
78.9705 238.00
79.2748 242.00
79.579 212.00
79.8833 213.00
80.1876 216.00
80.4918 336.00
80.7961 307.00
81.1003 301.00
81.4046 500.00
81.7089 280.00
82.0131 672.00
82.3174 602.00
82.6217 223.00
82.9259 235.00
83.2302 367.00
83.5344 416.00
83.8387 444.00
84.143 310.00
84.4472 268.00
84.7515 399.00
85.0557 287.00
85.36 288.00
85.6643 196.00
85.9685 218.00
86.2728 230.00
86.577 220.00
86.8813 229.00
87.1856 218.00
87.4898 322.00
87.7941 372.00
88.0983 345.00
88.4026 490.00
88.7069 502.00
89.0111 545.00
89.3154 347.00
89.6196 380.00
89.9239 303.00
90.2282 231.00
90.5324 282.00
90.8367 235.00
91.1409 270.00
91.4452 311.00
91.7495 321.00
92.0537 310.00
92.358 411.00
92.6622 296.00
92.9665 232.00
93.2708 212.00
93.575 337.00
93.8793 329.00
94.1835 305.00
94.4878 327.00
94.7921 265.00
95.0963 308.00
95.4006 494.00
95.7048 401.00
96.0091 270.00
96.3134 269.00
96.6176 247.00
96.9219 362.00
97.2261 530.00
97.5304 377.00
97.8347 221.00
98.1389 235.00
98.4432 267.00
98.7474 334.00
99.0517 288.00
99.356 212.00
99.6602 222.00
99.9645 224.00
100.095 248.00