File: data/xrd_creation/results/NSC_36.xy
9.903433 3016.00
10.2077 2964.00
10.512 2877.00
10.8162 2764.00
11.1205 2631.00
11.4247 2482.00
11.729 2562.00
12.0333 2453.00
12.3375 2495.00
12.6418 2496.00
12.946 2700.00
13.2503 2380.00
13.5546 2320.00
13.8588 2667.00
14.1631 2545.00
14.4673 2255.00
14.7716 2422.00
15.0759 2249.00
15.3801 2289.00
15.6844 2232.00
15.9886 2147.00
16.2929 2124.00
16.5972 2247.00
16.9014 2099.00
17.2057 2215.00
17.5099 2103.00
17.8142 2160.00
18.1185 2029.00
18.4227 1975.00
18.727 1959.00
19.0312 2020.00
19.3355 2246.00
19.6398 4675.00
19.944 4153.00
20.2483 2470.00
20.5525 2083.00
20.8568 2360.00
21.1611 2173.00
21.4653 2273.00
21.7696 3033.00
22.0738 2183.00
22.3781 1890.00
22.6824 2120.00
22.9866 2133.00
23.2909 3101.00
23.5951 2102.00
23.8994 1902.00
24.2037 2397.00
24.5079 1987.00
24.8122 2282.00
25.1164 1736.00
25.4207 1761.00
25.725 1705.00
26.0292 1728.00
26.3335 1778.00
26.6378 1689.00
26.942 1684.00
27.2463 1677.00
27.5505 1698.00
27.8548 2508.00
28.1591 2507.00
28.4633 6508.00
28.7676 2019.00
29.0718 1851.00
29.3761 1839.00
29.6804 1692.00
29.9846 1762.00
30.2889 1824.00
30.5931 2495.00
30.8974 12825.00
31.2017 6467.00
31.5059 3163.00
31.8102 4465.00
32.1144 1763.00
32.4187 1612.00
32.723 1553.00
33.0272 1631.00
33.3315 1806.00
33.6357 1551.00
33.94 1698.00
34.2443 2768.00
34.5485 6832.00
34.8528 2260.00
35.157 1785.00
35.4613 2052.00
35.7656 4677.00
36.0698 1492.00
36.3741 1438.00
36.6783 1323.00
36.9826 1341.00
37.2869 1336.00
37.5911 1367.00
37.8954 1695.00
38.1996 1340.00
38.5039 1318.00
38.8082 1483.00
39.1124 1334.00
39.4167 1308.00
39.7209 1324.00
40.0252 1482.00
40.3295 1233.00
40.6337 1281.00
40.938 1622.00
41.2422 1495.00
41.5465 1567.00
41.8508 1728.00
42.155 1979.00
42.4593 1605.00
42.7635 1297.00
43.0678 1264.00
43.3721 1239.00
43.6763 1234.00
43.9806 1217.00
44.2849 1338.00
44.5891 1557.00
44.8934 1675.00
45.1976 1572.00
45.5019 1407.00
45.8062 1767.00
46.1104 1672.00
46.4147 1351.00
46.7189 1687.00
47.0232 2605.00
47.3275 1852.00
47.6317 1300.00
47.936 1296.00
48.2402 1270.00
48.5445 1407.00
48.8488 1344.00
49.153 1449.00
49.4573 2188.00
49.7615 1461.00
50.0658 1256.00
50.3701 2076.00
50.6743 1650.00
50.9786 2091.00
51.2828 5008.00
51.5871 1723.00
51.8914 1235.00
52.1956 1211.00
52.4999 1181.00
52.8041 1280.00
53.1084 1401.00
53.4127 1410.00
53.7169 2073.00
54.0212 1497.00
54.3254 1702.00
54.6297 1397.00
54.934 1253.00
55.2382 1239.00
55.5425 1666.00
55.8467 1544.00
56.151 1606.00
56.4553 1329.00
56.7595 1192.00
57.0638 1174.00
57.368 1292.00
57.6723 1337.00
57.9766 1288.00
58.2808 1381.00
58.5851 1371.00
58.8893 1295.00
59.1936 1477.00
59.4979 2121.00
59.8021 1602.00
60.1064 1624.00
60.4106 1560.00
60.7149 1648.00
61.0192 2750.00
61.3234 1713.00
61.6277 1791.00
61.932 1344.00
62.2362 1493.00
62.5405 1524.00
62.8447 1379.00
63.149 1534.00
63.4533 1143.00
63.7575 1156.00
64.0618 1300.00
64.366 1175.00
64.6703 1142.00
64.9745 1101.00
65.2788 1300.00
65.5831 1307.00
65.8873 1366.00
66.1916 1355.00
66.4959 1280.00
66.8001 1271.00
67.1044 1161.00
67.4086 1033.00
67.7129 1070.00
68.0172 1042.00
68.3214 1238.00
68.6257 1080.00
68.9299 1127.00
69.2342 1131.00
69.5385 1139.00
69.8427 1099.00
70.147 1060.00
70.4512 1008.00
70.7555 1043.00
71.0598 1050.00
71.364 1223.00
71.6683 1124.00
71.9725 1068.00
72.2768 1218.00
72.5811 1223.00
72.8853 1115.00
73.1896 1069.00
73.4938 1033.00
73.7981 1210.00
74.1024 1129.00
74.4066 1013.00
74.7109 1057.00
75.0151 1043.00
75.3194 1239.00
75.6237 1158.00
75.9279 1027.00
76.2322 1013.00
76.5364 1175.00
76.8407 1191.00
77.145 979.00
77.4492 1049.00
77.7535 1078.00
78.0577 1059.00
78.362 1010.00
78.6663 915.00
78.9705 921.00
79.2748 1119.00
79.579 1090.00
79.8833 1012.00
80.1876 1052.00
80.4918 1064.00
80.7961 1267.00
81.1003 1040.00
81.4046 972.00
81.7089 1036.00
82.0131 1200.00
82.3174 1256.00
82.6217 1098.00
82.9259 1068.00
83.2302 1172.00
83.5344 1285.00
83.8387 1056.00
84.143 1078.00
84.4472 1094.00
84.7515 1031.00
85.0557 933.00
85.36 1015.00
85.6643 966.00
85.9685 1212.00
86.2728 1168.00
86.577 988.00
86.8813 957.00
87.1856 1052.00
87.4898 1029.00
87.7941 1049.00
88.0983 1104.00
88.4026 1106.00
88.7069 1182.00
89.0111 1078.00
89.3154 1001.00
89.6196 1052.00
89.9239 1159.00
90.2282 1121.00
90.5324 996.00
90.8367 1064.00
91.1409 1026.00
91.4452 1005.00
91.7495 971.00
92.0537 955.00
92.358 1002.00
92.6622 1098.00
92.9665 1034.00
93.2708 944.00
93.575 995.00
93.8793 1050.00
94.1835 1002.00
94.4878 1011.00
94.7921 996.00
95.0963 1043.00
95.4006 1136.00
95.7048 1085.00
96.0091 985.00
96.3134 988.00
96.6176 1246.00
96.9219 1177.00
97.2261 1123.00
97.5304 950.00
97.8347 1045.00
98.1389 1020.00
98.4432 978.00
98.7474 1023.00
99.0517 1077.00
99.356 1090.00
99.6602 1133.00
99.9645 1033.00
100.095 985.00