File: data/xrd_creation/results/NSC_174.xy
9.903433 2638.00
10.2077 2432.00
10.512 2371.00
10.8162 2213.00
11.1205 2152.00
11.4247 2064.00
11.729 2023.00
12.0333 1928.00
12.3375 1885.00
12.6418 1774.00
12.946 1818.00
13.2503 1715.00
13.5546 1637.00
13.8588 1689.00
14.1631 1623.00
14.4673 1556.00
14.7716 1759.00
15.0759 3725.00
15.3801 1521.00
15.6844 1434.00
15.9886 1513.00
16.2929 1477.00
16.5972 1323.00
16.9014 1382.00
17.2057 1381.00
17.5099 1301.00
17.8142 1313.00
18.1185 1233.00
18.4227 1201.00
18.727 1251.00
19.0312 1260.00
19.3355 1208.00
19.6398 1193.00
19.944 1159.00
20.2483 1191.00
20.5525 1664.00
20.8568 8502.00
21.1611 1435.00
21.4653 2375.00
21.7696 8980.00
22.0738 1309.00
22.3781 1036.00
22.6824 1112.00
22.9866 991.00
23.2909 980.00
23.5951 1009.00
23.8994 978.00
24.2037 1052.00
24.5079 1131.00
24.8122 3665.00
25.1164 14672.00
25.4207 1249.00
25.725 947.00
26.0292 1114.00
26.3335 2921.00
26.6378 934.00
26.942 811.00
27.2463 845.00
27.5505 884.00
27.8548 815.00
28.1591 806.00
28.4633 810.00
28.7676 759.00
29.0718 801.00
29.3761 790.00
29.6804 893.00
29.9846 3348.00
30.2889 2137.00
30.5931 837.00
30.8974 736.00
31.2017 701.00
31.5059 691.00
31.8102 682.00
32.1144 724.00
32.4187 764.00
32.723 908.00
33.0272 4662.00
33.3315 3911.00
33.6357 1802.00
33.94 744.00
34.2443 878.00
34.5485 695.00
34.8528 645.00
35.157 611.00
35.4613 671.00
35.7656 845.00
36.0698 633.00
36.3741 725.00
36.6783 646.00
36.9826 669.00
37.2869 1399.00
37.5911 1673.00
37.8954 2617.00
38.1996 762.00
38.5039 869.00
38.8082 600.00
39.1124 594.00
39.4167 551.00
39.7209 730.00
40.0252 670.00
40.3295 562.00
40.6337 552.00
40.938 548.00
41.2422 522.00
41.5465 554.00
41.8508 682.00
42.155 989.00
42.4593 571.00
42.7635 524.00
43.0678 437.00
43.3721 544.00
43.6763 1555.00
43.9806 648.00
44.2849 549.00
44.5891 886.00
44.8934 535.00
45.1976 547.00
45.5019 952.00
45.8062 1185.00
46.1104 558.00
46.4147 576.00
46.7189 515.00
47.0232 482.00
47.3275 690.00
47.6317 3032.00
47.936 650.00
48.2402 529.00
48.5445 574.00
48.8488 1351.00
49.153 876.00
49.4573 835.00
49.7615 481.00
50.0658 476.00
50.3701 583.00
50.6743 1392.00
50.9786 3592.00
51.2828 743.00
51.5871 752.00
51.8914 754.00
52.1956 434.00
52.4999 456.00
52.8041 485.00
53.1084 424.00
53.4127 514.00
53.7169 521.00
54.0212 616.00
54.3254 2364.00
54.6297 808.00
54.934 1278.00
55.2382 574.00
55.5425 482.00
55.8467 444.00
56.151 504.00
56.4553 495.00
56.7595 434.00
57.0638 482.00
57.368 809.00
57.6723 1196.00
57.9766 543.00
58.2808 580.00
58.5851 1324.00
58.8893 2210.00
59.1936 1617.00
59.4979 574.00
59.8021 511.00
60.1064 743.00
60.4106 815.00
60.7149 647.00
61.0192 457.00
61.3234 619.00
61.6277 644.00
61.932 732.00
62.2362 916.00
62.5405 458.00
62.8447 418.00
63.149 521.00
63.4533 1344.00
63.7575 1041.00
64.0618 661.00
64.366 599.00
64.6703 1004.00
64.9745 1599.00
65.2788 604.00
65.5831 596.00
65.8873 1393.00
66.1916 794.00
66.4959 629.00
66.8001 635.00
67.1044 632.00
67.4086 780.00
67.7129 1097.00
68.0172 975.00
68.3214 538.00
68.6257 483.00
68.9299 846.00
69.2342 684.00
69.5385 429.00
69.8427 576.00
70.147 1146.00
70.4512 549.00
70.7555 406.00
71.0598 467.00
71.364 481.00
71.6683 665.00
71.9725 666.00
72.2768 553.00
72.5811 412.00
72.8853 457.00
73.1896 559.00
73.4938 760.00
73.7981 528.00
74.1024 506.00
74.4066 424.00
74.7109 404.00
75.0151 451.00
75.3194 559.00
75.6237 757.00
75.9279 833.00
76.2322 437.00
76.5364 460.00
76.8407 453.00
77.145 523.00
77.4492 432.00
77.7535 449.00
78.0577 550.00
78.362 742.00
78.6663 487.00
78.9705 429.00
79.2748 449.00
79.579 596.00
79.8833 860.00
80.1876 899.00
80.4918 684.00
80.7961 585.00
81.1003 453.00
81.4046 403.00
81.7089 443.00
82.0131 498.00
82.3174 558.00
82.6217 411.00
82.9259 362.00
83.2302 339.00
83.5344 414.00
83.8387 640.00
84.143 682.00
84.4472 477.00
84.7515 390.00
85.0557 396.00
85.36 469.00
85.6643 434.00
85.9685 538.00
86.2728 681.00
86.577 491.00
86.8813 369.00
87.1856 393.00
87.4898 307.00
87.7941 349.00
88.0983 374.00
88.4026 418.00
88.7069 437.00
89.0111 551.00
89.3154 596.00
89.6196 523.00
89.9239 419.00
90.2282 467.00
90.5324 551.00
90.8367 707.00
91.1409 601.00
91.4452 611.00
91.7495 588.00
92.0537 603.00
92.358 526.00
92.6622 436.00
92.9665 426.00
93.2708 373.00
93.575 387.00
93.8793 468.00
94.1835 475.00
94.4878 421.00
94.7921 462.00
95.0963 427.00
95.4006 435.00
95.7048 650.00
96.0091 759.00
96.3134 573.00
96.6176 409.00
96.9219 374.00
97.2261 407.00
97.5304 491.00
97.8347 552.00
98.1389 558.00
98.4432 504.00
98.7474 414.00
99.0517 414.00
99.356 471.00
99.6602 496.00
99.9645 474.00
100.095 505.00