File: data/xrd_creation/results/NSC_158.xy
9.903433 2627.00
10.2077 2513.00
10.512 2566.00
10.8162 2342.00
11.1205 2176.00
11.4247 2096.00
11.729 2168.00
12.0333 2000.00
12.3375 2028.00
12.6418 1885.00
12.946 1825.00
13.2503 1801.00
13.5546 1678.00
13.8588 1632.00
14.1631 1574.00
14.4673 1568.00
14.7716 1476.00
15.0759 1519.00
15.3801 1510.00
15.6844 1536.00
15.9886 1393.00
16.2929 1400.00
16.5972 1375.00
16.9014 1418.00
17.2057 1435.00
17.5099 1361.00
17.8142 1334.00
18.1185 1305.00
18.4227 1322.00
18.727 1428.00
19.0312 1373.00
19.3355 1292.00
19.6398 1250.00
19.944 1355.00
20.2483 1568.00
20.5525 1734.00
20.8568 3643.00
21.1611 3721.00
21.4653 1355.00
21.7696 1346.00
22.0738 1345.00
22.3781 1267.00
22.6824 1291.00
22.9866 1339.00
23.2909 1814.00
23.5951 1485.00
23.8994 1232.00
24.2037 1681.00
24.5079 1274.00
24.8122 1152.00
25.1164 1291.00
25.4207 1176.00
25.725 1204.00
26.0292 1156.00
26.3335 1209.00
26.6378 1151.00
26.942 1201.00
27.2463 1202.00
27.5505 1101.00
27.8548 994.00
28.1591 1061.00
28.4633 1084.00
28.7676 979.00
29.0718 1061.00
29.3761 1195.00
29.6804 1367.00
29.9846 1059.00
30.2889 987.00
30.5931 1076.00
30.8974 1074.00
31.2017 1066.00
31.5059 1060.00
31.8102 1045.00
32.1144 994.00
32.4187 1121.00
32.723 1177.00
33.0272 1046.00
33.3315 1212.00
33.6357 1216.00
33.94 1496.00
34.2443 7587.00
34.5485 17489.00
34.8528 2601.00
35.157 1372.00
35.4613 1203.00
35.7656 1312.00
36.0698 2411.00
36.3741 1457.00
36.6783 1142.00
36.9826 1201.00
37.2869 1163.00
37.5911 1011.00
37.8954 988.00
38.1996 1034.00
38.5039 1158.00
38.8082 1022.00
39.1124 967.00
39.4167 972.00
39.7209 937.00
40.0252 933.00
40.3295 1004.00
40.6337 1072.00
40.938 983.00
41.2422 906.00
41.5465 928.00
41.8508 903.00
42.155 1103.00
42.4593 1633.00
42.7635 1391.00
43.0678 978.00
43.3721 898.00
43.6763 889.00
43.9806 914.00
44.2849 848.00
44.5891 893.00
44.8934 820.00
45.1976 808.00
45.5019 818.00
45.8062 883.00
46.1104 763.00
46.4147 791.00
46.7189 757.00
47.0232 785.00
47.3275 891.00
47.6317 857.00
47.936 919.00
48.2402 928.00
48.5445 826.00
48.8488 900.00
49.153 1574.00
49.4573 3701.00
49.7615 1783.00
50.0658 1067.00
50.3701 868.00
50.6743 833.00
50.9786 927.00
51.2828 865.00
51.5871 775.00
51.8914 859.00
52.1956 959.00
52.4999 988.00
52.8041 886.00
53.1084 832.00
53.4127 862.00
53.7169 923.00
54.0212 984.00
54.3254 1177.00
54.6297 947.00
54.934 871.00
55.2382 865.00
55.5425 1023.00
55.8467 1231.00
56.151 909.00
56.4553 891.00
56.7595 951.00
57.0638 896.00
57.368 847.00
57.6723 803.00
57.9766 836.00
58.2808 836.00
58.5851 743.00
58.8893 792.00
59.1936 843.00
59.4979 835.00
59.8021 888.00
60.1064 891.00
60.4106 914.00
60.7149 886.00
61.0192 1197.00
61.3234 2187.00
61.6277 4801.00
61.932 1943.00
62.2362 1197.00
62.5405 959.00
62.8447 885.00
63.149 887.00
63.4533 856.00
63.7575 810.00
64.0618 886.00
64.366 880.00
64.6703 937.00
64.9745 900.00
65.2788 979.00
65.5831 1065.00
65.8873 1242.00
66.1916 954.00
66.4959 872.00
66.8001 892.00
67.1044 787.00
67.4086 753.00
67.7129 773.00
68.0172 781.00
68.3214 809.00
68.6257 773.00
68.9299 729.00
69.2342 744.00
69.5385 699.00
69.8427 706.00
70.147 738.00
70.4512 661.00
70.7555 674.00
71.0598 660.00
71.364 689.00
71.6683 668.00
71.9725 771.00
72.2768 940.00
72.5811 1240.00
72.8853 753.00
73.1896 667.00
73.4938 677.00
73.7981 654.00
74.1024 661.00
74.4066 621.00
74.7109 607.00
75.0151 619.00
75.3194 645.00
75.6237 684.00
75.9279 686.00
76.2322 724.00
76.5364 722.00
76.8407 708.00
77.145 652.00
77.4492 644.00
77.7535 660.00
78.0577 592.00
78.362 645.00
78.6663 611.00
78.9705 635.00
79.2748 663.00
79.579 576.00
79.8833 616.00
80.1876 635.00
80.4918 624.00
80.7961 628.00
81.1003 598.00
81.4046 638.00
81.7089 635.00
82.0131 760.00
82.3174 939.00
82.6217 1599.00
82.9259 1381.00
83.2302 847.00
83.5344 747.00
83.8387 669.00
84.143 617.00
84.4472 598.00
84.7515 580.00
85.0557 539.00
85.36 603.00
85.6643 619.00
85.9685 605.00
86.2728 594.00
86.577 606.00
86.8813 590.00
87.1856 591.00
87.4898 617.00
87.7941 600.00
88.0983 570.00
88.4026 540.00
88.7069 564.00
89.0111 626.00
89.3154 545.00
89.6196 617.00
89.9239 560.00
90.2282 581.00
90.5324 529.00
90.8367 549.00
91.1409 539.00
91.4452 543.00
91.7495 527.00
92.0537 584.00
92.358 599.00
92.6622 783.00
92.9665 753.00
93.2708 578.00
93.575 588.00
93.8793 572.00
94.1835 531.00
94.4878 513.00
94.7921 513.00
95.0963 567.00
95.4006 544.00
95.7048 557.00
96.0091 611.00
96.3134 599.00
96.6176 586.00
96.9219 564.00
97.2261 577.00
97.5304 512.00
97.8347 628.00
98.1389 516.00
98.4432 535.00
98.7474 563.00
99.0517 557.00
99.356 596.00
99.6602 600.00
99.9645 528.00
100.095 611.00