File: data/xrd_creation/results/NSC_56.xy
9.903433 2604.00
10.2077 2440.00
10.512 2419.00
10.8162 2236.00
11.1205 2134.00
11.4247 2112.00
11.729 2078.00
12.0333 1868.00
12.3375 1838.00
12.6418 1755.00
12.946 1711.00
13.2503 1702.00
13.5546 1528.00
13.8588 1535.00
14.1631 1475.00
14.4673 1422.00
14.7716 1390.00
15.0759 1425.00
15.3801 1307.00
15.6844 1292.00
15.9886 1205.00
16.2929 1232.00
16.5972 1114.00
16.9014 1228.00
17.2057 1192.00
17.5099 1105.00
17.8142 1064.00
18.1185 1086.00
18.4227 1085.00
18.727 1025.00
19.0312 956.00
19.3355 963.00
19.6398 937.00
19.944 948.00
20.2483 894.00
20.5525 970.00
20.8568 882.00
21.1611 828.00
21.4653 855.00
21.7696 853.00
22.0738 751.00
22.3781 804.00
22.6824 798.00
22.9866 793.00
23.2909 696.00
23.5951 743.00
23.8994 709.00
24.2037 768.00
24.5079 704.00
24.8122 684.00
25.1164 705.00
25.4207 660.00
25.725 675.00
26.0292 612.00
26.3335 645.00
26.6378 643.00
26.942 652.00
27.2463 622.00
27.5505 598.00
27.8548 534.00
28.1591 622.00
28.4633 536.00
28.7676 593.00
29.0718 542.00
29.3761 581.00
29.6804 538.00
29.9846 547.00
30.2889 515.00
30.5931 507.00
30.8974 524.00
31.2017 528.00
31.5059 521.00
31.8102 516.00
32.1144 460.00
32.4187 531.00
32.723 495.00
33.0272 448.00
33.3315 431.00
33.6357 399.00
33.94 489.00
34.2443 467.00
34.5485 421.00
34.8528 437.00
35.157 457.00
35.4613 424.00
35.7656 386.00
36.0698 395.00
36.3741 394.00
36.6783 416.00
36.9826 397.00
37.2869 368.00
37.5911 376.00
37.8954 496.00
38.1996 391.00
38.5039 370.00
38.8082 356.00
39.1124 377.00
39.4167 329.00
39.7209 347.00
40.0252 336.00
40.3295 377.00
40.6337 285.00
40.938 344.00
41.2422 339.00
41.5465 325.00
41.8508 333.00
42.155 317.00
42.4593 306.00
42.7635 307.00
43.0678 315.00
43.3721 343.00
43.6763 298.00
43.9806 332.00
44.2849 325.00
44.5891 308.00
44.8934 308.00
45.1976 261.00
45.5019 258.00
45.8062 287.00
46.1104 284.00
46.4147 266.00
46.7189 278.00
47.0232 320.00
47.3275 257.00
47.6317 265.00
47.936 234.00
48.2402 233.00
48.5445 284.00
48.8488 299.00
49.153 269.00
49.4573 248.00
49.7615 232.00
50.0658 268.00
50.3701 272.00
50.6743 265.00
50.9786 240.00
51.2828 226.00
51.5871 299.00
51.8914 259.00
52.1956 216.00
52.4999 245.00
52.8041 258.00
53.1084 227.00
53.4127 214.00
53.7169 200.00
54.0212 223.00
54.3254 242.00
54.6297 220.00
54.934 215.00
55.2382 217.00
55.5425 226.00
55.8467 191.00
56.151 229.00
56.4553 208.00
56.7595 168.00
57.0638 197.00
57.368 214.00
57.6723 230.00
57.9766 205.00
58.2808 214.00
58.5851 234.00
58.8893 174.00
59.1936 215.00
59.4979 198.00
59.8021 188.00
60.1064 205.00
60.4106 176.00
60.7149 182.00
61.0192 196.00
61.3234 178.00
61.6277 190.00
61.932 192.00
62.2362 187.00
62.5405 198.00
62.8447 188.00
63.149 193.00
63.4533 155.00
63.7575 202.00
64.0618 207.00
64.366 225.00
64.6703 210.00
64.9745 198.00
65.2788 204.00
65.5831 159.00
65.8873 151.00
66.1916 207.00
66.4959 171.00
66.8001 188.00
67.1044 175.00
67.4086 198.00
67.7129 159.00
68.0172 176.00
68.3214 175.00
68.6257 207.00
68.9299 184.00
69.2342 181.00
69.5385 135.00
69.8427 193.00
70.147 178.00
70.4512 184.00
70.7555 190.00
71.0598 191.00
71.364 184.00
71.6683 188.00
71.9725 177.00
72.2768 177.00
72.5811 178.00
72.8853 183.00
73.1896 176.00
73.4938 209.00
73.7981 184.00
74.1024 176.00
74.4066 204.00
74.7109 184.00
75.0151 209.00
75.3194 182.00
75.6237 198.00
75.9279 185.00
76.2322 199.00
76.5364 197.00
76.8407 179.00
77.145 202.00
77.4492 200.00
77.7535 211.00
78.0577 201.00
78.362 194.00
78.6663 216.00
78.9705 182.00
79.2748 204.00
79.579 207.00
79.8833 190.00
80.1876 220.00
80.4918 210.00
80.7961 201.00
81.1003 226.00
81.4046 205.00
81.7089 246.00
82.0131 223.00
82.3174 224.00
82.6217 178.00
82.9259 204.00
83.2302 201.00
83.5344 207.00
83.8387 219.00
84.143 183.00
84.4472 204.00
84.7515 198.00
85.0557 194.00
85.36 208.00
85.6643 217.00
85.9685 218.00
86.2728 198.00
86.577 174.00
86.8813 209.00
87.1856 178.00
87.4898 188.00
87.7941 201.00
88.0983 184.00
88.4026 203.00
88.7069 191.00
89.0111 193.00
89.3154 184.00
89.6196 183.00
89.9239 203.00
90.2282 185.00
90.5324 161.00
90.8367 193.00
91.1409 205.00
91.4452 157.00
91.7495 166.00
92.0537 178.00
92.358 167.00
92.6622 180.00
92.9665 183.00
93.2708 184.00
93.575 159.00
93.8793 151.00
94.1835 171.00
94.4878 191.00
94.7921 176.00
95.0963 173.00
95.4006 167.00
95.7048 157.00
96.0091 157.00
96.3134 181.00
96.6176 162.00
96.9219 168.00
97.2261 131.00
97.5304 187.00
97.8347 190.00
98.1389 175.00
98.4432 189.00
98.7474 181.00
99.0517 185.00
99.356 161.00
99.6602 190.00
99.9645 184.00
100.095 160.00