File: data/xrd_creation/results/NSC_205.xy
9.903433 2644.00
10.2077 2687.00
10.512 2525.00
10.8162 2469.00
11.1205 2315.00
11.4247 2271.00
11.729 2115.00
12.0333 2155.00
12.3375 1997.00
12.6418 2007.00
12.946 1967.00
13.2503 1866.00
13.5546 1951.00
13.8588 2348.00
14.1631 1803.00
14.4673 1762.00
14.7716 1910.00
15.0759 1670.00
15.3801 1700.00
15.6844 1638.00
15.9886 1667.00
16.2929 1714.00
16.5972 1633.00
16.9014 1621.00
17.2057 1615.00
17.5099 1630.00
17.8142 1610.00
18.1185 1423.00
18.4227 1441.00
18.727 1452.00
19.0312 1585.00
19.3355 2964.00
19.6398 4915.00
19.944 1691.00
20.2483 1444.00
20.5525 1465.00
20.8568 1649.00
21.1611 1524.00
21.4653 1740.00
21.7696 1424.00
22.0738 1319.00
22.3781 1665.00
22.6824 1569.00
22.9866 1981.00
23.2909 1325.00
23.5951 1307.00
23.8994 1350.00
24.2037 1552.00
24.5079 1352.00
24.8122 1341.00
25.1164 1134.00
25.4207 1116.00
25.725 1174.00
26.0292 1123.00
26.3335 1135.00
26.6378 1109.00
26.942 1121.00
27.2463 1128.00
27.5505 1425.00
27.8548 2864.00
28.1591 1746.00
28.4633 3217.00
28.7676 1408.00
29.0718 1101.00
29.3761 1095.00
29.6804 1092.00
29.9846 1087.00
30.2889 1269.00
30.5931 1734.00
30.8974 3764.00
31.2017 2979.00
31.5059 1861.00
31.8102 2590.00
32.1144 1286.00
32.4187 1124.00
32.723 999.00
33.0272 1154.00
33.3315 1355.00
33.6357 1218.00
33.94 1497.00
34.2443 4700.00
34.5485 2770.00
34.8528 1418.00
35.157 1106.00
35.4613 1231.00
35.7656 1252.00
36.0698 1095.00
36.3741 938.00
36.6783 887.00
36.9826 956.00
37.2869 861.00
37.5911 832.00
37.8954 835.00
38.1996 862.00
38.5039 869.00
38.8082 969.00
39.1124 958.00
39.4167 1040.00
39.7209 962.00
40.0252 968.00
40.3295 868.00
40.6337 884.00
40.938 1069.00
41.2422 1279.00
41.5465 1263.00
41.8508 1314.00
42.155 1165.00
42.4593 924.00
42.7635 826.00
43.0678 869.00
43.3721 906.00
43.6763 912.00
43.9806 860.00
44.2849 1064.00
44.5891 1600.00
44.8934 1310.00
45.1976 976.00
45.5019 910.00
45.8062 1086.00
46.1104 996.00
46.4147 1120.00
46.7189 1592.00
47.0232 2078.00
47.3275 1072.00
47.6317 871.00
47.936 800.00
48.2402 895.00
48.5445 864.00
48.8488 881.00
49.153 1069.00
49.4573 1125.00
49.7615 1181.00
50.0658 922.00
50.3701 1047.00
50.6743 1735.00
50.9786 1783.00
51.2828 1256.00
51.5871 972.00
51.8914 918.00
52.1956 877.00
52.4999 841.00
52.8041 809.00
53.1084 1003.00
53.4127 1685.00
53.7169 1660.00
54.0212 1041.00
54.3254 990.00
54.6297 1035.00
54.934 910.00
55.2382 922.00
55.5425 1008.00
55.8467 1144.00
56.151 923.00
56.4553 1031.00
56.7595 851.00
57.0638 817.00
57.368 961.00
57.6723 1102.00
57.9766 963.00
58.2808 977.00
58.5851 1100.00
58.8893 1270.00
59.1936 1551.00
59.4979 1552.00
59.8021 974.00
60.1064 990.00
60.4106 1182.00
60.7149 1069.00
61.0192 1039.00
61.3234 1393.00
61.6277 1111.00
61.932 991.00
62.2362 1004.00
62.5405 1143.00
62.8447 1063.00
63.149 1078.00
63.4533 970.00
63.7575 804.00
64.0618 713.00
64.366 833.00
64.6703 877.00
64.9745 968.00
65.2788 926.00
65.5831 918.00
65.8873 1019.00
66.1916 1300.00
66.4959 1247.00
66.8001 1017.00
67.1044 803.00
67.4086 775.00
67.7129 677.00
68.0172 775.00
68.3214 802.00
68.6257 940.00
68.9299 951.00
69.2342 798.00
69.5385 849.00
69.8427 829.00
70.147 747.00
70.4512 812.00
70.7555 782.00
71.0598 780.00
71.364 741.00
71.6683 906.00
71.9725 868.00
72.2768 1100.00
72.5811 952.00
72.8853 836.00
73.1896 871.00
73.4938 876.00
73.7981 788.00
74.1024 777.00
74.4066 774.00
74.7109 704.00
75.0151 730.00
75.3194 869.00
75.6237 923.00
75.9279 1000.00
76.2322 850.00
76.5364 829.00
76.8407 796.00
77.145 962.00
77.4492 733.00
77.7535 702.00
78.0577 749.00
78.362 746.00
78.6663 771.00
78.9705 725.00
79.2748 761.00
79.579 783.00
79.8833 856.00
80.1876 824.00
80.4918 961.00
80.7961 898.00
81.1003 761.00
81.4046 705.00
81.7089 797.00
82.0131 810.00
82.3174 890.00
82.6217 799.00
82.9259 765.00
83.2302 795.00
83.5344 788.00
83.8387 759.00
84.143 778.00
84.4472 764.00
84.7515 731.00
85.0557 739.00
85.36 733.00
85.6643 776.00
85.9685 798.00
86.2728 802.00
86.577 848.00
86.8813 932.00
87.1856 944.00
87.4898 884.00
87.7941 797.00
88.0983 788.00
88.4026 807.00
88.7069 780.00
89.0111 878.00
89.3154 820.00
89.6196 799.00
89.9239 771.00
90.2282 822.00
90.5324 930.00
90.8367 842.00
91.1409 803.00
91.4452 751.00
91.7495 786.00
92.0537 842.00
92.358 784.00
92.6622 762.00
92.9665 780.00
93.2708 791.00
93.575 832.00
93.8793 851.00
94.1835 821.00
94.4878 771.00
94.7921 778.00
95.0963 801.00
95.4006 756.00
95.7048 868.00
96.0091 843.00
96.3134 856.00
96.6176 808.00
96.9219 777.00
97.2261 799.00
97.5304 831.00
97.8347 855.00
98.1389 799.00
98.4432 737.00
98.7474 677.00
99.0517 798.00
99.356 875.00
99.6602 873.00
99.9645 897.00
100.095 1049.00