File: data/xrd_creation/results/NSC_93.xy
9.903433 2898.00
10.2077 2613.00
10.512 2480.00
10.8162 2377.00
11.1205 2371.00
11.4247 2187.00
11.729 2152.00
12.0333 2035.00
12.3375 2053.00
12.6418 1913.00
12.946 1847.00
13.2503 1813.00
13.5546 1829.00
13.8588 1764.00
14.1631 2022.00
14.4673 2327.00
14.7716 1688.00
15.0759 1671.00
15.3801 1457.00
15.6844 1542.00
15.9886 1572.00
16.2929 1526.00
16.5972 1520.00
16.9014 1476.00
17.2057 1481.00
17.5099 1424.00
17.8142 1396.00
18.1185 1343.00
18.4227 1427.00
18.727 1342.00
19.0312 1388.00
19.3355 1416.00
19.6398 2103.00
19.944 3930.00
20.2483 1621.00
20.5525 1616.00
20.8568 4158.00
21.1611 3407.00
21.4653 1297.00
21.7696 1216.00
22.0738 1196.00
22.3781 1220.00
22.6824 1184.00
22.9866 1110.00
23.2909 1077.00
23.5951 1116.00
23.8994 1911.00
24.2037 2893.00
24.5079 1121.00
24.8122 994.00
25.1164 958.00
25.4207 980.00
25.725 967.00
26.0292 916.00
26.3335 913.00
26.6378 1427.00
26.942 1058.00
27.2463 874.00
27.5505 869.00
27.8548 883.00
28.1591 861.00
28.4633 836.00
28.7676 1345.00
29.0718 3081.00
29.3761 1141.00
29.6804 775.00
29.9846 714.00
30.2889 701.00
30.5931 788.00
30.8974 825.00
31.2017 781.00
31.5059 1072.00
31.8102 3837.00
32.1144 2618.00
32.4187 1106.00
32.723 917.00
33.0272 727.00
33.3315 720.00
33.6357 688.00
33.94 1296.00
34.2443 1017.00
34.5485 671.00
34.8528 649.00
35.157 638.00
35.4613 595.00
35.7656 849.00
36.0698 1836.00
36.3741 1127.00
36.6783 2303.00
36.9826 1099.00
37.2869 677.00
37.5911 653.00
37.8954 708.00
38.1996 698.00
38.5039 629.00
38.8082 672.00
39.1124 586.00
39.4167 566.00
39.7209 505.00
40.0252 513.00
40.3295 708.00
40.6337 689.00
40.938 502.00
41.2422 563.00
41.5465 557.00
41.8508 751.00
42.155 1000.00
42.4593 772.00
42.7635 907.00
43.0678 629.00
43.3721 546.00
43.6763 578.00
43.9806 796.00
44.2849 1222.00
44.5891 586.00
44.8934 492.00
45.1976 618.00
45.5019 514.00
45.8062 904.00
46.1104 1121.00
46.4147 493.00
46.7189 463.00
47.0232 548.00
47.3275 1457.00
47.6317 1239.00
47.936 525.00
48.2402 433.00
48.5445 541.00
48.8488 560.00
49.153 1002.00
49.4573 1856.00
49.7615 563.00
50.0658 559.00
50.3701 602.00
50.6743 419.00
50.9786 405.00
51.2828 454.00
51.5871 548.00
51.8914 999.00
52.1956 1359.00
52.4999 1580.00
52.8041 528.00
53.1084 506.00
53.4127 456.00
53.7169 446.00
54.0212 414.00
54.3254 389.00
54.6297 450.00
54.934 563.00
55.2382 451.00
55.5425 558.00
55.8467 778.00
56.151 429.00
56.4553 504.00
56.7595 725.00
57.0638 1298.00
57.368 1571.00
57.6723 1016.00
57.9766 516.00
58.2808 444.00
58.5851 591.00
58.8893 788.00
59.1936 501.00
59.4979 394.00
59.8021 362.00
60.1064 546.00
60.4106 464.00
60.7149 430.00
61.0192 488.00
61.3234 1187.00
61.6277 708.00
61.932 495.00
62.2362 551.00
62.5405 523.00
62.8447 1009.00
63.149 1605.00
63.4533 623.00
63.7575 409.00
64.0618 370.00
64.366 487.00
64.6703 493.00
64.9745 539.00
65.2788 504.00
65.5831 967.00
65.8873 924.00
66.1916 860.00
66.4959 422.00
66.8001 456.00
67.1044 587.00
67.4086 843.00
67.7129 446.00
68.0172 392.00
68.3214 335.00
68.6257 346.00
68.9299 356.00
69.2342 395.00
69.5385 772.00
69.8427 744.00
70.147 411.00
70.4512 338.00
70.7555 367.00
71.0598 457.00
71.364 551.00
71.6683 424.00
71.9725 395.00
72.2768 367.00
72.5811 343.00
72.8853 321.00
73.1896 404.00
73.4938 593.00
73.7981 610.00
74.1024 391.00
74.4066 359.00
74.7109 307.00
75.0151 436.00
75.3194 635.00
75.6237 517.00
75.9279 459.00
76.2322 451.00
76.5364 380.00
76.8407 315.00
77.145 311.00
77.4492 382.00
77.7535 550.00
78.0577 540.00
78.362 423.00
78.6663 376.00
78.9705 478.00
79.2748 401.00
79.579 349.00
79.8833 399.00
80.1876 358.00
80.4918 308.00
80.7961 350.00
81.1003 450.00
81.4046 682.00
81.7089 609.00
82.0131 422.00
82.3174 355.00
82.6217 435.00
82.9259 718.00
83.2302 519.00
83.5344 339.00
83.8387 377.00
84.143 349.00
84.4472 282.00
84.7515 310.00
85.0557 362.00
85.36 348.00
85.6643 307.00
85.9685 352.00
86.2728 394.00
86.577 563.00
86.8813 481.00
87.1856 391.00
87.4898 552.00
87.7941 724.00
88.0983 509.00
88.4026 346.00
88.7069 366.00
89.0111 408.00
89.3154 359.00
89.6196 355.00
89.9239 371.00
90.2282 395.00
90.5324 437.00
90.8367 409.00
91.1409 468.00
91.4452 426.00
91.7495 361.00
92.0537 303.00
92.358 415.00
92.6622 573.00
92.9665 515.00
93.2708 389.00
93.575 370.00
93.8793 332.00
94.1835 495.00
94.4878 427.00
94.7921 318.00
95.0963 426.00
95.4006 468.00
95.7048 377.00
96.0091 377.00
96.3134 428.00
96.6176 374.00
96.9219 359.00
97.2261 326.00
97.5304 383.00
97.8347 585.00
98.1389 515.00
98.4432 438.00
98.7474 349.00
99.0517 321.00
99.356 303.00
99.6602 295.00
99.9645 448.00
100.095 529.00