File: data/xrd_creation/results/NSC_124.xy
9.903433 2820.00
10.2077 2649.00
10.512 2635.00
10.8162 2580.00
11.1205 2362.00
11.4247 2403.00
11.729 2433.00
12.0333 2192.00
12.3375 2259.00
12.6418 2221.00
12.946 2164.00
13.2503 2074.00
13.5546 2161.00
13.8588 2108.00
14.1631 2073.00
14.4673 2129.00
14.7716 2950.00
15.0759 6084.00
15.3801 3392.00
15.6844 2039.00
15.9886 1951.00
16.2929 1898.00
16.5972 1864.00
16.9014 1944.00
17.2057 1887.00
17.5099 1824.00
17.8142 2254.00
18.1185 1836.00
18.4227 1880.00
18.727 1789.00
19.0312 1789.00
19.3355 1737.00
19.6398 1704.00
19.944 1745.00
20.2483 1893.00
20.5525 3869.00
20.8568 16647.00
21.1611 4297.00
21.4653 5718.00
21.7696 7862.00
22.0738 8538.00
22.3781 2242.00
22.6824 1861.00
22.9866 1782.00
23.2909 1944.00
23.5951 2124.00
23.8994 1791.00
24.2037 1684.00
24.5079 2003.00
24.8122 3585.00
25.1164 7037.00
25.4207 7484.00
25.725 1687.00
26.0292 1549.00
26.3335 1658.00
26.6378 1525.00
26.942 1510.00
27.2463 1625.00
27.5505 1495.00
27.8548 1415.00
28.1591 1421.00
28.4633 1504.00
28.7676 1565.00
29.0718 1638.00
29.3761 1501.00
29.6804 2327.00
29.9846 4685.00
30.2889 7813.00
30.5931 4838.00
30.8974 1565.00
31.2017 1406.00
31.5059 1351.00
31.8102 1500.00
32.1144 1441.00
32.4187 1342.00
32.723 1664.00
33.0272 3975.00
33.3315 10073.00
33.6357 5055.00
33.94 2359.00
34.2443 1738.00
34.5485 1294.00
34.8528 1256.00
35.157 1254.00
35.4613 1302.00
35.7656 2130.00
36.0698 1451.00
36.3741 1312.00
36.6783 1466.00
36.9826 2442.00
37.2869 3002.00
37.5911 4130.00
37.8954 3131.00
38.1996 3395.00
38.5039 2383.00
38.8082 1580.00
39.1124 1223.00
39.4167 1270.00
39.7209 1213.00
40.0252 1191.00
40.3295 1514.00
40.6337 1367.00
40.938 1127.00
41.2422 1214.00
41.5465 1112.00
41.8508 1298.00
42.155 1624.00
42.4593 1547.00
42.7635 1093.00
43.0678 1191.00
43.3721 1244.00
43.6763 1461.00
43.9806 2350.00
44.2849 1724.00
44.5891 1381.00
44.8934 1356.00
45.1976 1431.00
45.5019 1291.00
45.8062 1382.00
46.1104 1919.00
46.4147 1653.00
46.7189 1366.00
47.0232 1418.00
47.3275 1652.00
47.6317 1929.00
47.936 2719.00
48.2402 2442.00
48.5445 1852.00
48.8488 1596.00
49.153 1915.00
49.4573 3024.00
49.7615 2497.00
50.0658 1482.00
50.3701 1352.00
50.6743 1476.00
50.9786 1743.00
51.2828 2102.00
51.5871 2556.00
51.8914 2005.00
52.1956 1434.00
52.4999 1191.00
52.8041 1177.00
53.1084 1121.00
53.4127 1122.00
53.7169 1155.00
54.0212 1495.00
54.3254 1841.00
54.6297 2792.00
54.934 2561.00
55.2382 1564.00
55.5425 1414.00
55.8467 1383.00
56.151 1285.00
56.4553 1132.00
56.7595 1150.00
57.0638 1223.00
57.368 1381.00
57.6723 1432.00
57.9766 1870.00
58.2808 2249.00
58.5851 1997.00
58.8893 1788.00
59.1936 1950.00
59.4979 2487.00
59.8021 2469.00
60.1064 2085.00
60.4106 1554.00
60.7149 1406.00
61.0192 1132.00
61.3234 1334.00
61.6277 1593.00
61.932 1521.00
62.2362 1151.00
62.5405 1213.00
62.8447 1395.00
63.149 1389.00
63.4533 1524.00
63.7575 1570.00
64.0618 2129.00
64.366 1900.00
64.6703 1597.00
64.9745 1346.00
65.2788 1385.00
65.5831 1656.00
65.8873 1977.00
66.1916 2298.00
66.4959 2004.00
66.8001 1363.00
67.1044 1249.00
67.4086 1307.00
67.7129 1316.00
68.0172 1294.00
68.3214 1479.00
68.6257 1772.00
68.9299 1603.00
69.2342 1601.00
69.5385 1471.00
69.8427 1338.00
70.147 1290.00
70.4512 1729.00
70.7555 1631.00
71.0598 1293.00
71.364 1155.00
71.6683 1073.00
71.9725 1084.00
72.2768 1093.00
72.5811 1278.00
72.8853 1357.00
73.1896 1269.00
73.4938 1153.00
73.7981 1101.00
74.1024 1074.00
74.4066 1134.00
74.7109 1158.00
75.0151 1098.00
75.3194 1102.00
75.6237 1101.00
75.9279 1068.00
76.2322 1088.00
76.5364 1190.00
76.8407 1231.00
77.145 1248.00
77.4492 1136.00
77.7535 1157.00
78.0577 1179.00
78.362 1146.00
78.6663 1223.00
78.9705 1311.00
79.2748 1231.00
79.579 1258.00
79.8833 1203.00
80.1876 1265.00
80.4918 1136.00
80.7961 1094.00
81.1003 1141.00
81.4046 1075.00
81.7089 1169.00
82.0131 1129.00
82.3174 1060.00
82.6217 1097.00
82.9259 1088.00
83.2302 1127.00
83.5344 1114.00
83.8387 1158.00
84.143 1236.00
84.4472 1164.00
84.7515 1134.00
85.0557 1105.00
85.36 1186.00
85.6643 1151.00
85.9685 1129.00
86.2728 1127.00
86.577 1138.00
86.8813 1265.00
87.1856 1268.00
87.4898 1159.00
87.7941 1057.00
88.0983 1019.00
88.4026 946.00
88.7069 928.00
89.0111 913.00
89.3154 980.00
89.6196 958.00
89.9239 1032.00
90.2282 1056.00
90.5324 1127.00
90.8367 1084.00
91.1409 1156.00
91.4452 1112.00
91.7495 1143.00
92.0537 1351.00
92.358 1436.00
92.6622 1324.00
92.9665 1184.00
93.2708 1075.00
93.575 999.00
93.8793 955.00
94.1835 980.00
94.4878 999.00
94.7921 1018.00
95.0963 1082.00
95.4006 1068.00
95.7048 1148.00
96.0091 1095.00
96.3134 1089.00
96.6176 1085.00
96.9219 1085.00
97.2261 1104.00
97.5304 1083.00
97.8347 1115.00
98.1389 1038.00
98.4432 1026.00
98.7474 1118.00
99.0517 1089.00
99.356 1037.00
99.6602 1072.00
99.9645 1080.00
100.095 1061.00