File: data/xrd_creation/results/NSC_212.xy
9.903433 2971.00
10.2077 2930.00
10.512 2889.00
10.8162 2735.00
11.1205 2627.00
11.4247 2506.00
11.729 2540.00
12.0333 2421.00
12.3375 2349.00
12.6418 2350.00
12.946 2312.00
13.2503 2304.00
13.5546 2257.00
13.8588 2081.00
14.1631 2112.00
14.4673 2163.00
14.7716 2157.00
15.0759 2177.00
15.3801 2069.00
15.6844 2086.00
15.9886 2038.00
16.2929 2092.00
16.5972 2015.00
16.9014 1983.00
17.2057 1997.00
17.5099 1959.00
17.8142 2812.00
18.1185 1944.00
18.4227 1966.00
18.727 1938.00
19.0312 1932.00
19.3355 1934.00
19.6398 1869.00
19.944 1919.00
20.2483 2864.00
20.5525 2350.00
20.8568 2051.00
21.1611 2137.00
21.4653 1845.00
21.7696 2610.00
22.0738 1757.00
22.3781 1776.00
22.6824 1787.00
22.9866 1738.00
23.2909 1785.00
23.5951 1727.00
23.8994 1794.00
24.2037 2158.00
24.5079 4177.00
24.8122 3171.00
25.1164 1952.00
25.4207 1668.00
25.725 1610.00
26.0292 1667.00
26.3335 1544.00
26.6378 1949.00
26.942 1693.00
27.2463 1556.00
27.5505 1649.00
27.8548 1848.00
28.1591 2394.00
28.4633 9458.00
28.7676 8753.00
29.0718 2267.00
29.3761 1754.00
29.6804 1629.00
29.9846 1585.00
30.2889 1611.00
30.5931 1930.00
30.8974 9876.00
31.2017 2061.00
31.5059 2676.00
31.8102 8719.00
32.1144 5394.00
32.4187 1920.00
32.723 1734.00
33.0272 2770.00
33.3315 2316.00
33.6357 2141.00
33.94 1699.00
34.2443 2238.00
34.5485 4987.00
34.8528 4669.00
35.157 1976.00
35.4613 1995.00
35.7656 6555.00
36.0698 1915.00
36.3741 2196.00
36.6783 1411.00
36.9826 1323.00
37.2869 1252.00
37.5911 1271.00
37.8954 1467.00
38.1996 1255.00
38.5039 1315.00
38.8082 1836.00
39.1124 2299.00
39.4167 1374.00
39.7209 1285.00
40.0252 1197.00
40.3295 1289.00
40.6337 1234.00
40.938 1682.00
41.2422 2831.00
41.5465 1904.00
41.8508 1814.00
42.155 1661.00
42.4593 1130.00
42.7635 1126.00
43.0678 1198.00
43.3721 1135.00
43.6763 1092.00
43.9806 1221.00
44.2849 1099.00
44.5891 1082.00
44.8934 1183.00
45.1976 1556.00
45.5019 1480.00
45.8062 1567.00
46.1104 2113.00
46.4147 1120.00
46.7189 1022.00
47.0232 1029.00
47.3275 1207.00
47.6317 1287.00
47.936 1080.00
48.2402 1064.00
48.5445 1052.00
48.8488 1071.00
49.153 1208.00
49.4573 1956.00
49.7615 2975.00
50.0658 1831.00
50.3701 2271.00
50.6743 3947.00
50.9786 2482.00
51.2828 4496.00
51.5871 1606.00
51.8914 1588.00
52.1956 1136.00
52.4999 1176.00
52.8041 1276.00
53.1084 1233.00
53.4127 1034.00
53.7169 1054.00
54.0212 1133.00
54.3254 1631.00
54.6297 2176.00
54.934 1708.00
55.2382 1249.00
55.5425 1567.00
55.8467 2516.00
56.151 2954.00
56.4553 2069.00
56.7595 1556.00
57.0638 1113.00
57.368 1342.00
57.6723 1574.00
57.9766 1733.00
58.2808 1388.00
58.5851 1811.00
58.8893 1608.00
59.1936 1313.00
59.4979 1432.00
59.8021 1152.00
60.1064 1484.00
60.4106 2276.00
60.7149 2109.00
61.0192 2070.00
61.3234 1213.00
61.6277 1362.00
61.932 1624.00
62.2362 1793.00
62.5405 2207.00
62.8447 1573.00
63.149 1694.00
63.4533 1905.00
63.7575 1487.00
64.0618 1241.00
64.366 1038.00
64.6703 1131.00
64.9745 1317.00
65.2788 1171.00
65.5831 1343.00
65.8873 1424.00
66.1916 1513.00
66.4959 1728.00
66.8001 1162.00
67.1044 910.00
67.4086 894.00
67.7129 871.00
68.0172 911.00
68.3214 1005.00
68.6257 904.00
68.9299 873.00
69.2342 955.00
69.5385 1062.00
69.8427 1176.00
70.147 939.00
70.4512 942.00
70.7555 885.00
71.0598 883.00
71.364 994.00
71.6683 1293.00
71.9725 1490.00
72.2768 1115.00
72.5811 1090.00
72.8853 1087.00
73.1896 1078.00
73.4938 1034.00
73.7981 942.00
74.1024 922.00
74.4066 846.00
74.7109 909.00
75.0151 979.00
75.3194 1276.00
75.6237 1192.00
75.9279 1251.00
76.2322 1005.00
76.5364 970.00
76.8407 1023.00
77.145 1035.00
77.4492 1116.00
77.7535 952.00
78.0577 1068.00
78.362 1031.00
78.6663 984.00
78.9705 1074.00
79.2748 1086.00
79.579 1229.00
79.8833 1016.00
80.1876 870.00
80.4918 859.00
80.7961 929.00
81.1003 927.00
81.4046 983.00
81.7089 930.00
82.0131 1081.00
82.3174 1200.00
82.6217 1030.00
82.9259 1016.00
83.2302 1174.00
83.5344 1269.00
83.8387 1171.00
84.143 1262.00
84.4472 1095.00
84.7515 1202.00
85.0557 1211.00
85.36 960.00
85.6643 1030.00
85.9685 1177.00
86.2728 972.00
86.577 915.00
86.8813 967.00
87.1856 922.00
87.4898 880.00
87.7941 865.00
88.0983 974.00
88.4026 1148.00
88.7069 1213.00
89.0111 1154.00
89.3154 1195.00
89.6196 1068.00
89.9239 1031.00
90.2282 1068.00
90.5324 1095.00
90.8367 1076.00
91.1409 902.00
91.4452 866.00
91.7495 799.00
92.0537 848.00
92.358 925.00
92.6622 943.00
92.9665 862.00
93.2708 826.00
93.575 801.00
93.8793 890.00
94.1835 904.00
94.4878 925.00
94.7921 969.00
95.0963 940.00
95.4006 982.00
95.7048 1086.00
96.0091 1091.00
96.3134 1067.00
96.6176 1146.00
96.9219 1129.00
97.2261 1168.00
97.5304 1145.00
97.8347 1202.00
98.1389 1117.00
98.4432 965.00
98.7474 1060.00
99.0517 1077.00
99.356 1102.00
99.6602 1131.00
99.9645 1134.00
100.095 1084.00