File: data/xrd_creation/results/NSC_195.xy
9.903433 3056.00
10.2077 2799.00
10.512 2888.00
10.8162 2751.00
11.1205 2603.00
11.4247 2614.00
11.729 2414.00
12.0333 2441.00
12.3375 2518.00
12.6418 2261.00
12.946 2291.00
13.2503 2232.00
13.5546 2225.00
13.8588 2303.00
14.1631 2906.00
14.4673 2032.00
14.7716 2219.00
15.0759 2373.00
15.3801 2127.00
15.6844 2027.00
15.9886 1987.00
16.2929 2029.00
16.5972 2027.00
16.9014 2160.00
17.2057 2699.00
17.5099 1844.00
17.8142 2055.00
18.1185 1801.00
18.4227 1828.00
18.727 1769.00
19.0312 1790.00
19.3355 1943.00
19.6398 3852.00
19.944 9994.00
20.2483 2037.00
20.5525 1683.00
20.8568 1680.00
21.1611 1694.00
21.4653 1774.00
21.7696 1927.00
22.0738 1619.00
22.3781 1606.00
22.6824 1906.00
22.9866 1881.00
23.2909 2428.00
23.5951 1476.00
23.8994 1399.00
24.2037 1788.00
24.5079 1730.00
24.8122 1839.00
25.1164 1520.00
25.4207 1673.00
25.725 1438.00
26.0292 1502.00
26.3335 1531.00
26.6378 2300.00
26.942 8335.00
27.2463 1970.00
27.5505 1488.00
27.8548 1850.00
28.1591 3889.00
28.4633 4699.00
28.7676 1709.00
29.0718 1365.00
29.3761 1361.00
29.6804 4198.00
29.9846 1336.00
30.2889 1409.00
30.5931 1961.00
30.8974 1471.00
31.2017 2131.00
31.5059 5982.00
31.8102 4076.00
32.1144 1398.00
32.4187 1251.00
32.723 1216.00
33.0272 1229.00
33.3315 1314.00
33.6357 1520.00
33.94 2347.00
34.2443 7766.00
34.5485 6059.00
34.8528 2165.00
35.157 2730.00
35.4613 1539.00
35.7656 1279.00
36.0698 1132.00
36.3741 1109.00
36.6783 1035.00
36.9826 1021.00
37.2869 1123.00
37.5911 2242.00
37.8954 1060.00
38.1996 2165.00
38.5039 1284.00
38.8082 1131.00
39.1124 1107.00
39.4167 1193.00
39.7209 1074.00
40.0252 1220.00
40.3295 1323.00
40.6337 982.00
40.938 1276.00
41.2422 1161.00
41.5465 1121.00
41.8508 1445.00
42.155 1228.00
42.4593 1161.00
42.7635 1177.00
43.0678 1044.00
43.3721 1008.00
43.6763 967.00
43.9806 918.00
44.2849 938.00
44.5891 1138.00
44.8934 1913.00
45.1976 1920.00
45.5019 1035.00
45.8062 1274.00
46.1104 1037.00
46.4147 947.00
46.7189 1068.00
47.0232 1477.00
47.3275 2447.00
47.6317 1425.00
47.936 909.00
48.2402 1005.00
48.5445 1352.00
48.8488 925.00
49.153 987.00
49.4573 1437.00
49.7615 1546.00
50.0658 1099.00
50.3701 1477.00
50.6743 1273.00
50.9786 1361.00
51.2828 1155.00
51.5871 1610.00
51.8914 2761.00
52.1956 3775.00
52.4999 1672.00
52.8041 970.00
53.1084 992.00
53.4127 1308.00
53.7169 1950.00
54.0212 1278.00
54.3254 1225.00
54.6297 870.00
54.934 1364.00
55.2382 1271.00
55.5425 1215.00
55.8467 1141.00
56.151 1026.00
56.4553 942.00
56.7595 783.00
57.0638 825.00
57.368 1101.00
57.6723 1034.00
57.9766 1131.00
58.2808 1234.00
58.5851 984.00
58.8893 937.00
59.1936 978.00
59.4979 1482.00
59.8021 1817.00
60.1064 1569.00
60.4106 1121.00
60.7149 966.00
61.0192 955.00
61.3234 1297.00
61.6277 1494.00
61.932 1281.00
62.2362 1506.00
62.5405 1006.00
62.8447 960.00
63.149 1129.00
63.4533 975.00
63.7575 1046.00
64.0618 865.00
64.366 1023.00
64.6703 1002.00
64.9745 1583.00
65.2788 1141.00
65.5831 985.00
65.8873 1658.00
66.1916 2047.00
66.4959 1260.00
66.8001 963.00
67.1044 1060.00
67.4086 1112.00
67.7129 845.00
68.0172 780.00
68.3214 759.00
68.6257 797.00
68.9299 967.00
69.2342 832.00
69.5385 760.00
69.8427 700.00
70.147 756.00
70.4512 705.00
70.7555 735.00
71.0598 787.00
71.364 969.00
71.6683 1103.00
71.9725 970.00
72.2768 1010.00
72.5811 926.00
72.8853 784.00
73.1896 722.00
73.4938 735.00
73.7981 812.00
74.1024 841.00
74.4066 855.00
74.7109 831.00
75.0151 700.00
75.3194 828.00
75.6237 918.00
75.9279 820.00
76.2322 808.00
76.5364 776.00
76.8407 710.00
77.145 671.00
77.4492 797.00
77.7535 811.00
78.0577 778.00
78.362 744.00
78.6663 760.00
78.9705 1189.00
79.2748 899.00
79.579 715.00
79.8833 648.00
80.1876 683.00
80.4918 788.00
80.7961 855.00
81.1003 916.00
81.4046 918.00
81.7089 819.00
82.0131 732.00
82.3174 777.00
82.6217 789.00
82.9259 737.00
83.2302 773.00
83.5344 755.00
83.8387 993.00
84.143 912.00
84.4472 793.00
84.7515 631.00
85.0557 668.00
85.36 607.00
85.6643 627.00
85.9685 639.00
86.2728 692.00
86.577 663.00
86.8813 671.00
87.1856 850.00
87.4898 1116.00
87.7941 974.00
88.0983 800.00
88.4026 800.00
88.7069 810.00
89.0111 810.00
89.3154 715.00
89.6196 789.00
89.9239 1098.00
90.2282 965.00
90.5324 858.00
90.8367 861.00
91.1409 1088.00
91.4452 950.00
91.7495 765.00
92.0537 672.00
92.358 662.00
92.6622 692.00
92.9665 725.00
93.2708 776.00
93.575 828.00
93.8793 810.00
94.1835 801.00
94.4878 737.00
94.7921 730.00
95.0963 694.00
95.4006 807.00
95.7048 748.00
96.0091 861.00
96.3134 923.00
96.6176 847.00
96.9219 767.00
97.2261 739.00
97.5304 669.00
97.8347 608.00
98.1389 639.00
98.4432 647.00
98.7474 604.00
99.0517 699.00
99.356 698.00
99.6602 679.00
99.9645 689.00
100.095 712.00