File: data/xrd_creation/results/NSC_46.xy
9.903433 2785.00
10.2077 2580.00
10.512 2691.00
10.8162 2575.00
11.1205 2519.00
11.4247 2369.00
11.729 2272.00
12.0333 2184.00
12.3375 2166.00
12.6418 2031.00
12.946 2095.00
13.2503 2024.00
13.5546 1961.00
13.8588 1811.00
14.1631 1843.00
14.4673 2172.00
14.7716 1891.00
15.0759 1710.00
15.3801 1676.00
15.6844 1698.00
15.9886 1635.00
16.2929 1629.00
16.5972 1718.00
16.9014 1717.00
17.2057 1605.00
17.5099 1564.00
17.8142 1484.00
18.1185 1504.00
18.4227 1516.00
18.727 1450.00
19.0312 1438.00
19.3355 1410.00
19.6398 1447.00
19.944 1431.00
20.2483 1332.00
20.5525 1389.00
20.8568 1652.00
21.1611 1324.00
21.4653 1973.00
21.7696 1430.00
22.0738 1378.00
22.3781 1854.00
22.6824 1277.00
22.9866 1180.00
23.2909 1199.00
23.5951 1100.00
23.8994 1342.00
24.2037 1300.00
24.5079 1048.00
24.8122 1085.00
25.1164 1024.00
25.4207 1020.00
25.725 1015.00
26.0292 1096.00
26.3335 992.00
26.6378 950.00
26.942 964.00
27.2463 1016.00
27.5505 1005.00
27.8548 945.00
28.1591 938.00
28.4633 967.00
28.7676 862.00
29.0718 965.00
29.3761 930.00
29.6804 961.00
29.9846 1086.00
30.2889 1286.00
30.5931 7054.00
30.8974 2063.00
31.2017 943.00
31.5059 895.00
31.8102 885.00
32.1144 983.00
32.4187 871.00
32.723 848.00
33.0272 1106.00
33.3315 824.00
33.6357 823.00
33.94 1244.00
34.2443 2836.00
34.5485 936.00
34.8528 809.00
35.157 895.00
35.4613 2500.00
35.7656 1183.00
36.0698 729.00
36.3741 690.00
36.6783 711.00
36.9826 706.00
37.2869 799.00
37.5911 830.00
37.8954 894.00
38.1996 649.00
38.5039 665.00
38.8082 645.00
39.1124 714.00
39.4167 641.00
39.7209 684.00
40.0252 626.00
40.3295 582.00
40.6337 644.00
40.938 646.00
41.2422 600.00
41.5465 648.00
41.8508 919.00
42.155 726.00
42.4593 588.00
42.7635 551.00
43.0678 576.00
43.3721 568.00
43.6763 561.00
43.9806 618.00
44.2849 546.00
44.5891 581.00
44.8934 627.00
45.1976 548.00
45.5019 663.00
45.8062 1145.00
46.1104 550.00
46.4147 602.00
46.7189 497.00
47.0232 557.00
47.3275 519.00
47.6317 471.00
47.936 518.00
48.2402 620.00
48.5445 580.00
48.8488 589.00
49.153 988.00
49.4573 748.00
49.7615 514.00
50.0658 500.00
50.3701 501.00
50.6743 605.00
50.9786 2541.00
51.2828 1914.00
51.5871 621.00
51.8914 494.00
52.1956 484.00
52.4999 475.00
52.8041 628.00
53.1084 538.00
53.4127 468.00
53.7169 474.00
54.0212 465.00
54.3254 545.00
54.6297 498.00
54.934 467.00
55.2382 500.00
55.5425 495.00
55.8467 633.00
56.151 804.00
56.4553 509.00
56.7595 421.00
57.0638 451.00
57.368 543.00
57.6723 635.00
57.9766 472.00
58.2808 453.00
58.5851 464.00
58.8893 490.00
59.1936 730.00
59.4979 503.00
59.8021 443.00
60.1064 448.00
60.4106 707.00
60.7149 2399.00
61.0192 1182.00
61.3234 805.00
61.6277 520.00
61.932 456.00
62.2362 855.00
62.5405 556.00
62.8447 375.00
63.149 438.00
63.4533 449.00
63.7575 807.00
64.0618 473.00
64.366 416.00
64.6703 375.00
64.9745 470.00
65.2788 539.00
65.5831 462.00
65.8873 471.00
66.1916 406.00
66.4959 441.00
66.8001 424.00
67.1044 411.00
67.4086 411.00
67.7129 400.00
68.0172 582.00
68.3214 501.00
68.6257 389.00
68.9299 423.00
69.2342 367.00
69.5385 499.00
69.8427 400.00
70.147 345.00
70.4512 345.00
70.7555 354.00
71.0598 353.00
71.364 399.00
71.6683 420.00
71.9725 459.00
72.2768 387.00
72.5811 370.00
72.8853 380.00
73.1896 377.00
73.4938 374.00
73.7981 514.00
74.1024 376.00
74.4066 327.00
74.7109 348.00
75.0151 554.00
75.3194 509.00
75.6237 334.00
75.9279 324.00
76.2322 372.00
76.5364 564.00
76.8407 398.00
77.145 356.00
77.4492 350.00
77.7535 454.00
78.0577 399.00
78.362 327.00
78.6663 358.00
78.9705 358.00
79.2748 433.00
79.579 331.00
79.8833 321.00
80.1876 302.00
80.4918 429.00
80.7961 370.00
81.1003 345.00
81.4046 320.00
81.7089 439.00
82.0131 525.00
82.3174 409.00
82.6217 362.00
82.9259 398.00
83.2302 771.00
83.5344 556.00
83.8387 346.00
84.143 352.00
84.4472 335.00
84.7515 377.00
85.0557 314.00
85.36 327.00
85.6643 433.00
85.9685 593.00
86.2728 435.00
86.577 345.00
86.8813 323.00
87.1856 395.00
87.4898 372.00
87.7941 350.00
88.0983 331.00
88.4026 371.00
88.7069 440.00
89.0111 345.00
89.3154 373.00
89.6196 377.00
89.9239 481.00
90.2282 378.00
90.5324 310.00
90.8367 323.00
91.1409 334.00
91.4452 306.00
91.7495 314.00
92.0537 338.00
92.358 408.00
92.6622 422.00
92.9665 366.00
93.2708 316.00
93.575 324.00
93.8793 311.00
94.1835 321.00
94.4878 308.00
94.7921 330.00
95.0963 452.00
95.4006 419.00
95.7048 306.00
96.0091 361.00
96.3134 459.00
96.6176 569.00
96.9219 481.00
97.2261 358.00
97.5304 348.00
97.8347 464.00
98.1389 403.00
98.4432 339.00
98.7474 301.00
99.0517 375.00
99.356 394.00
99.6602 333.00
99.9645 322.00
100.095 311.00