File: data/xrd_creation/results/NSC_209.xy
9.903433 2920.00
10.2077 3084.00
10.512 2800.00
10.8162 2805.00
11.1205 2620.00
11.4247 2621.00
11.729 2607.00
12.0333 2519.00
12.3375 2361.00
12.6418 2430.00
12.946 2300.00
13.2503 2232.00
13.5546 2289.00
13.8588 2220.00
14.1631 2292.00
14.4673 2255.00
14.7716 2097.00
15.0759 2143.00
15.3801 2216.00
15.6844 2142.00
15.9886 2154.00
16.2929 2143.00
16.5972 1985.00
16.9014 2083.00
17.2057 2153.00
17.5099 2216.00
17.8142 3046.00
18.1185 2097.00
18.4227 2032.00
18.727 1874.00
19.0312 2026.00
19.3355 2007.00
19.6398 2010.00
19.944 2027.00
20.2483 2328.00
20.5525 2319.00
20.8568 2203.00
21.1611 2373.00
21.4653 2043.00
21.7696 1892.00
22.0738 1895.00
22.3781 1955.00
22.6824 1821.00
22.9866 1873.00
23.2909 1927.00
23.5951 1873.00
23.8994 1991.00
24.2037 2524.00
24.5079 5311.00
24.8122 3903.00
25.1164 2159.00
25.4207 1923.00
25.725 1813.00
26.0292 1773.00
26.3335 1731.00
26.6378 1872.00
26.942 1712.00
27.2463 1733.00
27.5505 1802.00
27.8548 2102.00
28.1591 2939.00
28.4633 13321.00
28.7676 10856.00
29.0718 2675.00
29.3761 2053.00
29.6804 1877.00
29.9846 1778.00
30.2889 1773.00
30.5931 1817.00
30.8974 1888.00
31.2017 2144.00
31.5059 3193.00
31.8102 11596.00
32.1144 6687.00
32.4187 2145.00
32.723 1843.00
33.0272 2066.00
33.3315 2040.00
33.6357 2042.00
33.94 1832.00
34.2443 2544.00
34.5485 6291.00
34.8528 5725.00
35.157 2233.00
35.4613 2357.00
35.7656 5137.00
36.0698 2073.00
36.3741 2569.00
36.6783 1543.00
36.9826 1421.00
37.2869 1330.00
37.5911 1373.00
37.8954 1378.00
38.1996 1393.00
38.5039 1372.00
38.8082 1971.00
39.1124 2821.00
39.4167 1416.00
39.7209 1469.00
40.0252 1363.00
40.3295 1440.00
40.6337 1474.00
40.938 2069.00
41.2422 3452.00
41.5465 2381.00
41.8508 2296.00
42.155 1416.00
42.4593 1275.00
42.7635 1264.00
43.0678 1242.00
43.3721 1247.00
43.6763 1225.00
43.9806 1225.00
44.2849 1173.00
44.5891 1204.00
44.8934 1383.00
45.1976 1857.00
45.5019 1729.00
45.8062 1815.00
46.1104 2168.00
46.4147 1322.00
46.7189 1150.00
47.0232 1181.00
47.3275 1240.00
47.6317 1243.00
47.936 1136.00
48.2402 1131.00
48.5445 1306.00
48.8488 1125.00
49.153 1494.00
49.4573 2355.00
49.7615 3601.00
50.0658 2212.00
50.3701 2932.00
50.6743 4939.00
50.9786 3014.00
51.2828 2553.00
51.5871 1776.00
51.8914 1834.00
52.1956 1246.00
52.4999 1275.00
52.8041 1289.00
53.1084 1173.00
53.4127 1099.00
53.7169 1242.00
54.0212 1367.00
54.3254 1968.00
54.6297 2495.00
54.934 2013.00
55.2382 1560.00
55.5425 1933.00
55.8467 3230.00
56.151 3853.00
56.4553 2492.00
56.7595 1864.00
57.0638 1255.00
57.368 1675.00
57.6723 1927.00
57.9766 1931.00
58.2808 1641.00
58.5851 2253.00
58.8893 1829.00
59.1936 1367.00
59.4979 1298.00
59.8021 1395.00
60.1064 1964.00
60.4106 2778.00
60.7149 2440.00
61.0192 1444.00
61.3234 1366.00
61.6277 1615.00
61.932 2074.00
62.2362 2220.00
62.5405 2311.00
62.8447 1795.00
63.149 1971.00
63.4533 2286.00
63.7575 1746.00
64.0618 1205.00
64.366 1273.00
64.6703 1526.00
64.9745 1572.00
65.2788 1203.00
65.5831 1427.00
65.8873 1723.00
66.1916 1981.00
66.4959 2069.00
66.8001 1303.00
67.1044 1052.00
67.4086 1066.00
67.7129 1000.00
68.0172 1005.00
68.3214 985.00
68.6257 960.00
68.9299 1043.00
69.2342 1173.00
69.5385 1284.00
69.8427 1297.00
70.147 1129.00
70.4512 1177.00
70.7555 1131.00
71.0598 1088.00
71.364 1349.00
71.6683 1539.00
71.9725 1953.00
72.2768 1330.00
72.5811 1233.00
72.8853 1352.00
73.1896 1230.00
73.4938 1125.00
73.7981 1045.00
74.1024 1104.00
74.4066 969.00
74.7109 1083.00
75.0151 1200.00
75.3194 1495.00
75.6237 1389.00
75.9279 1544.00
76.2322 1149.00
76.5364 1063.00
76.8407 1130.00
77.145 1217.00
77.4492 1217.00
77.7535 1188.00
78.0577 1272.00
78.362 1198.00
78.6663 1161.00
78.9705 1167.00
79.2748 1185.00
79.579 1293.00
79.8833 1251.00
80.1876 1077.00
80.4918 1047.00
80.7961 1022.00
81.1003 1009.00
81.4046 1107.00
81.7089 1051.00
82.0131 1131.00
82.3174 1320.00
82.6217 1232.00
82.9259 1223.00
83.2302 1307.00
83.5344 1456.00
83.8387 1370.00
84.143 1544.00
84.4472 1284.00
84.7515 1449.00
85.0557 1387.00
85.36 1209.00
85.6643 1216.00
85.9685 1128.00
86.2728 1010.00
86.577 1080.00
86.8813 1193.00
87.1856 1038.00
87.4898 1039.00
87.7941 1109.00
88.0983 1133.00
88.4026 1397.00
88.7069 1358.00
89.0111 1433.00
89.3154 1430.00
89.6196 1263.00
89.9239 1221.00
90.2282 1277.00
90.5324 1331.00
90.8367 1288.00
91.1409 1084.00
91.4452 1041.00
91.7495 1014.00
92.0537 1045.00
92.358 1038.00
92.6622 982.00
92.9665 923.00
93.2708 976.00
93.575 922.00
93.8793 1010.00
94.1835 1066.00
94.4878 1014.00
94.7921 1151.00
95.0963 1104.00
95.4006 1151.00
95.7048 1270.00
96.0091 1321.00
96.3134 1289.00
96.6176 1253.00
96.9219 1369.00
97.2261 1400.00
97.5304 1563.00
97.8347 1450.00
98.1389 1308.00
98.4432 1132.00
98.7474 1153.00
99.0517 1324.00
99.356 1212.00
99.6602 1393.00
99.9645 1347.00
100.095 1402.00