File: data/xrd_creation/results/NSC_179.xy
9.903433 2759.00
10.2077 2797.00
10.512 2712.00
10.8162 2570.00
11.1205 2439.00
11.4247 2482.00
11.729 2350.00
12.0333 2221.00
12.3375 2200.00
12.6418 2193.00
12.946 2188.00
13.2503 2094.00
13.5546 2014.00
13.8588 2204.00
14.1631 3693.00
14.4673 1965.00
14.7716 1957.00
15.0759 1934.00
15.3801 1932.00
15.6844 1855.00
15.9886 1891.00
16.2929 1929.00
16.5972 1840.00
16.9014 1846.00
17.2057 1723.00
17.5099 1766.00
17.8142 1811.00
18.1185 1708.00
18.4227 1671.00
18.727 1657.00
19.0312 1719.00
19.3355 1928.00
19.6398 4068.00
19.944 3907.00
20.2483 11172.00
20.5525 1856.00
20.8568 1611.00
21.1611 1722.00
21.4653 1748.00
21.7696 1662.00
22.0738 1688.00
22.3781 1538.00
22.6824 1565.00
22.9866 1613.00
23.2909 2245.00
23.5951 8324.00
23.8994 1522.00
24.2037 1605.00
24.5079 1494.00
24.8122 1507.00
25.1164 1445.00
25.4207 1424.00
25.725 1493.00
26.0292 1390.00
26.3335 1442.00
26.6378 1345.00
26.942 1371.00
27.2463 1347.00
27.5505 1340.00
27.8548 1411.00
28.1591 2056.00
28.4633 5053.00
28.7676 1429.00
29.0718 1276.00
29.3761 1444.00
29.6804 1315.00
29.9846 1338.00
30.2889 1277.00
30.5931 1377.00
30.8974 1487.00
31.2017 3452.00
31.5059 14613.00
31.8102 1950.00
32.1144 1425.00
32.4187 1241.00
32.723 1250.00
33.0272 1185.00
33.3315 1291.00
33.6357 1224.00
33.94 1174.00
34.2443 1359.00
34.5485 1440.00
34.8528 2457.00
35.157 6168.00
35.4613 1482.00
35.7656 1171.00
36.0698 1093.00
36.3741 1153.00
36.6783 1112.00
36.9826 1148.00
37.2869 1090.00
37.5911 1070.00
37.8954 1032.00
38.1996 1103.00
38.5039 1047.00
38.8082 1089.00
39.1124 1046.00
39.4167 1144.00
39.7209 1121.00
40.0252 1408.00
40.3295 1039.00
40.6337 1121.00
40.938 1414.00
41.2422 1055.00
41.5465 1235.00
41.8508 1293.00
42.155 1702.00
42.4593 1092.00
42.7635 1650.00
43.0678 1669.00
43.3721 1534.00
43.6763 1043.00
43.9806 1006.00
44.2849 1042.00
44.5891 1067.00
44.8934 1424.00
45.1976 1610.00
45.5019 1232.00
45.8062 2280.00
46.1104 1082.00
46.4147 1019.00
46.7189 1164.00
47.0232 2277.00
47.3275 1380.00
47.6317 1685.00
47.936 3075.00
48.2402 1609.00
48.5445 1198.00
48.8488 1261.00
49.153 998.00
49.4573 1069.00
49.7615 1117.00
50.0658 1037.00
50.3701 1305.00
50.6743 1090.00
50.9786 1030.00
51.2828 1234.00
51.5871 3934.00
51.8914 1047.00
52.1956 1041.00
52.4999 1072.00
52.8041 965.00
53.1084 942.00
53.4127 990.00
53.7169 1016.00
54.0212 1360.00
54.3254 1224.00
54.6297 2995.00
54.934 3170.00
55.2382 1062.00
55.5425 1055.00
55.8467 1031.00
56.151 1166.00
56.4553 1118.00
56.7595 965.00
57.0638 942.00
57.368 976.00
57.6723 892.00
57.9766 1027.00
58.2808 1219.00
58.5851 1052.00
58.8893 1465.00
59.1936 967.00
59.4979 1010.00
59.8021 2614.00
60.1064 1428.00
60.4106 1457.00
60.7149 2616.00
61.0192 1018.00
61.3234 1460.00
61.6277 982.00
61.932 937.00
62.2362 1224.00
62.5405 1168.00
62.8447 2562.00
63.149 1265.00
63.4533 1012.00
63.7575 1808.00
64.0618 961.00
64.366 957.00
64.6703 990.00
64.9745 923.00
65.2788 918.00
65.5831 942.00
65.8873 1072.00
66.1916 953.00
66.4959 2307.00
66.8001 1377.00
67.1044 1013.00
67.4086 1174.00
67.7129 1523.00
68.0172 1184.00
68.3214 1126.00
68.6257 896.00
68.9299 900.00
69.2342 979.00
69.5385 835.00
69.8427 929.00
70.147 1574.00
70.4512 1388.00
70.7555 968.00
71.0598 835.00
71.364 1107.00
71.6683 1015.00
71.9725 916.00
72.2768 878.00
72.5811 796.00
72.8853 901.00
73.1896 872.00
73.4938 974.00
73.7981 1315.00
74.1024 1651.00
74.4066 947.00
74.7109 910.00
75.0151 1212.00
75.3194 1054.00
75.6237 973.00
75.9279 948.00
76.2322 1038.00
76.5364 916.00
76.8407 833.00
77.145 906.00
77.4492 1307.00
77.7535 1093.00
78.0577 906.00
78.362 1359.00
78.6663 978.00
78.9705 989.00
79.2748 946.00
79.579 892.00
79.8833 867.00
80.1876 861.00
80.4918 882.00
80.7961 1114.00
81.1003 1185.00
81.4046 923.00
81.7089 918.00
82.0131 1053.00
82.3174 1308.00
82.6217 1294.00
82.9259 948.00
83.2302 958.00
83.5344 897.00
83.8387 1103.00
84.143 1067.00
84.4472 1065.00
84.7515 923.00
85.0557 877.00
85.36 793.00
85.6643 892.00
85.9685 850.00
86.2728 867.00
86.577 1017.00
86.8813 890.00
87.1856 873.00
87.4898 991.00
87.7941 1359.00
88.0983 1073.00
88.4026 908.00
88.7069 1697.00
89.0111 1412.00
89.3154 946.00
89.6196 944.00
89.9239 927.00
90.2282 883.00
90.5324 934.00
90.8367 1000.00
91.1409 1232.00
91.4452 1101.00
91.7495 812.00
92.0537 854.00
92.358 837.00
92.6622 996.00
92.9665 916.00
93.2708 918.00
93.575 904.00
93.8793 920.00
94.1835 935.00
94.4878 1223.00
94.7921 1259.00
95.0963 1161.00
95.4006 960.00
95.7048 1055.00
96.0091 1001.00
96.3134 832.00
96.6176 796.00
96.9219 900.00
97.2261 850.00
97.5304 914.00
97.8347 945.00
98.1389 976.00
98.4432 966.00
98.7474 868.00
99.0517 989.00
99.356 1064.00
99.6602 959.00
99.9645 885.00
100.095 856.00