File: data/xrd_creation/results/NSC_149.xy
9.903433 2814.00
10.2077 2700.00
10.512 2565.00
10.8162 2475.00
11.1205 2410.00
11.4247 2361.00
11.729 2236.00
12.0333 2177.00
12.3375 2089.00
12.6418 2004.00
12.946 1976.00
13.2503 2023.00
13.5546 2630.00
13.8588 2037.00
14.1631 1776.00
14.4673 2038.00
14.7716 2109.00
15.0759 1786.00
15.3801 1729.00
15.6844 1707.00
15.9886 1666.00
16.2929 1666.00
16.5972 1639.00
16.9014 1626.00
17.2057 1609.00
17.5099 1572.00
17.8142 1514.00
18.1185 1490.00
18.4227 1442.00
18.727 1585.00
19.0312 2376.00
19.3355 10705.00
19.6398 2811.00
19.944 1528.00
20.2483 1457.00
20.5525 1624.00
20.8568 1645.00
21.1611 1392.00
21.4653 1365.00
21.7696 1525.00
22.0738 1592.00
22.3781 1357.00
22.6824 3297.00
22.9866 1383.00
23.2909 1244.00
23.5951 1260.00
23.8994 1376.00
24.2037 1196.00
24.5079 1189.00
24.8122 1130.00
25.1164 1154.00
25.4207 1609.00
25.725 1200.00
26.0292 1060.00
26.3335 1072.00
26.6378 1078.00
26.942 1070.00
27.2463 1225.00
27.5505 5483.00
27.8548 1147.00
28.1591 1339.00
28.4633 1080.00
28.7676 1010.00
29.0718 964.00
29.3761 1345.00
29.6804 1193.00
29.9846 3053.00
30.2889 1165.00
30.5931 1343.00
30.8974 8673.00
31.2017 2220.00
31.5059 1449.00
31.8102 1125.00
32.1144 1012.00
32.4187 1067.00
32.723 1560.00
33.0272 955.00
33.3315 1085.00
33.6357 4752.00
33.94 4478.00
34.2443 1745.00
34.5485 997.00
34.8528 1031.00
35.157 879.00
35.4613 850.00
35.7656 790.00
36.0698 920.00
36.3741 870.00
36.6783 801.00
36.9826 828.00
37.2869 897.00
37.5911 739.00
37.8954 730.00
38.1996 797.00
38.5039 892.00
38.8082 796.00
39.1124 907.00
39.4167 1097.00
39.7209 999.00
40.0252 800.00
40.3295 737.00
40.6337 773.00
40.938 1041.00
41.2422 1441.00
41.5465 818.00
41.8508 1010.00
42.155 1062.00
42.4593 734.00
42.7635 759.00
43.0678 823.00
43.3721 748.00
43.6763 739.00
43.9806 1228.00
44.2849 2671.00
44.5891 1131.00
44.8934 1143.00
45.1976 771.00
45.5019 740.00
45.8062 1215.00
46.1104 895.00
46.4147 4039.00
46.7189 1957.00
47.0232 870.00
47.3275 623.00
47.6317 641.00
47.936 750.00
48.2402 902.00
48.5445 962.00
48.8488 766.00
49.153 1187.00
49.4573 768.00
49.7615 650.00
50.0658 893.00
50.3701 1250.00
50.6743 768.00
50.9786 1735.00
51.2828 1220.00
51.5871 669.00
51.8914 712.00
52.1956 719.00
52.4999 1224.00
52.8041 2811.00
53.1084 1081.00
53.4127 599.00
53.7169 612.00
54.0212 714.00
54.3254 824.00
54.6297 553.00
54.934 655.00
55.2382 628.00
55.5425 620.00
55.8467 649.00
56.151 555.00
56.4553 540.00
56.7595 822.00
57.0638 747.00
57.368 669.00
57.6723 704.00
57.9766 667.00
58.2808 861.00
58.5851 2265.00
58.8893 2412.00
59.1936 1137.00
59.4979 935.00
59.8021 604.00
60.1064 689.00
60.4106 1651.00
60.7149 1091.00
61.0192 1039.00
61.3234 746.00
61.6277 589.00
61.932 605.00
62.2362 717.00
62.5405 810.00
62.8447 857.00
63.149 878.00
63.4533 616.00
63.7575 507.00
64.0618 946.00
64.366 719.00
64.6703 645.00
64.9745 537.00
65.2788 698.00
65.5831 847.00
65.8873 711.00
66.1916 1178.00
66.4959 1048.00
66.8001 880.00
67.1044 534.00
67.4086 554.00
67.7129 989.00
68.0172 548.00
68.3214 509.00
68.6257 631.00
68.9299 677.00
69.2342 640.00
69.5385 572.00
69.8427 503.00
70.147 469.00
70.4512 532.00
70.7555 570.00
71.0598 1310.00
71.364 792.00
71.6683 520.00
71.9725 513.00
72.2768 567.00
72.5811 608.00
72.8853 532.00
73.1896 564.00
73.4938 845.00
73.7981 600.00
74.1024 485.00
74.4066 851.00
74.7109 601.00
75.0151 527.00
75.3194 565.00
75.6237 517.00
75.9279 512.00
76.2322 576.00
76.5364 690.00
76.8407 661.00
77.145 578.00
77.4492 567.00
77.7535 526.00
78.0577 470.00
78.362 482.00
78.6663 502.00
78.9705 522.00
79.2748 535.00
79.579 892.00
79.8833 680.00
80.1876 706.00
80.4918 508.00
80.7961 517.00
81.1003 780.00
81.4046 676.00
81.7089 470.00
82.0131 485.00
82.3174 506.00
82.6217 549.00
82.9259 489.00
83.2302 491.00
83.5344 418.00
83.8387 424.00
84.143 504.00
84.4472 513.00
84.7515 470.00
85.0557 510.00
85.36 487.00
85.6643 544.00
85.9685 541.00
86.2728 774.00
86.577 707.00
86.8813 621.00
87.1856 605.00
87.4898 533.00
87.7941 542.00
88.0983 465.00
88.4026 550.00
88.7069 496.00
89.0111 595.00
89.3154 651.00
89.6196 587.00
89.9239 575.00
90.2282 510.00
90.5324 413.00
90.8367 550.00
91.1409 574.00
91.4452 451.00
91.7495 457.00
92.0537 517.00
92.358 508.00
92.6622 647.00
92.9665 714.00
93.2708 618.00
93.575 505.00
93.8793 581.00
94.1835 695.00
94.4878 546.00
94.7921 490.00
95.0963 517.00
95.4006 567.00
95.7048 547.00
96.0091 428.00
96.3134 473.00
96.6176 496.00
96.9219 474.00
97.2261 465.00
97.5304 464.00
97.8347 469.00
98.1389 484.00
98.4432 461.00
98.7474 483.00
99.0517 733.00
99.356 676.00
99.6602 554.00
99.9645 506.00
100.095 491.00