File: data/xrd_creation/results/NSC_185.xy
9.903433 2547.00
10.2077 2532.00
10.512 2335.00
10.8162 2348.00
11.1205 2234.00
11.4247 2147.00
11.729 2108.00
12.0333 2088.00
12.3375 2031.00
12.6418 1939.00
12.946 1864.00
13.2503 1856.00
13.5546 1787.00
13.8588 1773.00
14.1631 1721.00
14.4673 1625.00
14.7716 1746.00
15.0759 1664.00
15.3801 1597.00
15.6844 1639.00
15.9886 1749.00
16.2929 2544.00
16.5972 5406.00
16.9014 1897.00
17.2057 2311.00
17.5099 1496.00
17.8142 1445.00
18.1185 1411.00
18.4227 1352.00
18.727 1339.00
19.0312 1225.00
19.3355 1387.00
19.6398 1233.00
19.944 1249.00
20.2483 1259.00
20.5525 1107.00
20.8568 1101.00
21.1611 1163.00
21.4653 1142.00
21.7696 1416.00
22.0738 1183.00
22.3781 1040.00
22.6824 1091.00
22.9866 1007.00
23.2909 1017.00
23.5951 1024.00
23.8994 1015.00
24.2037 922.00
24.5079 954.00
24.8122 909.00
25.1164 944.00
25.4207 1684.00
25.725 925.00
26.0292 905.00
26.3335 896.00
26.6378 883.00
26.942 806.00
27.2463 790.00
27.5505 805.00
27.8548 792.00
28.1591 845.00
28.4633 752.00
28.7676 750.00
29.0718 777.00
29.3761 835.00
29.6804 3028.00
29.9846 926.00
30.2889 807.00
30.5931 1077.00
30.8974 6347.00
31.2017 1350.00
31.5059 763.00
31.8102 700.00
32.1144 748.00
32.4187 844.00
32.723 3049.00
33.0272 1778.00
33.3315 883.00
33.6357 824.00
33.94 1208.00
34.2443 2826.00
34.5485 791.00
34.8528 655.00
35.157 1694.00
35.4613 928.00
35.7656 2243.00
36.0698 849.00
36.3741 598.00
36.6783 558.00
36.9826 579.00
37.2869 650.00
37.5911 2031.00
37.8954 689.00
38.1996 824.00
38.5039 585.00
38.8082 753.00
39.1124 2468.00
39.4167 2832.00
39.7209 647.00
40.0252 599.00
40.3295 555.00
40.6337 499.00
40.938 479.00
41.2422 473.00
41.5465 521.00
41.8508 536.00
42.155 736.00
42.4593 632.00
42.7635 1284.00
43.0678 546.00
43.3721 494.00
43.6763 494.00
43.9806 445.00
44.2849 462.00
44.5891 458.00
44.8934 402.00
45.1976 414.00
45.5019 458.00
45.8062 594.00
46.1104 930.00
46.4147 466.00
46.7189 445.00
47.0232 399.00
47.3275 458.00
47.6317 377.00
47.936 378.00
48.2402 487.00
48.5445 991.00
48.8488 418.00
49.153 410.00
49.4573 437.00
49.7615 649.00
50.0658 482.00
50.3701 552.00
50.6743 498.00
50.9786 1072.00
51.2828 2282.00
51.5871 1160.00
51.8914 493.00
52.1956 512.00
52.4999 1170.00
52.8041 440.00
53.1084 479.00
53.4127 381.00
53.7169 380.00
54.0212 389.00
54.3254 359.00
54.6297 388.00
54.934 380.00
55.2382 403.00
55.5425 614.00
55.8467 1649.00
56.151 662.00
56.4553 548.00
56.7595 457.00
57.0638 931.00
57.368 1258.00
57.6723 408.00
57.9766 416.00
58.2808 352.00
58.5851 352.00
58.8893 333.00
59.1936 346.00
59.4979 680.00
59.8021 1047.00
60.1064 786.00
60.4106 463.00
60.7149 646.00
61.0192 1827.00
61.3234 622.00
61.6277 384.00
61.932 324.00
62.2362 381.00
62.5405 588.00
62.8447 336.00
63.149 345.00
63.4533 332.00
63.7575 386.00
64.0618 625.00
64.366 438.00
64.6703 497.00
64.9745 358.00
65.2788 369.00
65.5831 442.00
65.8873 824.00
66.1916 1198.00
66.4959 581.00
66.8001 390.00
67.1044 556.00
67.4086 1011.00
67.7129 727.00
68.0172 570.00
68.3214 696.00
68.6257 485.00
68.9299 490.00
69.2342 353.00
69.5385 311.00
69.8427 359.00
70.147 335.00
70.4512 327.00
70.7555 321.00
71.0598 424.00
71.364 761.00
71.6683 545.00
71.9725 555.00
72.2768 357.00
72.5811 325.00
72.8853 274.00
73.1896 281.00
73.4938 337.00
73.7981 478.00
74.1024 451.00
74.4066 327.00
74.7109 283.00
75.0151 338.00
75.3194 431.00
75.6237 388.00
75.9279 276.00
76.2322 357.00
76.5364 413.00
76.8407 432.00
77.145 269.00
77.4492 290.00
77.7535 249.00
78.0577 369.00
78.362 314.00
78.6663 265.00
78.9705 323.00
79.2748 486.00
79.579 514.00
79.8833 420.00
80.1876 380.00
80.4918 344.00
80.7961 357.00
81.1003 343.00
81.4046 328.00
81.7089 256.00
82.0131 429.00
82.3174 409.00
82.6217 310.00
82.9259 307.00
83.2302 396.00
83.5344 646.00
83.8387 610.00
84.143 434.00
84.4472 401.00
84.7515 316.00
85.0557 258.00
85.36 275.00
85.6643 283.00
85.9685 420.00
86.2728 392.00
86.577 301.00
86.8813 351.00
87.1856 411.00
87.4898 531.00
87.7941 360.00
88.0983 306.00
88.4026 301.00
88.7069 439.00
89.0111 391.00
89.3154 308.00
89.6196 328.00
89.9239 335.00
90.2282 376.00
90.5324 290.00
90.8367 303.00
91.1409 391.00
91.4452 357.00
91.7495 265.00
92.0537 263.00
92.358 287.00
92.6622 389.00
92.9665 433.00
93.2708 346.00
93.575 334.00
93.8793 447.00
94.1835 345.00
94.4878 476.00
94.7921 421.00
95.0963 428.00
95.4006 608.00
95.7048 476.00
96.0091 332.00
96.3134 342.00
96.6176 363.00
96.9219 406.00
97.2261 381.00
97.5304 514.00
97.8347 558.00
98.1389 481.00
98.4432 372.00
98.7474 300.00
99.0517 294.00
99.356 385.00
99.6602 335.00
99.9645 407.00
100.095 351.00