File: data/xrd_creation/results/NSC_175.xy
9.903433 2719.00
10.2077 2529.00
10.512 2405.00
10.8162 2357.00
11.1205 2423.00
11.4247 2196.00
11.729 2232.00
12.0333 2077.00
12.3375 2155.00
12.6418 1927.00
12.946 1844.00
13.2503 1873.00
13.5546 1826.00
13.8588 1733.00
14.1631 1774.00
14.4673 2669.00
14.7716 1680.00
15.0759 1646.00
15.3801 1536.00
15.6844 1646.00
15.9886 1531.00
16.2929 1538.00
16.5972 1451.00
16.9014 1443.00
17.2057 1421.00
17.5099 1430.00
17.8142 1322.00
18.1185 1306.00
18.4227 1301.00
18.727 1354.00
19.0312 1282.00
19.3355 1234.00
19.6398 1311.00
19.944 1491.00
20.2483 4544.00
20.5525 2377.00
20.8568 1746.00
21.1611 1185.00
21.4653 1141.00
21.7696 1197.00
22.0738 1071.00
22.3781 1088.00
22.6824 1071.00
22.9866 1026.00
23.2909 1211.00
23.5951 1624.00
23.8994 4998.00
24.2037 3926.00
24.5079 2260.00
24.8122 1051.00
25.1164 1005.00
25.4207 1020.00
25.725 940.00
26.0292 884.00
26.3335 935.00
26.6378 898.00
26.942 869.00
27.2463 834.00
27.5505 931.00
27.8548 1596.00
28.1591 826.00
28.4633 907.00
28.7676 1328.00
29.0718 2838.00
29.3761 879.00
29.6804 734.00
29.9846 735.00
30.2889 732.00
30.5931 737.00
30.8974 777.00
31.2017 807.00
31.5059 1029.00
31.8102 2319.00
32.1144 8562.00
32.4187 1201.00
32.723 875.00
33.0272 668.00
33.3315 633.00
33.6357 692.00
33.94 644.00
34.2443 558.00
34.5485 627.00
34.8528 580.00
35.157 696.00
35.4613 787.00
35.7656 1336.00
36.0698 3084.00
36.3741 1109.00
36.6783 511.00
36.9826 552.00
37.2869 431.00
37.5911 492.00
37.8954 502.00
38.1996 486.00
38.5039 459.00
38.8082 417.00
39.1124 467.00
39.4167 485.00
39.7209 500.00
40.0252 453.00
40.3295 471.00
40.6337 539.00
40.938 649.00
41.2422 469.00
41.5465 694.00
41.8508 446.00
42.155 453.00
42.4593 643.00
42.7635 706.00
43.0678 812.00
43.3721 553.00
43.6763 1256.00
43.9806 586.00
44.2849 514.00
44.5891 480.00
44.8934 431.00
45.1976 409.00
45.5019 470.00
45.8062 629.00
46.1104 1475.00
46.4147 475.00
46.7189 734.00
47.0232 423.00
47.3275 423.00
47.6317 454.00
47.936 655.00
48.2402 692.00
48.5445 795.00
48.8488 2582.00
49.153 967.00
49.4573 658.00
49.7615 693.00
50.0658 585.00
50.3701 338.00
50.6743 349.00
50.9786 360.00
51.2828 351.00
51.5871 376.00
51.8914 402.00
52.1956 444.00
52.4999 769.00
52.8041 1916.00
53.1084 498.00
53.4127 442.00
53.7169 352.00
54.0212 339.00
54.3254 410.00
54.6297 1020.00
54.934 449.00
55.2382 577.00
55.5425 631.00
55.8467 822.00
56.151 1369.00
56.4553 558.00
56.7595 453.00
57.0638 565.00
57.368 546.00
57.6723 611.00
57.9766 338.00
58.2808 302.00
58.5851 337.00
58.8893 317.00
59.1936 287.00
59.4979 418.00
59.8021 434.00
60.1064 419.00
60.4106 456.00
60.7149 384.00
61.0192 442.00
61.3234 956.00
61.6277 550.00
61.932 964.00
62.2362 657.00
62.5405 349.00
62.8447 727.00
63.149 463.00
63.4533 367.00
63.7575 406.00
64.0618 576.00
64.366 992.00
64.6703 596.00
64.9745 355.00
65.2788 474.00
65.5831 371.00
65.8873 350.00
66.1916 305.00
66.4959 248.00
66.8001 311.00
67.1044 310.00
67.4086 452.00
67.7129 397.00
68.0172 435.00
68.3214 541.00
68.6257 346.00
68.9299 412.00
69.2342 611.00
69.5385 576.00
69.8427 475.00
70.147 362.00
70.4512 287.00
70.7555 262.00
71.0598 281.00
71.364 294.00
71.6683 421.00
71.9725 672.00
72.2768 456.00
72.5811 317.00
72.8853 267.00
73.1896 371.00
73.4938 323.00
73.7981 265.00
74.1024 263.00
74.4066 212.00
74.7109 234.00
75.0151 239.00
75.3194 308.00
75.6237 444.00
75.9279 686.00
76.2322 395.00
76.5364 355.00
76.8407 460.00
77.145 308.00
77.4492 293.00
77.7535 319.00
78.0577 318.00
78.362 329.00
78.6663 237.00
78.9705 287.00
79.2748 333.00
79.579 267.00
79.8833 243.00
80.1876 272.00
80.4918 225.00
80.7961 234.00
81.1003 247.00
81.4046 228.00
81.7089 271.00
82.0131 229.00
82.3174 210.00
82.6217 315.00
82.9259 302.00
83.2302 355.00
83.5344 246.00
83.8387 228.00
84.143 257.00
84.4472 368.00
84.7515 401.00
85.0557 288.00
85.36 298.00
85.6643 240.00
85.9685 303.00
86.2728 335.00
86.577 298.00
86.8813 301.00
87.1856 277.00
87.4898 238.00
87.7941 245.00
88.0983 215.00
88.4026 203.00
88.7069 232.00
89.0111 303.00
89.3154 283.00
89.6196 322.00
89.9239 369.00
90.2282 370.00
90.5324 322.00
90.8367 353.00
91.1409 481.00
91.4452 382.00
91.7495 319.00
92.0537 247.00
92.358 248.00
92.6622 248.00
92.9665 208.00
93.2708 280.00
93.575 306.00
93.8793 307.00
94.1835 280.00
94.4878 217.00
94.7921 229.00
95.0963 284.00
95.4006 295.00
95.7048 280.00
96.0091 289.00
96.3134 283.00
96.6176 282.00
96.9219 285.00
97.2261 404.00
97.5304 409.00
97.8347 313.00
98.1389 322.00
98.4432 318.00
98.7474 250.00
99.0517 256.00
99.356 216.00
99.6602 235.00
99.9645 242.00
100.095 204.00