File: data/xrd_creation/results/NSC_3.xy
9.903433 2892.00
10.2077 2707.00
10.512 2628.00
10.8162 2641.00
11.1205 2511.00
11.4247 2473.00
11.729 2280.00
12.0333 2346.00
12.3375 2192.00
12.6418 2227.00
12.946 2213.00
13.2503 2080.00
13.5546 2114.00
13.8588 2201.00
14.1631 2480.00
14.4673 3005.00
14.7716 2146.00
15.0759 2506.00
15.3801 2315.00
15.6844 2064.00
15.9886 1974.00
16.2929 1948.00
16.5972 1822.00
16.9014 1832.00
17.2057 1887.00
17.5099 1968.00
17.8142 1918.00
18.1185 1745.00
18.4227 1841.00
18.727 2243.00
19.0312 2576.00
19.3355 1904.00
19.6398 2698.00
19.944 4957.00
20.2483 2333.00
20.5525 4564.00
20.8568 5586.00
21.1611 2571.00
21.4653 2236.00
21.7696 6390.00
22.0738 4953.00
22.3781 1998.00
22.6824 1796.00
22.9866 1766.00
23.2909 1844.00
23.5951 2547.00
23.8994 6385.00
24.2037 2630.00
24.5079 3087.00
24.8122 2171.00
25.1164 2799.00
25.4207 4530.00
25.725 1653.00
26.0292 1805.00
26.3335 2510.00
26.6378 2343.00
26.942 1909.00
27.2463 1470.00
27.5505 1546.00
27.8548 1470.00
28.1591 1697.00
28.4633 4569.00
28.7676 3962.00
29.0718 1809.00
29.3761 1511.00
29.6804 1585.00
29.9846 1648.00
30.2889 2315.00
30.5931 2868.00
30.8974 3078.00
31.2017 2025.00
31.5059 4255.00
31.8102 5143.00
32.1144 1944.00
32.4187 1503.00
32.723 1611.00
33.0272 1789.00
33.3315 3691.00
33.6357 2268.00
33.94 1862.00
34.2443 1781.00
34.5485 1654.00
34.8528 1623.00
35.157 1529.00
35.4613 2465.00
35.7656 2365.00
36.0698 2762.00
36.3741 3731.00
36.6783 1536.00
36.9826 1276.00
37.2869 1283.00
37.5911 1343.00
37.8954 1689.00
38.1996 1868.00
38.5039 1997.00
38.8082 1305.00
39.1124 1188.00
39.4167 1168.00
39.7209 1556.00
40.0252 1419.00
40.3295 1308.00
40.6337 1365.00
40.938 1431.00
41.2422 1365.00
41.5465 1520.00
41.8508 1658.00
42.155 1469.00
42.4593 1400.00
42.7635 1139.00
43.0678 1258.00
43.3721 1521.00
43.6763 1517.00
43.9806 1431.00
44.2849 1402.00
44.5891 1339.00
44.8934 1376.00
45.1976 1791.00
45.5019 1914.00
45.8062 1518.00
46.1104 1513.00
46.4147 1719.00
46.7189 1567.00
47.0232 1542.00
47.3275 1301.00
47.6317 1233.00
47.936 1534.00
48.2402 2339.00
48.5445 2359.00
48.8488 1582.00
49.153 1560.00
49.4573 2094.00
49.7615 2585.00
50.0658 1323.00
50.3701 1720.00
50.6743 1418.00
50.9786 1634.00
51.2828 1592.00
51.5871 2353.00
51.8914 2046.00
52.1956 1491.00
52.4999 1315.00
52.8041 1273.00
53.1084 1105.00
53.4127 1183.00
53.7169 1134.00
54.0212 1218.00
54.3254 1613.00
54.6297 2125.00
54.934 2198.00
55.2382 1414.00
55.5425 1863.00
55.8467 2215.00
56.151 2007.00
56.4553 1538.00
56.7595 1269.00
57.0638 1225.00
57.368 1313.00
57.6723 1329.00
57.9766 1408.00
58.2808 2436.00
58.5851 1845.00
58.8893 1362.00
59.1936 1461.00
59.4979 1418.00
59.8021 1608.00
60.1064 1913.00
60.4106 1923.00
60.7149 1528.00
61.0192 1293.00
61.3234 1493.00
61.6277 1742.00
61.932 1624.00
62.2362 1490.00
62.5405 1432.00
62.8447 1454.00
63.149 1552.00
63.4533 1260.00
63.7575 1322.00
64.0618 1768.00
64.366 1868.00
64.6703 1415.00
64.9745 1319.00
65.2788 1326.00
65.5831 1406.00
65.8873 1689.00
66.1916 1721.00
66.4959 1468.00
66.8001 1327.00
67.1044 1169.00
67.4086 1420.00
67.7129 1219.00
68.0172 1264.00
68.3214 1513.00
68.6257 1566.00
68.9299 1358.00
69.2342 1349.00
69.5385 1270.00
69.8427 1233.00
70.147 1208.00
70.4512 1368.00
70.7555 1190.00
71.0598 1143.00
71.364 1149.00
71.6683 1181.00
71.9725 1204.00
72.2768 1089.00
72.5811 1191.00
72.8853 1231.00
73.1896 1135.00
73.4938 1094.00
73.7981 1058.00
74.1024 1185.00
74.4066 1176.00
74.7109 1196.00
75.0151 1110.00
75.3194 1218.00
75.6237 1363.00
75.9279 1306.00
76.2322 1193.00
76.5364 1181.00
76.8407 1171.00
77.145 1213.00
77.4492 1216.00
77.7535 1151.00
78.0577 1066.00
78.362 1093.00
78.6663 1112.00
78.9705 1229.00
79.2748 1280.00
79.579 1227.00
79.8833 1220.00
80.1876 1140.00
80.4918 1024.00
80.7961 1131.00
81.1003 1064.00
81.4046 1136.00
81.7089 1239.00
82.0131 1209.00
82.3174 1141.00
82.6217 1102.00
82.9259 1115.00
83.2302 1147.00
83.5344 1161.00
83.8387 1255.00
84.143 1197.00
84.4472 1183.00
84.7515 1179.00
85.0557 1226.00
85.36 1126.00
85.6643 1217.00
85.9685 1127.00
86.2728 1128.00
86.577 1146.00
86.8813 1198.00
87.1856 1154.00
87.4898 1141.00
87.7941 1088.00
88.0983 1095.00
88.4026 1124.00
88.7069 1214.00
89.0111 1208.00
89.3154 1125.00
89.6196 1078.00
89.9239 1066.00
90.2282 1173.00
90.5324 1177.00
90.8367 1127.00
91.1409 1179.00
91.4452 1101.00
91.7495 1258.00
92.0537 1295.00
92.358 1233.00
92.6622 1224.00
92.9665 1256.00
93.2708 1093.00
93.575 1108.00
93.8793 1161.00
94.1835 1108.00
94.4878 1079.00
94.7921 1091.00
95.0963 1069.00
95.4006 1162.00
95.7048 1159.00
96.0091 1117.00
96.3134 1168.00
96.6176 1210.00
96.9219 1127.00
97.2261 1112.00
97.5304 1122.00
97.8347 1161.00
98.1389 1097.00
98.4432 1128.00
98.7474 1020.00
99.0517 1182.00
99.356 1169.00
99.6602 1193.00
99.9645 1253.00
100.095 1188.00