File: data/xrd_creation/results/NSC_12.xy
9.903433 3003.00
10.2077 2755.00
10.512 2702.00
10.8162 2646.00
11.1205 2577.00
11.4247 2628.00
11.729 2410.00
12.0333 2422.00
12.3375 2263.00
12.6418 2279.00
12.946 2320.00
13.2503 2204.00
13.5546 2183.00
13.8588 2382.00
14.1631 2963.00
14.4673 2678.00
14.7716 2160.00
15.0759 2201.00
15.3801 2141.00
15.6844 2063.00
15.9886 2014.00
16.2929 1982.00
16.5972 2027.00
16.9014 1964.00
17.2057 1950.00
17.5099 1843.00
17.8142 1929.00
18.1185 1959.00
18.4227 1852.00
18.727 1933.00
19.0312 2061.00
19.3355 2236.00
19.6398 4589.00
19.944 4712.00
20.2483 3301.00
20.5525 10151.00
20.8568 2758.00
21.1611 1947.00
21.4653 2017.00
21.7696 3633.00
22.0738 2297.00
22.3781 1733.00
22.6824 1727.00
22.9866 1877.00
23.2909 2317.00
23.5951 5982.00
23.8994 5177.00
24.2037 2168.00
24.5079 2026.00
24.8122 1825.00
25.1164 1962.00
25.4207 1970.00
25.725 1665.00
26.0292 1606.00
26.3335 1668.00
26.6378 2019.00
26.942 1570.00
27.2463 1576.00
27.5505 1585.00
27.8548 1615.00
28.1591 2157.00
28.4633 6090.00
28.7676 3146.00
29.0718 1616.00
29.3761 1500.00
29.6804 1542.00
29.9846 1565.00
30.2889 1711.00
30.5931 1732.00
30.8974 2312.00
31.2017 2688.00
31.5059 9511.00
31.8102 3901.00
32.1144 1742.00
32.4187 1486.00
32.723 1501.00
33.0272 1510.00
33.3315 1958.00
33.6357 1495.00
33.94 1770.00
34.2443 1710.00
34.5485 1605.00
34.8528 1625.00
35.157 2406.00
35.4613 3141.00
35.7656 4578.00
36.0698 2195.00
36.3741 2243.00
36.6783 1385.00
36.9826 1299.00
37.2869 1298.00
37.5911 1401.00
37.8954 1404.00
38.1996 1399.00
38.5039 1383.00
38.8082 1456.00
39.1124 1327.00
39.4167 1303.00
39.7209 1599.00
40.0252 1738.00
40.3295 1292.00
40.6337 1359.00
40.938 1451.00
41.2422 1588.00
41.5465 1985.00
41.8508 1629.00
42.155 1441.00
42.4593 1440.00
42.7635 1330.00
43.0678 1652.00
43.3721 2102.00
43.6763 1476.00
43.9806 1559.00
44.2849 1341.00
44.5891 1352.00
44.8934 1600.00
45.1976 2959.00
45.5019 1805.00
45.8062 1474.00
46.1104 1928.00
46.4147 1999.00
46.7189 1703.00
47.0232 1784.00
47.3275 1340.00
47.6317 1361.00
47.936 1985.00
48.2402 3627.00
48.5445 2301.00
48.8488 1631.00
49.153 1440.00
49.4573 1712.00
49.7615 1720.00
50.0658 1307.00
50.3701 1572.00
50.6743 1407.00
50.9786 1523.00
51.2828 1947.00
51.5871 2966.00
51.8914 2074.00
52.1956 1561.00
52.4999 1294.00
52.8041 1276.00
53.1084 1198.00
53.4127 1266.00
53.7169 1215.00
54.0212 1390.00
54.3254 1737.00
54.6297 1995.00
54.934 1689.00
55.2382 1974.00
55.5425 3042.00
55.8467 2993.00
56.151 1885.00
56.4553 1428.00
56.7595 1347.00
57.0638 1375.00
57.368 1461.00
57.6723 1315.00
57.9766 1360.00
58.2808 1961.00
58.5851 1867.00
58.8893 1558.00
59.1936 1294.00
59.4979 1319.00
59.8021 1522.00
60.1064 2165.00
60.4106 1983.00
60.7149 1433.00
61.0192 1559.00
61.3234 2149.00
61.6277 1890.00
61.932 1489.00
62.2362 1667.00
62.5405 1759.00
62.8447 1665.00
63.149 1516.00
63.4533 1437.00
63.7575 1722.00
64.0618 1945.00
64.366 1618.00
64.6703 1334.00
64.9745 1240.00
65.2788 1417.00
65.5831 1458.00
65.8873 1419.00
66.1916 1665.00
66.4959 1647.00
66.8001 1379.00
67.1044 1312.00
67.4086 1490.00
67.7129 1561.00
68.0172 1497.00
68.3214 1502.00
68.6257 1392.00
68.9299 1378.00
69.2342 1362.00
69.5385 1325.00
69.8427 1209.00
70.147 1186.00
70.4512 1246.00
70.7555 1195.00
71.0598 1450.00
71.364 1579.00
71.6683 1426.00
71.9725 1218.00
72.2768 1231.00
72.5811 1262.00
72.8853 1194.00
73.1896 1174.00
73.4938 1179.00
73.7981 1301.00
74.1024 1406.00
74.4066 1303.00
74.7109 1296.00
75.0151 1453.00
75.3194 1536.00
75.6237 1554.00
75.9279 1387.00
76.2322 1189.00
76.5364 1133.00
76.8407 1248.00
77.145 1242.00
77.4492 1201.00
77.7535 1248.00
78.0577 1156.00
78.362 1230.00
78.6663 1343.00
78.9705 1488.00
79.2748 1444.00
79.579 1323.00
79.8833 1250.00
80.1876 1247.00
80.4918 1226.00
80.7961 1240.00
81.1003 1410.00
81.4046 1326.00
81.7089 1276.00
82.0131 1132.00
82.3174 1202.00
82.6217 1139.00
82.9259 1193.00
83.2302 1309.00
83.5344 1326.00
83.8387 1435.00
84.143 1283.00
84.4472 1307.00
84.7515 1346.00
85.0557 1406.00
85.36 1295.00
85.6643 1307.00
85.9685 1409.00
86.2728 1317.00
86.577 1362.00
86.8813 1300.00
87.1856 1276.00
87.4898 1161.00
87.7941 1216.00
88.0983 1181.00
88.4026 1236.00
88.7069 1240.00
89.0111 1246.00
89.3154 1314.00
89.6196 1369.00
89.9239 1446.00
90.2282 1455.00
90.5324 1305.00
90.8367 1243.00
91.1409 1253.00
91.4452 1258.00
91.7495 1305.00
92.0537 1347.00
92.358 1262.00
92.6622 1266.00
92.9665 1152.00
93.2708 1101.00
93.575 1182.00
93.8793 1269.00
94.1835 1289.00
94.4878 1240.00
94.7921 1257.00
95.0963 1316.00
95.4006 1375.00
95.7048 1333.00
96.0091 1271.00
96.3134 1293.00
96.6176 1372.00
96.9219 1336.00
97.2261 1277.00
97.5304 1244.00
97.8347 1197.00
98.1389 1127.00
98.4432 1104.00
98.7474 1209.00
99.0517 1314.00
99.356 1294.00
99.6602 1293.00
99.9645 1230.00
100.095 1343.00