File: data/xrd_creation/results/NSC_142.xy
9.903433 2663.00
10.2077 2627.00
10.512 2510.00
10.8162 2478.00
11.1205 2378.00
11.4247 2361.00
11.729 2220.00
12.0333 2129.00
12.3375 2196.00
12.6418 1972.00
12.946 2017.00
13.2503 1902.00
13.5546 1926.00
13.8588 2204.00
14.1631 2780.00
14.4673 1816.00
14.7716 1718.00
15.0759 1811.00
15.3801 2359.00
15.6844 2787.00
15.9886 1831.00
16.2929 1628.00
16.5972 1672.00
16.9014 1607.00
17.2057 1557.00
17.5099 1615.00
17.8142 1501.00
18.1185 1463.00
18.4227 1511.00
18.727 1444.00
19.0312 1437.00
19.3355 1476.00
19.6398 2815.00
19.944 5534.00
20.2483 1841.00
20.5525 2122.00
20.8568 1595.00
21.1611 1467.00
21.4653 1348.00
21.7696 2141.00
22.0738 1400.00
22.3781 1338.00
22.6824 1305.00
22.9866 1311.00
23.2909 2323.00
23.5951 1298.00
23.8994 1202.00
24.2037 1237.00
24.5079 1363.00
24.8122 1372.00
25.1164 1312.00
25.4207 1125.00
25.725 1087.00
26.0292 1071.00
26.3335 1057.00
26.6378 1099.00
26.942 1055.00
27.2463 1130.00
27.5505 1140.00
27.8548 1209.00
28.1591 3141.00
28.4633 2285.00
28.7676 1057.00
29.0718 1040.00
29.3761 980.00
29.6804 1119.00
29.9846 1342.00
30.2889 1497.00
30.5931 1658.00
30.8974 2028.00
31.2017 1639.00
31.5059 6556.00
31.8102 2666.00
32.1144 1747.00
32.4187 2408.00
32.723 1321.00
33.0272 1013.00
33.3315 1148.00
33.6357 1785.00
33.94 971.00
34.2443 1047.00
34.5485 2424.00
34.8528 6181.00
35.157 984.00
35.4613 905.00
35.7656 952.00
36.0698 842.00
36.3741 897.00
36.6783 848.00
36.9826 734.00
37.2869 712.00
37.5911 719.00
37.8954 876.00
38.1996 743.00
38.5039 796.00
38.8082 706.00
39.1124 649.00
39.4167 737.00
39.7209 758.00
40.0252 843.00
40.3295 1034.00
40.6337 968.00
40.938 635.00
41.2422 686.00
41.5465 678.00
41.8508 769.00
42.155 1471.00
42.4593 1421.00
42.7635 1565.00
43.0678 963.00
43.3721 832.00
43.6763 614.00
43.9806 643.00
44.2849 706.00
44.5891 882.00
44.8934 874.00
45.1976 1838.00
45.5019 1143.00
45.8062 891.00
46.1104 730.00
46.4147 830.00
46.7189 633.00
47.0232 832.00
47.3275 1660.00
47.6317 2437.00
47.936 706.00
48.2402 585.00
48.5445 627.00
48.8488 1024.00
49.153 810.00
49.4573 744.00
49.7615 723.00
50.0658 773.00
50.3701 630.00
50.6743 948.00
50.9786 809.00
51.2828 1084.00
51.5871 1287.00
51.8914 1316.00
52.1956 692.00
52.4999 569.00
52.8041 604.00
53.1084 638.00
53.4127 666.00
53.7169 772.00
54.0212 1459.00
54.3254 1808.00
54.6297 666.00
54.934 546.00
55.2382 585.00
55.5425 876.00
55.8467 679.00
56.151 684.00
56.4553 1072.00
56.7595 931.00
57.0638 602.00
57.368 551.00
57.6723 535.00
57.9766 543.00
58.2808 517.00
58.5851 519.00
58.8893 576.00
59.1936 860.00
59.4979 866.00
59.8021 1378.00
60.1064 2092.00
60.4106 1089.00
60.7149 877.00
61.0192 978.00
61.3234 919.00
61.6277 907.00
61.932 1007.00
62.2362 1186.00
62.5405 793.00
62.8447 609.00
63.149 651.00
63.4533 669.00
63.7575 906.00
64.0618 658.00
64.366 578.00
64.6703 581.00
64.9745 542.00
65.2788 466.00
65.5831 519.00
65.8873 887.00
66.1916 644.00
66.4959 554.00
66.8001 562.00
67.1044 810.00
67.4086 913.00
67.7129 788.00
68.0172 518.00
68.3214 533.00
68.6257 525.00
68.9299 503.00
69.2342 650.00
69.5385 777.00
69.8427 612.00
70.147 486.00
70.4512 497.00
70.7555 519.00
71.0598 537.00
71.364 533.00
71.6683 421.00
71.9725 526.00
72.2768 505.00
72.5811 523.00
72.8853 550.00
73.1896 751.00
73.4938 568.00
73.7981 432.00
74.1024 472.00
74.4066 553.00
74.7109 514.00
75.0151 486.00
75.3194 547.00
75.6237 491.00
75.9279 532.00
76.2322 562.00
76.5364 722.00
76.8407 580.00
77.145 432.00
77.4492 431.00
77.7535 456.00
78.0577 626.00
78.362 630.00
78.6663 437.00
78.9705 451.00
79.2748 445.00
79.579 494.00
79.8833 443.00
80.1876 474.00
80.4918 499.00
80.7961 487.00
81.1003 538.00
81.4046 649.00
81.7089 769.00
82.0131 592.00
82.3174 446.00
82.6217 446.00
82.9259 469.00
83.2302 538.00
83.5344 586.00
83.8387 421.00
84.143 358.00
84.4472 411.00
84.7515 434.00
85.0557 404.00
85.36 371.00
85.6643 381.00
85.9685 449.00
86.2728 489.00
86.577 504.00
86.8813 466.00
87.1856 421.00
87.4898 435.00
87.7941 490.00
88.0983 511.00
88.4026 628.00
88.7069 519.00
89.0111 440.00
89.3154 474.00
89.6196 484.00
89.9239 483.00
90.2282 544.00
90.5324 483.00
90.8367 412.00
91.1409 485.00
91.4452 520.00
91.7495 584.00
92.0537 542.00
92.358 514.00
92.6622 467.00
92.9665 461.00
93.2708 470.00
93.575 438.00
93.8793 415.00
94.1835 403.00
94.4878 413.00
94.7921 616.00
95.0963 690.00
95.4006 534.00
95.7048 469.00
96.0091 513.00
96.3134 523.00
96.6176 585.00
96.9219 545.00
97.2261 531.00
97.5304 508.00
97.8347 404.00
98.1389 429.00
98.4432 516.00
98.7474 443.00
99.0517 413.00
99.356 400.00
99.6602 478.00
99.9645 476.00
100.095 465.00