File: data/xrd_creation/results/NSC_166.xy
9.903433 2540.00
10.2077 2475.00
10.512 2242.00
10.8162 2254.00
11.1205 2024.00
11.4247 2037.00
11.729 1932.00
12.0333 1905.00
12.3375 1795.00
12.6418 1658.00
12.946 1628.00
13.2503 1590.00
13.5546 1529.00
13.8588 1440.00
14.1631 1471.00
14.4673 1403.00
14.7716 1297.00
15.0759 1322.00
15.3801 1349.00
15.6844 1257.00
15.9886 1264.00
16.2929 1170.00
16.5972 1125.00
16.9014 1210.00
17.2057 1137.00
17.5099 1069.00
17.8142 1100.00
18.1185 1052.00
18.4227 1045.00
18.727 1025.00
19.0312 972.00
19.3355 1445.00
19.6398 1060.00
19.944 921.00
20.2483 899.00
20.5525 895.00
20.8568 907.00
21.1611 872.00
21.4653 844.00
21.7696 826.00
22.0738 825.00
22.3781 830.00
22.6824 829.00
22.9866 749.00
23.2909 773.00
23.5951 769.00
23.8994 785.00
24.2037 706.00
24.5079 683.00
24.8122 690.00
25.1164 674.00
25.4207 615.00
25.725 605.00
26.0292 635.00
26.3335 628.00
26.6378 605.00
26.942 580.00
27.2463 578.00
27.5505 735.00
27.8548 626.00
28.1591 598.00
28.4633 541.00
28.7676 571.00
29.0718 524.00
29.3761 571.00
29.6804 510.00
29.9846 532.00
30.2889 577.00
30.5931 545.00
30.8974 612.00
31.2017 791.00
31.5059 507.00
31.8102 482.00
32.1144 460.00
32.4187 501.00
32.723 454.00
33.0272 472.00
33.3315 432.00
33.6357 459.00
33.94 914.00
34.2443 493.00
34.5485 404.00
34.8528 392.00
35.157 439.00
35.4613 413.00
35.7656 404.00
36.0698 411.00
36.3741 395.00
36.6783 378.00
36.9826 375.00
37.2869 382.00
37.5911 333.00
37.8954 345.00
38.1996 398.00
38.5039 325.00
38.8082 386.00
39.1124 334.00
39.4167 392.00
39.7209 345.00
40.0252 351.00
40.3295 305.00
40.6337 333.00
40.938 310.00
41.2422 335.00
41.5465 341.00
41.8508 298.00
42.155 328.00
42.4593 303.00
42.7635 316.00
43.0678 282.00
43.3721 279.00
43.6763 276.00
43.9806 307.00
44.2849 328.00
44.5891 397.00
44.8934 319.00
45.1976 266.00
45.5019 307.00
45.8062 303.00
46.1104 292.00
46.4147 304.00
46.7189 444.00
47.0232 332.00
47.3275 318.00
47.6317 258.00
47.936 243.00
48.2402 288.00
48.5445 281.00
48.8488 270.00
49.153 241.00
49.4573 286.00
49.7615 276.00
50.0658 285.00
50.3701 256.00
50.6743 280.00
50.9786 307.00
51.2828 318.00
51.5871 231.00
51.8914 280.00
52.1956 256.00
52.4999 281.00
52.8041 285.00
53.1084 361.00
53.4127 221.00
53.7169 195.00
54.0212 198.00
54.3254 225.00
54.6297 240.00
54.934 197.00
55.2382 210.00
55.5425 224.00
55.8467 239.00
56.151 232.00
56.4553 220.00
56.7595 220.00
57.0638 188.00
57.368 220.00
57.6723 212.00
57.9766 191.00
58.2808 189.00
58.5851 208.00
58.8893 208.00
59.1936 298.00
59.4979 224.00
59.8021 204.00
60.1064 172.00
60.4106 200.00
60.7149 221.00
61.0192 220.00
61.3234 218.00
61.6277 204.00
61.932 191.00
62.2362 197.00
62.5405 207.00
62.8447 184.00
63.149 191.00
63.4533 168.00
63.7575 221.00
64.0618 191.00
64.366 177.00
64.6703 196.00
64.9745 175.00
65.2788 181.00
65.5831 159.00
65.8873 215.00
66.1916 206.00
66.4959 185.00
66.8001 197.00
67.1044 207.00
67.4086 173.00
67.7129 168.00
68.0172 182.00
68.3214 196.00
68.6257 190.00
68.9299 182.00
69.2342 175.00
69.5385 187.00
69.8427 175.00
70.147 178.00
70.4512 184.00
70.7555 191.00
71.0598 203.00
71.364 181.00
71.6683 211.00
71.9725 197.00
72.2768 166.00
72.5811 192.00
72.8853 179.00
73.1896 204.00
73.4938 190.00
73.7981 206.00
74.1024 206.00
74.4066 153.00
74.7109 202.00
75.0151 180.00
75.3194 193.00
75.6237 194.00
75.9279 177.00
76.2322 205.00
76.5364 183.00
76.8407 198.00
77.145 191.00
77.4492 188.00
77.7535 219.00
78.0577 212.00
78.362 172.00
78.6663 208.00
78.9705 204.00
79.2748 211.00
79.579 182.00
79.8833 196.00
80.1876 194.00
80.4918 230.00
80.7961 238.00
81.1003 198.00
81.4046 179.00
81.7089 215.00
82.0131 240.00
82.3174 215.00
82.6217 186.00
82.9259 237.00
83.2302 238.00
83.5344 247.00
83.8387 217.00
84.143 219.00
84.4472 202.00
84.7515 194.00
85.0557 179.00
85.36 205.00
85.6643 211.00
85.9685 208.00
86.2728 195.00
86.577 185.00
86.8813 188.00
87.1856 226.00
87.4898 172.00
87.7941 207.00
88.0983 202.00
88.4026 197.00
88.7069 183.00
89.0111 172.00
89.3154 189.00
89.6196 189.00
89.9239 198.00
90.2282 197.00
90.5324 194.00
90.8367 165.00
91.1409 160.00
91.4452 146.00
91.7495 183.00
92.0537 164.00
92.358 183.00
92.6622 193.00
92.9665 172.00
93.2708 162.00
93.575 175.00
93.8793 169.00
94.1835 190.00
94.4878 153.00
94.7921 184.00
95.0963 159.00
95.4006 190.00
95.7048 170.00
96.0091 167.00
96.3134 185.00
96.6176 159.00
96.9219 168.00
97.2261 179.00
97.5304 175.00
97.8347 190.00
98.1389 161.00
98.4432 169.00
98.7474 194.00
99.0517 168.00
99.356 175.00
99.6602 186.00
99.9645 202.00
100.095 189.00