File: data/xrd_creation/results/NSC_16.xy
9.903433 2823.00
10.2077 2679.00
10.512 2652.00
10.8162 2475.00
11.1205 2235.00
11.4247 2251.00
11.729 2212.00
12.0333 2014.00
12.3375 2031.00
12.6418 1912.00
12.946 1953.00
13.2503 1871.00
13.5546 1810.00
13.8588 1755.00
14.1631 1780.00
14.4673 1719.00
14.7716 1760.00
15.0759 1679.00
15.3801 1583.00
15.6844 1517.00
15.9886 1540.00
16.2929 1530.00
16.5972 1560.00
16.9014 1355.00
17.2057 1508.00
17.5099 1481.00
17.8142 1414.00
18.1185 1406.00
18.4227 1308.00
18.727 1299.00
19.0312 1214.00
19.3355 1716.00
19.6398 1251.00
19.944 1203.00
20.2483 1152.00
20.5525 1317.00
20.8568 1414.00
21.1611 1344.00
21.4653 1260.00
21.7696 1180.00
22.0738 1266.00
22.3781 1295.00
22.6824 1156.00
22.9866 1074.00
23.2909 1110.00
23.5951 1096.00
23.8994 1392.00
24.2037 1187.00
24.5079 1180.00
24.8122 978.00
25.1164 955.00
25.4207 1103.00
25.725 1059.00
26.0292 991.00
26.3335 948.00
26.6378 975.00
26.942 984.00
27.2463 938.00
27.5505 1095.00
27.8548 1268.00
28.1591 3314.00
28.4633 1127.00
28.7676 914.00
29.0718 909.00
29.3761 1043.00
29.6804 997.00
29.9846 1063.00
30.2889 999.00
30.5931 1156.00
30.8974 1177.00
31.2017 1254.00
31.5059 1795.00
31.8102 874.00
32.1144 847.00
32.4187 845.00
32.723 930.00
33.0272 939.00
33.3315 854.00
33.6357 970.00
33.94 1376.00
34.2443 1213.00
34.5485 881.00
34.8528 839.00
35.157 1185.00
35.4613 777.00
35.7656 759.00
36.0698 652.00
36.3741 673.00
36.6783 686.00
36.9826 634.00
37.2869 627.00
37.5911 614.00
37.8954 740.00
38.1996 604.00
38.5039 738.00
38.8082 653.00
39.1124 596.00
39.4167 603.00
39.7209 617.00
40.0252 626.00
40.3295 561.00
40.6337 897.00
40.938 717.00
41.2422 688.00
41.5465 696.00
41.8508 579.00
42.155 526.00
42.4593 583.00
42.7635 605.00
43.0678 598.00
43.3721 569.00
43.6763 544.00
43.9806 588.00
44.2849 577.00
44.5891 616.00
44.8934 672.00
45.1976 611.00
45.5019 751.00
45.8062 551.00
46.1104 567.00
46.4147 632.00
46.7189 586.00
47.0232 595.00
47.3275 516.00
47.6317 535.00
47.936 569.00
48.2402 631.00
48.5445 554.00
48.8488 566.00
49.153 826.00
49.4573 673.00
49.7615 527.00
50.0658 1028.00
50.3701 710.00
50.6743 691.00
50.9786 599.00
51.2828 564.00
51.5871 478.00
51.8914 465.00
52.1956 494.00
52.4999 514.00
52.8041 559.00
53.1084 519.00
53.4127 512.00
53.7169 563.00
54.0212 742.00
54.3254 551.00
54.6297 485.00
54.934 470.00
55.2382 679.00
55.5425 647.00
55.8467 589.00
56.151 502.00
56.4553 449.00
56.7595 518.00
57.0638 561.00
57.368 673.00
57.6723 499.00
57.9766 521.00
58.2808 565.00
58.5851 479.00
58.8893 496.00
59.1936 471.00
59.4979 498.00
59.8021 638.00
60.1064 586.00
60.4106 482.00
60.7149 479.00
61.0192 478.00
61.3234 501.00
61.6277 434.00
61.932 519.00
62.2362 471.00
62.5405 509.00
62.8447 574.00
63.149 393.00
63.4533 422.00
63.7575 412.00
64.0618 465.00
64.366 428.00
64.6703 400.00
64.9745 412.00
65.2788 456.00
65.5831 569.00
65.8873 515.00
66.1916 377.00
66.4959 391.00
66.8001 391.00
67.1044 352.00
67.4086 383.00
67.7129 371.00
68.0172 409.00
68.3214 362.00
68.6257 380.00
68.9299 400.00
69.2342 429.00
69.5385 354.00
69.8427 374.00
70.147 414.00
70.4512 388.00
70.7555 366.00
71.0598 517.00
71.364 447.00
71.6683 368.00
71.9725 395.00
72.2768 407.00
72.5811 412.00
72.8853 358.00
73.1896 368.00
73.4938 382.00
73.7981 366.00
74.1024 374.00
74.4066 393.00
74.7109 401.00
75.0151 408.00
75.3194 443.00
75.6237 357.00
75.9279 356.00
76.2322 381.00
76.5364 420.00
76.8407 454.00
77.145 411.00
77.4492 422.00
77.7535 340.00
78.0577 370.00
78.362 351.00
78.6663 383.00
78.9705 402.00
79.2748 379.00
79.579 360.00
79.8833 389.00
80.1876 395.00
80.4918 366.00
80.7961 351.00
81.1003 342.00
81.4046 430.00
81.7089 397.00
82.0131 388.00
82.3174 399.00
82.6217 393.00
82.9259 401.00
83.2302 438.00
83.5344 388.00
83.8387 416.00
84.143 396.00
84.4472 359.00
84.7515 400.00
85.0557 387.00
85.36 346.00
85.6643 364.00
85.9685 370.00
86.2728 360.00
86.577 412.00
86.8813 344.00
87.1856 356.00
87.4898 417.00
87.7941 385.00
88.0983 418.00
88.4026 421.00
88.7069 389.00
89.0111 365.00
89.3154 341.00
89.6196 409.00
89.9239 361.00
90.2282 377.00
90.5324 335.00
90.8367 337.00
91.1409 368.00
91.4452 353.00
91.7495 330.00
92.0537 317.00
92.358 320.00
92.6622 340.00
92.9665 372.00
93.2708 357.00
93.575 327.00
93.8793 335.00
94.1835 338.00
94.4878 330.00
94.7921 344.00
95.0963 386.00
95.4006 369.00
95.7048 341.00
96.0091 359.00
96.3134 400.00
96.6176 403.00
96.9219 378.00
97.2261 347.00
97.5304 321.00
97.8347 341.00
98.1389 348.00
98.4432 378.00
98.7474 391.00
99.0517 341.00
99.356 371.00
99.6602 395.00
99.9645 337.00
100.095 326.00