File: data/xrd_creation/results/NSC_147.xy
9.903433 2523.00
10.2077 2471.00
10.512 2468.00
10.8162 2209.00
11.1205 2113.00
11.4247 2037.00
11.729 1961.00
12.0333 1834.00
12.3375 1925.00
12.6418 1922.00
12.946 1717.00
13.2503 1925.00
13.5546 2469.00
13.8588 1768.00
14.1631 1606.00
14.4673 1533.00
14.7716 1552.00
15.0759 1561.00
15.3801 1497.00
15.6844 1454.00
15.9886 1446.00
16.2929 1407.00
16.5972 1314.00
16.9014 1359.00
17.2057 1433.00
17.5099 1334.00
17.8142 1257.00
18.1185 1253.00
18.4227 1285.00
18.727 1288.00
19.0312 1703.00
19.3355 2175.00
19.6398 1127.00
19.944 1090.00
20.2483 1205.00
20.5525 1034.00
20.8568 1047.00
21.1611 1231.00
21.4653 1540.00
21.7696 1384.00
22.0738 995.00
22.3781 961.00
22.6824 992.00
22.9866 1315.00
23.2909 1151.00
23.5951 957.00
23.8994 898.00
24.2037 861.00
24.5079 868.00
24.8122 905.00
25.1164 1056.00
25.4207 1803.00
25.725 962.00
26.0292 889.00
26.3335 891.00
26.6378 847.00
26.942 1190.00
27.2463 1402.00
27.5505 743.00
27.8548 719.00
28.1591 774.00
28.4633 881.00
28.7676 1542.00
29.0718 756.00
29.3761 1034.00
29.6804 743.00
29.9846 892.00
30.2889 784.00
30.5931 627.00
30.8974 765.00
31.2017 1625.00
31.5059 639.00
31.8102 1261.00
32.1144 4819.00
32.4187 627.00
32.723 587.00
33.0272 748.00
33.3315 1313.00
33.6357 1556.00
33.94 931.00
34.2443 621.00
34.5485 867.00
34.8528 514.00
35.157 561.00
35.4613 509.00
35.7656 552.00
36.0698 556.00
36.3741 799.00
36.6783 723.00
36.9826 616.00
37.2869 605.00
37.5911 567.00
37.8954 442.00
38.1996 482.00
38.5039 583.00
38.8082 988.00
39.1124 615.00
39.4167 502.00
39.7209 515.00
40.0252 1457.00
40.3295 564.00
40.6337 459.00
40.938 605.00
41.2422 674.00
41.5465 419.00
41.8508 632.00
42.155 1333.00
42.4593 1463.00
42.7635 570.00
43.0678 502.00
43.3721 716.00
43.6763 618.00
43.9806 470.00
44.2849 388.00
44.5891 441.00
44.8934 628.00
45.1976 693.00
45.5019 562.00
45.8062 1105.00
46.1104 471.00
46.4147 467.00
46.7189 815.00
47.0232 1158.00
47.3275 477.00
47.6317 575.00
47.936 381.00
48.2402 569.00
48.5445 725.00
48.8488 569.00
49.153 411.00
49.4573 429.00
49.7615 390.00
50.0658 411.00
50.3701 411.00
50.6743 417.00
50.9786 333.00
51.2828 380.00
51.5871 591.00
51.8914 738.00
52.1956 1341.00
52.4999 619.00
52.8041 444.00
53.1084 347.00
53.4127 390.00
53.7169 495.00
54.0212 412.00
54.3254 341.00
54.6297 310.00
54.934 697.00
55.2382 541.00
55.5425 531.00
55.8467 572.00
56.151 769.00
56.4553 401.00
56.7595 347.00
57.0638 471.00
57.368 350.00
57.6723 401.00
57.9766 493.00
58.2808 389.00
58.5851 760.00
58.8893 535.00
59.1936 502.00
59.4979 513.00
59.8021 446.00
60.1064 555.00
60.4106 380.00
60.7149 340.00
61.0192 354.00
61.3234 288.00
61.6277 328.00
61.932 361.00
62.2362 310.00
62.5405 293.00
62.8447 346.00
63.149 562.00
63.4533 613.00
63.7575 358.00
64.0618 298.00
64.366 343.00
64.6703 295.00
64.9745 277.00
65.2788 300.00
65.5831 346.00
65.8873 282.00
66.1916 369.00
66.4959 396.00
66.8001 491.00
67.1044 316.00
67.4086 282.00
67.7129 306.00
68.0172 376.00
68.3214 302.00
68.6257 353.00
68.9299 359.00
69.2342 374.00
69.5385 475.00
69.8427 448.00
70.147 524.00
70.4512 608.00
70.7555 546.00
71.0598 367.00
71.364 343.00
71.6683 355.00
71.9725 321.00
72.2768 291.00
72.5811 306.00
72.8853 276.00
73.1896 287.00
73.4938 294.00
73.7981 352.00
74.1024 345.00
74.4066 351.00
74.7109 264.00
75.0151 279.00
75.3194 323.00
75.6237 283.00
75.9279 384.00
76.2322 368.00
76.5364 523.00
76.8407 458.00
77.145 352.00
77.4492 268.00
77.7535 272.00
78.0577 306.00
78.362 276.00
78.6663 290.00
78.9705 474.00
79.2748 375.00
79.579 306.00
79.8833 270.00
80.1876 357.00
80.4918 297.00
80.7961 271.00
81.1003 271.00
81.4046 267.00
81.7089 338.00
82.0131 330.00
82.3174 350.00
82.6217 315.00
82.9259 367.00
83.2302 302.00
83.5344 367.00
83.8387 349.00
84.143 288.00
84.4472 246.00
84.7515 299.00
85.0557 304.00
85.36 434.00
85.6643 383.00
85.9685 323.00
86.2728 343.00
86.577 295.00
86.8813 278.00
87.1856 237.00
87.4898 397.00
87.7941 364.00
88.0983 364.00
88.4026 292.00
88.7069 290.00
89.0111 307.00
89.3154 281.00
89.6196 281.00
89.9239 281.00
90.2282 323.00
90.5324 324.00
90.8367 283.00
91.1409 376.00
91.4452 414.00
91.7495 380.00
92.0537 308.00
92.358 360.00
92.6622 313.00
92.9665 302.00
93.2708 300.00
93.575 295.00
93.8793 300.00
94.1835 287.00
94.4878 261.00
94.7921 281.00
95.0963 289.00
95.4006 315.00
95.7048 342.00
96.0091 295.00
96.3134 318.00
96.6176 245.00
96.9219 245.00
97.2261 294.00
97.5304 327.00
97.8347 281.00
98.1389 250.00
98.4432 263.00
98.7474 321.00
99.0517 301.00
99.356 324.00
99.6602 315.00
99.9645 311.00
100.095 292.00