File: data/xrd_creation/results/NSC_20.xy
9.903433 2945.00
10.2077 2866.00
10.512 2802.00
10.8162 2597.00
11.1205 2539.00
11.4247 2550.00
11.729 2541.00
12.0333 2409.00
12.3375 2311.00
12.6418 2264.00
12.946 2227.00
13.2503 2065.00
13.5546 2177.00
13.8588 3043.00
14.1631 2603.00
14.4673 1973.00
14.7716 2050.00
15.0759 2044.00
15.3801 2001.00
15.6844 1927.00
15.9886 1983.00
16.2929 1830.00
16.5972 1831.00
16.9014 1803.00
17.2057 1863.00
17.5099 1807.00
17.8142 1806.00
18.1185 1871.00
18.4227 1693.00
18.727 1700.00
19.0312 1975.00
19.3355 5344.00
19.6398 3938.00
19.944 2986.00
20.2483 9151.00
20.5525 2497.00
20.8568 1822.00
21.1611 1684.00
21.4653 1864.00
21.7696 1974.00
22.0738 1642.00
22.3781 1546.00
22.6824 1663.00
22.9866 1950.00
23.2909 7165.00
23.5951 4219.00
23.8994 1706.00
24.2037 1563.00
24.5079 1579.00
24.8122 1719.00
25.1164 1771.00
25.4207 1441.00
25.725 1395.00
26.0292 1462.00
26.3335 1421.00
26.6378 1372.00
26.942 1338.00
27.2463 1386.00
27.5505 1405.00
27.8548 1572.00
28.1591 5836.00
28.4633 2633.00
28.7676 1368.00
29.0718 1362.00
29.3761 1274.00
29.6804 1385.00
29.9846 1423.00
30.2889 1472.00
30.5931 1460.00
30.8974 2665.00
31.2017 8892.00
31.5059 2852.00
31.8102 1369.00
32.1144 1277.00
32.4187 1163.00
32.723 1262.00
33.0272 1606.00
33.3315 1385.00
33.6357 1443.00
33.94 1328.00
34.2443 1299.00
34.5485 1300.00
34.8528 2341.00
35.157 2878.00
35.4613 4102.00
35.7656 1651.00
36.0698 1231.00
36.3741 1160.00
36.6783 1103.00
36.9826 1090.00
37.2869 1059.00
37.5911 1152.00
37.8954 1161.00
38.1996 1170.00
38.5039 1123.00
38.8082 1026.00
39.1124 1016.00
39.4167 1222.00
39.7209 1427.00
40.0252 1107.00
40.3295 978.00
40.6337 1044.00
40.938 1176.00
41.2422 1729.00
41.5465 1420.00
41.8508 1132.00
42.155 1188.00
42.4593 1078.00
42.7635 1477.00
43.0678 1660.00
43.3721 1185.00
43.6763 1134.00
43.9806 1003.00
44.2849 992.00
44.5891 1459.00
44.8934 2592.00
45.1976 1245.00
45.5019 1077.00
45.8062 1697.00
46.1104 1647.00
46.4147 1479.00
46.7189 1292.00
47.0232 985.00
47.3275 1025.00
47.6317 1655.00
47.936 3261.00
48.2402 1679.00
48.5445 1266.00
48.8488 1058.00
49.153 1114.00
49.4573 1035.00
49.7615 908.00
50.0658 986.00
50.3701 1034.00
50.6743 1125.00
50.9786 1585.00
51.2828 2585.00
51.5871 1676.00
51.8914 1103.00
52.1956 932.00
52.4999 988.00
52.8041 902.00
53.1084 905.00
53.4127 859.00
53.7169 957.00
54.0212 1424.00
54.3254 1419.00
54.6297 1166.00
54.934 1641.00
55.2382 2679.00
55.5425 2396.00
55.8467 1447.00
56.151 969.00
56.4553 975.00
56.7595 1051.00
57.0638 1030.00
57.368 974.00
57.6723 1053.00
57.9766 1305.00
58.2808 1330.00
58.5851 1092.00
58.8893 963.00
59.1936 933.00
59.4979 1114.00
59.8021 1759.00
60.1064 1444.00
60.4106 1051.00
60.7149 1333.00
61.0192 1847.00
61.3234 1469.00
61.6277 1069.00
61.932 1196.00
62.2362 1251.00
62.5405 1171.00
62.8447 1060.00
63.149 1132.00
63.4533 1347.00
63.7575 1587.00
64.0618 1189.00
64.366 923.00
64.6703 900.00
64.9745 1026.00
65.2788 1046.00
65.5831 1022.00
65.8873 1197.00
66.1916 1291.00
66.4959 1001.00
66.8001 909.00
67.1044 1058.00
67.4086 1116.00
67.7129 1234.00
68.0172 988.00
68.3214 896.00
68.6257 929.00
68.9299 1004.00
69.2342 852.00
69.5385 798.00
69.8427 842.00
70.147 797.00
70.4512 792.00
70.7555 964.00
71.0598 1251.00
71.364 1015.00
71.6683 847.00
71.9725 855.00
72.2768 825.00
72.5811 788.00
72.8853 782.00
73.1896 809.00
73.4938 968.00
73.7981 1042.00
74.1024 971.00
74.4066 921.00
74.7109 1012.00
75.0151 1143.00
75.3194 1182.00
75.6237 960.00
75.9279 788.00
76.2322 749.00
76.5364 794.00
76.8407 893.00
77.145 801.00
77.4492 823.00
77.7535 798.00
78.0577 788.00
78.362 912.00
78.6663 1179.00
78.9705 1066.00
79.2748 954.00
79.579 878.00
79.8833 775.00
80.1876 821.00
80.4918 858.00
80.7961 1030.00
81.1003 954.00
81.4046 879.00
81.7089 719.00
82.0131 799.00
82.3174 756.00
82.6217 721.00
82.9259 810.00
83.2302 968.00
83.5344 972.00
83.8387 901.00
84.143 750.00
84.4472 881.00
84.7515 908.00
85.0557 907.00
85.36 908.00
85.6643 905.00
85.9685 911.00
86.2728 865.00
86.577 802.00
86.8813 823.00
87.1856 771.00
87.4898 758.00
87.7941 764.00
88.0983 797.00
88.4026 847.00
88.7069 822.00
89.0111 942.00
89.3154 1005.00
89.6196 1061.00
89.9239 925.00
90.2282 852.00
90.5324 794.00
90.8367 748.00
91.1409 808.00
91.4452 911.00
91.7495 891.00
92.0537 821.00
92.358 824.00
92.6622 781.00
92.9665 756.00
93.2708 849.00
93.575 823.00
93.8793 870.00
94.1835 834.00
94.4878 792.00
94.7921 873.00
95.0963 969.00
95.4006 859.00
95.7048 862.00
96.0091 900.00
96.3134 972.00
96.6176 895.00
96.9219 820.00
97.2261 832.00
97.5304 765.00
97.8347 673.00
98.1389 671.00
98.4432 703.00
98.7474 752.00
99.0517 799.00
99.356 761.00
99.6602 829.00
99.9645 862.00
100.095 923.00