File: data/xrd_creation/results/NSC_181.xy
9.903433 2826.00
10.2077 2800.00
10.512 2682.00
10.8162 2719.00
11.1205 2545.00
11.4247 2499.00
11.729 2383.00
12.0333 2283.00
12.3375 2266.00
12.6418 2243.00
12.946 2165.00
13.2503 2120.00
13.5546 2265.00
13.8588 2291.00
14.1631 2854.00
14.4673 1955.00
14.7716 1843.00
15.0759 1840.00
15.3801 1870.00
15.6844 1858.00
15.9886 1777.00
16.2929 1793.00
16.5972 1664.00
16.9014 1569.00
17.2057 1699.00
17.5099 1826.00
17.8142 1611.00
18.1185 1587.00
18.4227 1540.00
18.727 1497.00
19.0312 1481.00
19.3355 1575.00
19.6398 1500.00
19.944 3596.00
20.2483 1837.00
20.5525 1842.00
20.8568 1795.00
21.1611 9617.00
21.4653 2410.00
21.7696 1435.00
22.0738 1401.00
22.3781 1386.00
22.6824 1268.00
22.9866 1336.00
23.2909 2117.00
23.5951 11419.00
23.8994 1407.00
24.2037 1444.00
24.5079 4504.00
24.8122 1301.00
25.1164 1146.00
25.4207 1115.00
25.725 1163.00
26.0292 1029.00
26.3335 1121.00
26.6378 1094.00
26.942 1151.00
27.2463 1017.00
27.5505 917.00
27.8548 1052.00
28.1591 1024.00
28.4633 3738.00
28.7676 962.00
29.0718 910.00
29.3761 918.00
29.6804 896.00
29.9846 1008.00
30.2889 882.00
30.5931 907.00
30.8974 1671.00
31.2017 1552.00
31.5059 1412.00
31.8102 13460.00
32.1144 1190.00
32.4187 900.00
32.723 811.00
33.0272 880.00
33.3315 810.00
33.6357 847.00
33.94 887.00
34.2443 1021.00
34.5485 4695.00
34.8528 7424.00
35.157 2456.00
35.4613 1072.00
35.7656 784.00
36.0698 885.00
36.3741 792.00
36.6783 814.00
36.9826 787.00
37.2869 851.00
37.5911 704.00
37.8954 688.00
38.1996 747.00
38.5039 618.00
38.8082 684.00
39.1124 740.00
39.4167 686.00
39.7209 715.00
40.0252 637.00
40.3295 1123.00
40.6337 1269.00
40.938 840.00
41.2422 882.00
41.5465 646.00
41.8508 673.00
42.155 766.00
42.4593 4249.00
42.7635 1169.00
43.0678 1124.00
43.3721 774.00
43.6763 682.00
43.9806 908.00
44.2849 626.00
44.5891 577.00
44.8934 725.00
45.1976 663.00
45.5019 2227.00
45.8062 649.00
46.1104 534.00
46.4147 551.00
46.7189 571.00
47.0232 585.00
47.3275 1031.00
47.6317 1372.00
47.936 3588.00
48.2402 568.00
48.5445 601.00
48.8488 542.00
49.153 573.00
49.4573 1328.00
49.7615 1368.00
50.0658 1010.00
50.3701 757.00
50.6743 664.00
50.9786 651.00
51.2828 545.00
51.5871 994.00
51.8914 1057.00
52.1956 1551.00
52.4999 593.00
52.8041 735.00
53.1084 540.00
53.4127 480.00
53.7169 547.00
54.0212 502.00
54.3254 1543.00
54.6297 1116.00
54.934 565.00
55.2382 556.00
55.5425 484.00
55.8467 689.00
56.151 694.00
56.4553 553.00
56.7595 434.00
57.0638 490.00
57.368 498.00
57.6723 418.00
57.9766 493.00
58.2808 511.00
58.5851 496.00
58.8893 445.00
59.1936 419.00
59.4979 446.00
59.8021 456.00
60.1064 744.00
60.4106 2883.00
60.7149 737.00
61.0192 453.00
61.3234 472.00
61.6277 857.00
61.932 1248.00
62.2362 1822.00
62.5405 1289.00
62.8447 602.00
63.149 451.00
63.4533 495.00
63.7575 745.00
64.0618 898.00
64.366 604.00
64.6703 402.00
64.9745 394.00
65.2788 394.00
65.5831 403.00
65.8873 519.00
66.1916 577.00
66.4959 435.00
66.8001 427.00
67.1044 564.00
67.4086 862.00
67.7129 1150.00
68.0172 570.00
68.3214 360.00
68.6257 388.00
68.9299 340.00
69.2342 404.00
69.5385 430.00
69.8427 1019.00
70.147 417.00
70.4512 383.00
70.7555 427.00
71.0598 683.00
71.364 632.00
71.6683 382.00
71.9725 347.00
72.2768 382.00
72.5811 466.00
72.8853 555.00
73.1896 545.00
73.4938 936.00
73.7981 441.00
74.1024 366.00
74.4066 386.00
74.7109 690.00
75.0151 516.00
75.3194 379.00
75.6237 345.00
75.9279 307.00
76.2322 306.00
76.5364 461.00
76.8407 439.00
77.145 397.00
77.4492 347.00
77.7535 432.00
78.0577 490.00
78.362 436.00
78.6663 407.00
78.9705 305.00
79.2748 341.00
79.579 353.00
79.8833 326.00
80.1876 304.00
80.4918 314.00
80.7961 334.00
81.1003 336.00
81.4046 363.00
81.7089 511.00
82.0131 898.00
82.3174 638.00
82.6217 522.00
82.9259 483.00
83.2302 380.00
83.5344 473.00
83.8387 586.00
84.143 371.00
84.4472 283.00
84.7515 358.00
85.0557 430.00
85.36 364.00
85.6643 311.00
85.9685 294.00
86.2728 319.00
86.577 330.00
86.8813 309.00
87.1856 355.00
87.4898 337.00
87.7941 341.00
88.0983 394.00
88.4026 542.00
88.7069 745.00
89.0111 606.00
89.3154 335.00
89.6196 311.00
89.9239 339.00
90.2282 418.00
90.5324 429.00
90.8367 331.00
91.1409 325.00
91.4452 323.00
91.7495 495.00
92.0537 407.00
92.358 405.00
92.6622 314.00
92.9665 354.00
93.2708 350.00
93.575 356.00
93.8793 528.00
94.1835 413.00
94.4878 294.00
94.7921 305.00
95.0963 366.00
95.4006 595.00
95.7048 457.00
96.0091 324.00
96.3134 346.00
96.6176 321.00
96.9219 362.00
97.2261 483.00
97.5304 321.00
97.8347 349.00
98.1389 393.00
98.4432 356.00
98.7474 410.00
99.0517 328.00
99.356 325.00
99.6602 331.00
99.9645 297.00
100.095 337.00