File: data/xrd_creation/results/NSC_17.xy
9.903433 2660.00
10.2077 2511.00
10.512 2489.00
10.8162 2360.00
11.1205 2242.00
11.4247 2291.00
11.729 2065.00
12.0333 2038.00
12.3375 2012.00
12.6418 1989.00
12.946 1937.00
13.2503 1838.00
13.5546 1756.00
13.8588 1849.00
14.1631 1948.00
14.4673 1733.00
14.7716 1922.00
15.0759 3260.00
15.3801 2016.00
15.6844 1676.00
15.9886 1558.00
16.2929 1565.00
16.5972 1588.00
16.9014 1530.00
17.2057 1521.00
17.5099 1489.00
17.8142 1461.00
18.1185 1390.00
18.4227 1429.00
18.727 1387.00
19.0312 1468.00
19.3355 1608.00
19.6398 1969.00
19.944 1667.00
20.2483 2279.00
20.5525 4834.00
20.8568 6750.00
21.1611 2019.00
21.4653 1662.00
21.7696 4959.00
22.0738 7253.00
22.3781 1624.00
22.6824 1329.00
22.9866 1325.00
23.2909 1503.00
23.5951 2198.00
23.8994 1647.00
24.2037 1305.00
24.5079 1352.00
24.8122 1760.00
25.1164 6984.00
25.4207 8020.00
25.725 2838.00
26.0292 8794.00
26.3335 2950.00
26.6378 1382.00
26.942 1230.00
27.2463 1140.00
27.5505 1084.00
27.8548 1087.00
28.1591 1457.00
28.4633 1718.00
28.7676 1325.00
29.0718 1016.00
29.3761 1050.00
29.6804 1072.00
29.9846 1290.00
30.2889 4360.00
30.5931 4628.00
30.8974 1188.00
31.2017 1661.00
31.5059 2016.00
31.8102 1194.00
32.1144 1050.00
32.4187 1045.00
32.723 1080.00
33.0272 1977.00
33.3315 8209.00
33.6357 3512.00
33.94 2067.00
34.2443 1881.00
34.5485 1061.00
34.8528 1017.00
35.157 1101.00
35.4613 1329.00
35.7656 1690.00
36.0698 1891.00
36.3741 1066.00
36.6783 866.00
36.9826 859.00
37.2869 908.00
37.5911 1353.00
37.8954 2239.00
38.1996 3210.00
38.5039 3652.00
38.8082 1444.00
39.1124 990.00
39.4167 1468.00
39.7209 1626.00
40.0252 918.00
40.3295 994.00
40.6337 1429.00
40.938 876.00
41.2422 845.00
41.5465 1063.00
41.8508 2251.00
42.155 1428.00
42.4593 1194.00
42.7635 782.00
43.0678 910.00
43.3721 845.00
43.6763 922.00
43.9806 1454.00
44.2849 881.00
44.5891 1017.00
44.8934 1234.00
45.1976 1231.00
45.5019 907.00
45.8062 803.00
46.1104 1209.00
46.4147 1665.00
46.7189 1029.00
47.0232 889.00
47.3275 858.00
47.6317 959.00
47.936 1570.00
48.2402 2531.00
48.5445 1640.00
48.8488 1922.00
49.153 959.00
49.4573 1295.00
49.7615 2148.00
50.0658 1192.00
50.3701 806.00
50.6743 917.00
50.9786 1145.00
51.2828 1099.00
51.5871 2121.00
51.8914 3138.00
52.1956 1082.00
52.4999 877.00
52.8041 991.00
53.1084 1000.00
53.4127 1205.00
53.7169 975.00
54.0212 738.00
54.3254 763.00
54.6297 1253.00
54.934 2327.00
55.2382 1287.00
55.5425 1100.00
55.8467 1308.00
56.151 1086.00
56.4553 903.00
56.7595 799.00
57.0638 818.00
57.368 858.00
57.6723 787.00
57.9766 838.00
58.2808 1278.00
58.5851 1850.00
58.8893 2002.00
59.1936 1184.00
59.4979 953.00
59.8021 1637.00
60.1064 2012.00
60.4106 2418.00
60.7149 1369.00
61.0192 878.00
61.3234 1035.00
61.6277 1367.00
61.932 1502.00
62.2362 986.00
62.5405 768.00
62.8447 868.00
63.149 1059.00
63.4533 1016.00
63.7575 849.00
64.0618 841.00
64.366 1677.00
64.6703 1751.00
64.9745 994.00
65.2788 1051.00
65.5831 1219.00
65.8873 2000.00
66.1916 3543.00
66.4959 2486.00
66.8001 1182.00
67.1044 1240.00
67.4086 941.00
67.7129 847.00
68.0172 857.00
68.3214 767.00
68.6257 866.00
68.9299 1377.00
69.2342 1533.00
69.5385 1586.00
69.8427 1061.00
70.147 1023.00
70.4512 1265.00
70.7555 1393.00
71.0598 1111.00
71.364 782.00
71.6683 645.00
71.9725 673.00
72.2768 602.00
72.5811 650.00
72.8853 688.00
73.1896 861.00
73.4938 1217.00
73.7981 1092.00
74.1024 904.00
74.4066 743.00
74.7109 762.00
75.0151 894.00
75.3194 882.00
75.6237 879.00
75.9279 700.00
76.2322 754.00
76.5364 826.00
76.8407 683.00
77.145 751.00
77.4492 1088.00
77.7535 1406.00
78.0577 1112.00
78.362 795.00
78.6663 834.00
78.9705 912.00
79.2748 1043.00
79.579 978.00
79.8833 1057.00
80.1876 1164.00
80.4918 873.00
80.7961 736.00
81.1003 685.00
81.4046 620.00
81.7089 698.00
82.0131 888.00
82.3174 1070.00
82.6217 942.00
82.9259 745.00
83.2302 720.00
83.5344 706.00
83.8387 728.00
84.143 722.00
84.4472 779.00
84.7515 770.00
85.0557 688.00
85.36 709.00
85.6643 674.00
85.9685 773.00
86.2728 837.00
86.577 893.00
86.8813 712.00
87.1856 747.00
87.4898 1002.00
87.7941 1049.00
88.0983 821.00
88.4026 686.00
88.7069 742.00
89.0111 670.00
89.3154 654.00
89.6196 668.00
89.9239 658.00
90.2282 766.00
90.5324 629.00
90.8367 630.00
91.1409 700.00
91.4452 812.00
91.7495 947.00
92.0537 915.00
92.358 998.00
92.6622 1139.00
92.9665 1118.00
93.2708 1061.00
93.575 867.00
93.8793 652.00
94.1835 672.00
94.4878 736.00
94.7921 712.00
95.0963 658.00
95.4006 712.00
95.7048 738.00
96.0091 767.00
96.3134 814.00
96.6176 759.00
96.9219 749.00
97.2261 748.00
97.5304 745.00
97.8347 750.00
98.1389 805.00
98.4432 931.00
98.7474 831.00
99.0517 819.00
99.356 907.00
99.6602 1006.00
99.9645 940.00
100.095 905.00