File: data/xrd_creation/results/NSC_177.xy
9.903433 2798.00
10.2077 2708.00
10.512 2627.00
10.8162 2505.00
11.1205 2408.00
11.4247 2402.00
11.729 2339.00
12.0333 2226.00
12.3375 2197.00
12.6418 2248.00
12.946 2353.00
13.2503 2129.00
13.5546 2120.00
13.8588 2330.00
14.1631 3581.00
14.4673 2076.00
14.7716 1960.00
15.0759 2005.00
15.3801 1959.00
15.6844 1920.00
15.9886 1927.00
16.2929 1867.00
16.5972 1825.00
16.9014 1904.00
17.2057 1922.00
17.5099 1823.00
17.8142 1966.00
18.1185 1726.00
18.4227 1800.00
18.727 1770.00
19.0312 1725.00
19.3355 1863.00
19.6398 3700.00
19.944 8193.00
20.2483 7541.00
20.5525 2123.00
20.8568 1715.00
21.1611 1776.00
21.4653 1829.00
21.7696 1690.00
22.0738 1640.00
22.3781 1602.00
22.6824 1625.00
22.9866 1740.00
23.2909 2161.00
23.5951 12321.00
23.8994 1770.00
24.2037 1542.00
24.5079 2105.00
24.8122 1744.00
25.1164 1529.00
25.4207 1456.00
25.725 1517.00
26.0292 1383.00
26.3335 1487.00
26.6378 1345.00
26.942 1300.00
27.2463 1418.00
27.5505 1371.00
27.8548 1506.00
28.1591 1790.00
28.4633 11276.00
28.7676 3159.00
29.0718 1415.00
29.3761 1527.00
29.6804 1334.00
29.9846 1276.00
30.2889 1377.00
30.5931 1404.00
30.8974 1497.00
31.2017 2814.00
31.5059 17734.00
31.8102 2582.00
32.1144 2393.00
32.4187 1302.00
32.723 1252.00
33.0272 1258.00
33.3315 1181.00
33.6357 1148.00
33.94 1236.00
34.2443 1569.00
34.5485 1967.00
34.8528 2175.00
35.157 4658.00
35.4613 5457.00
35.7656 2040.00
36.0698 1164.00
36.3741 1375.00
36.6783 1175.00
36.9826 1092.00
37.2869 1096.00
37.5911 1016.00
37.8954 1102.00
38.1996 1087.00
38.5039 1141.00
38.8082 1081.00
39.1124 1332.00
39.4167 1071.00
39.7209 1089.00
40.0252 1951.00
40.3295 1067.00
40.6337 1015.00
40.938 1358.00
41.2422 1559.00
41.5465 1223.00
41.8508 1549.00
42.155 1870.00
42.4593 1106.00
42.7635 1688.00
43.0678 2321.00
43.3721 1124.00
43.6763 1198.00
43.9806 1010.00
44.2849 984.00
44.5891 1023.00
44.8934 1133.00
45.1976 2992.00
45.5019 1234.00
45.8062 3569.00
46.1104 1381.00
46.4147 973.00
46.7189 1165.00
47.0232 2437.00
47.3275 1210.00
47.6317 1286.00
47.936 6353.00
48.2402 1543.00
48.5445 1308.00
48.8488 1452.00
49.153 1002.00
49.4573 1042.00
49.7615 1413.00
50.0658 1188.00
50.3701 1148.00
50.6743 1732.00
50.9786 1189.00
51.2828 1416.00
51.5871 3849.00
51.8914 1746.00
52.1956 961.00
52.4999 1048.00
52.8041 958.00
53.1084 998.00
53.4127 910.00
53.7169 891.00
54.0212 1046.00
54.3254 1660.00
54.6297 1478.00
54.934 3590.00
55.2382 2359.00
55.5425 1087.00
55.8467 1181.00
56.151 1308.00
56.4553 1356.00
56.7595 1156.00
57.0638 959.00
57.368 908.00
57.6723 1043.00
57.9766 1090.00
58.2808 1016.00
58.5851 1414.00
58.8893 1526.00
59.1936 1023.00
59.4979 962.00
59.8021 1217.00
60.1064 2287.00
60.4106 1279.00
60.7149 3276.00
61.0192 1598.00
61.3234 1075.00
61.6277 1127.00
61.932 1080.00
62.2362 1058.00
62.5405 1397.00
62.8447 1893.00
63.149 2223.00
63.4533 1324.00
63.7575 1134.00
64.0618 1301.00
64.366 930.00
64.6703 911.00
64.9745 967.00
65.2788 865.00
65.5831 876.00
65.8873 1052.00
66.1916 1138.00
66.4959 1244.00
66.8001 2002.00
67.1044 1038.00
67.4086 969.00
67.7129 1551.00
68.0172 1249.00
68.3214 1107.00
68.6257 976.00
68.9299 862.00
69.2342 802.00
69.5385 810.00
69.8427 900.00
70.147 874.00
70.4512 1775.00
70.7555 1246.00
71.0598 890.00
71.364 888.00
71.6683 1118.00
71.9725 1025.00
72.2768 803.00
72.5811 809.00
72.8853 836.00
73.1896 833.00
73.4938 866.00
73.7981 960.00
74.1024 1581.00
74.4066 1489.00
74.7109 936.00
75.0151 965.00
75.3194 1120.00
75.6237 889.00
75.9279 1029.00
76.2322 979.00
76.5364 859.00
76.8407 764.00
77.145 825.00
77.4492 947.00
77.7535 1198.00
78.0577 1066.00
78.362 877.00
78.6663 1141.00
78.9705 906.00
79.2748 879.00
79.579 869.00
79.8833 894.00
80.1876 794.00
80.4918 756.00
80.7961 803.00
81.1003 1158.00
81.4046 1172.00
81.7089 840.00
82.0131 832.00
82.3174 1004.00
82.6217 1149.00
82.9259 1209.00
83.2302 949.00
83.5344 939.00
83.8387 874.00
84.143 993.00
84.4472 977.00
84.7515 1083.00
85.0557 937.00
85.36 848.00
85.6643 783.00
85.9685 838.00
86.2728 772.00
86.577 867.00
86.8813 990.00
87.1856 825.00
87.4898 781.00
87.7941 995.00
88.0983 1065.00
88.4026 933.00
88.7069 887.00
89.0111 1581.00
89.3154 1402.00
89.6196 907.00
89.9239 887.00
90.2282 881.00
90.5324 831.00
90.8367 856.00
91.1409 909.00
91.4452 1053.00
91.7495 1009.00
92.0537 848.00
92.358 777.00
92.6622 805.00
92.9665 837.00
93.2708 902.00
93.575 792.00
93.8793 777.00
94.1835 755.00
94.4878 856.00
94.7921 1089.00
95.0963 1382.00
95.4006 1156.00
95.7048 903.00
96.0091 1124.00
96.3134 1004.00
96.6176 834.00
96.9219 786.00
97.2261 787.00
97.5304 824.00
97.8347 916.00
98.1389 969.00
98.4432 824.00
98.7474 919.00
99.0517 912.00
99.356 845.00
99.6602 970.00
99.9645 838.00
100.095 875.00