File: data/xrd_creation/results/NSC_91.xy
9.903433 2671.00
10.2077 2660.00
10.512 2508.00
10.8162 2409.00
11.1205 2276.00
11.4247 2141.00
11.729 2162.00
12.0333 2031.00
12.3375 1926.00
12.6418 1899.00
12.946 1907.00
13.2503 1884.00
13.5546 1796.00
13.8588 1806.00
14.1631 1878.00
14.4673 2404.00
14.7716 2239.00
15.0759 1690.00
15.3801 1614.00
15.6844 1607.00
15.9886 1615.00
16.2929 1577.00
16.5972 1536.00
16.9014 1524.00
17.2057 1545.00
17.5099 1474.00
17.8142 1369.00
18.1185 1366.00
18.4227 1396.00
18.727 1350.00
19.0312 1336.00
19.3355 1368.00
19.6398 1738.00
19.944 3429.00
20.2483 4234.00
20.5525 1546.00
20.8568 2707.00
21.1611 11285.00
21.4653 1633.00
21.7696 1359.00
22.0738 1271.00
22.3781 1210.00
22.6824 1127.00
22.9866 1150.00
23.2909 1118.00
23.5951 1161.00
23.8994 1439.00
24.2037 3234.00
24.5079 1770.00
24.8122 1123.00
25.1164 1028.00
25.4207 1033.00
25.725 1077.00
26.0292 973.00
26.3335 1031.00
26.6378 1149.00
26.942 2363.00
27.2463 996.00
27.5505 916.00
27.8548 855.00
28.1591 899.00
28.4633 888.00
28.7676 1036.00
29.0718 2196.00
29.3761 3136.00
29.6804 951.00
29.9846 855.00
30.2889 803.00
30.5931 829.00
30.8974 778.00
31.2017 863.00
31.5059 940.00
31.8102 1829.00
32.1144 11241.00
32.4187 1158.00
32.723 1623.00
33.0272 764.00
33.3315 774.00
33.6357 753.00
33.94 861.00
34.2443 1921.00
34.5485 845.00
34.8528 767.00
35.157 705.00
35.4613 720.00
35.7656 774.00
36.0698 1240.00
36.3741 2529.00
36.6783 1590.00
36.9826 3207.00
37.2869 795.00
37.5911 670.00
37.8954 658.00
38.1996 850.00
38.5039 670.00
38.8082 899.00
39.1124 612.00
39.4167 680.00
39.7209 598.00
40.0252 561.00
40.3295 636.00
40.6337 1326.00
40.938 558.00
41.2422 531.00
41.5465 603.00
41.8508 617.00
42.155 1485.00
42.4593 811.00
42.7635 1505.00
43.0678 679.00
43.3721 666.00
43.6763 588.00
43.9806 619.00
44.2849 1933.00
44.5891 793.00
44.8934 530.00
45.1976 594.00
45.5019 759.00
45.8062 627.00
46.1104 2629.00
46.4147 639.00
46.7189 540.00
47.0232 573.00
47.3275 801.00
47.6317 3340.00
47.936 597.00
48.2402 551.00
48.5445 533.00
48.8488 681.00
49.153 679.00
49.4573 3316.00
49.7615 889.00
50.0658 530.00
50.3701 723.00
50.6743 541.00
50.9786 512.00
51.2828 470.00
51.5871 486.00
51.8914 648.00
52.1956 1386.00
52.4999 3911.00
52.8041 800.00
53.1084 473.00
53.4127 649.00
53.7169 424.00
54.0212 454.00
54.3254 424.00
54.6297 507.00
54.934 534.00
55.2382 575.00
55.5425 523.00
55.8467 1441.00
56.151 537.00
56.4553 482.00
56.7595 529.00
57.0638 1846.00
57.368 1420.00
57.6723 2108.00
57.9766 576.00
58.2808 539.00
58.5851 571.00
58.8893 891.00
59.1936 805.00
59.4979 462.00
59.8021 442.00
60.1064 548.00
60.4106 666.00
60.7149 416.00
61.0192 469.00
61.3234 754.00
61.6277 1489.00
61.932 532.00
62.2362 716.00
62.5405 664.00
62.8447 738.00
63.149 2648.00
63.4533 1258.00
63.7575 514.00
64.0618 447.00
64.366 494.00
64.6703 606.00
64.9745 633.00
65.2788 484.00
65.5831 973.00
65.8873 1255.00
66.1916 1349.00
66.4959 608.00
66.8001 415.00
67.1044 518.00
67.4086 1317.00
67.7129 702.00
68.0172 473.00
68.3214 395.00
68.6257 357.00
68.9299 365.00
69.2342 410.00
69.5385 580.00
69.8427 1206.00
70.147 459.00
70.4512 370.00
70.7555 368.00
71.0598 466.00
71.364 639.00
71.6683 522.00
71.9725 495.00
72.2768 395.00
72.5811 407.00
72.8853 348.00
73.1896 350.00
73.4938 504.00
73.7981 1066.00
74.1024 467.00
74.4066 404.00
74.7109 400.00
75.0151 457.00
75.3194 873.00
75.6237 689.00
75.9279 575.00
76.2322 626.00
76.5364 540.00
76.8407 376.00
77.145 340.00
77.4492 398.00
77.7535 517.00
78.0577 768.00
78.362 533.00
78.6663 360.00
78.9705 536.00
79.2748 522.00
79.579 421.00
79.8833 421.00
80.1876 398.00
80.4918 405.00
80.7961 393.00
81.1003 432.00
81.4046 916.00
81.7089 855.00
82.0131 550.00
82.3174 392.00
82.6217 416.00
82.9259 850.00
83.2302 738.00
83.5344 438.00
83.8387 379.00
84.143 383.00
84.4472 356.00
84.7515 317.00
85.0557 366.00
85.36 427.00
85.6643 349.00
85.9685 391.00
86.2728 396.00
86.577 733.00
86.8813 633.00
87.1856 371.00
87.4898 507.00
87.7941 925.00
88.0983 709.00
88.4026 419.00
88.7069 403.00
89.0111 533.00
89.3154 415.00
89.6196 345.00
89.9239 405.00
90.2282 405.00
90.5324 567.00
90.8367 478.00
91.1409 620.00
91.4452 576.00
91.7495 442.00
92.0537 357.00
92.358 372.00
92.6622 796.00
92.9665 764.00
93.2708 492.00
93.575 393.00
93.8793 398.00
94.1835 531.00
94.4878 529.00
94.7921 447.00
95.0963 437.00
95.4006 630.00
95.7048 502.00
96.0091 434.00
96.3134 452.00
96.6176 490.00
96.9219 408.00
97.2261 355.00
97.5304 391.00
97.8347 501.00
98.1389 784.00
98.4432 615.00
98.7474 371.00
99.0517 366.00
99.356 325.00
99.6602 353.00
99.9645 386.00
100.095 572.00