File: data/xrd_creation/results/NSC_75.xy
9.903433 2751.00
10.2077 2537.00
10.512 2500.00
10.8162 2317.00
11.1205 2299.00
11.4247 2214.00
11.729 2159.00
12.0333 1991.00
12.3375 1894.00
12.6418 1815.00
12.946 1853.00
13.2503 1795.00
13.5546 1657.00
13.8588 1628.00
14.1631 1595.00
14.4673 1512.00
14.7716 1461.00
15.0759 1492.00
15.3801 1421.00
15.6844 1413.00
15.9886 1336.00
16.2929 1323.00
16.5972 1268.00
16.9014 1270.00
17.2057 1255.00
17.5099 1173.00
17.8142 1148.00
18.1185 1143.00
18.4227 1167.00
18.727 1118.00
19.0312 1099.00
19.3355 1068.00
19.6398 1002.00
19.944 1019.00
20.2483 1026.00
20.5525 987.00
20.8568 1237.00
21.1611 959.00
21.4653 954.00
21.7696 931.00
22.0738 898.00
22.3781 912.00
22.6824 976.00
22.9866 876.00
23.2909 853.00
23.5951 912.00
23.8994 879.00
24.2037 806.00
24.5079 793.00
24.8122 751.00
25.1164 809.00
25.4207 792.00
25.725 990.00
26.0292 807.00
26.3335 730.00
26.6378 771.00
26.942 718.00
27.2463 715.00
27.5505 792.00
27.8548 727.00
28.1591 787.00
28.4633 725.00
28.7676 742.00
29.0718 703.00
29.3761 699.00
29.6804 766.00
29.9846 668.00
30.2889 671.00
30.5931 608.00
30.8974 579.00
31.2017 676.00
31.5059 649.00
31.8102 624.00
32.1144 629.00
32.4187 751.00
32.723 689.00
33.0272 549.00
33.3315 531.00
33.6357 544.00
33.94 569.00
34.2443 581.00
34.5485 514.00
34.8528 620.00
35.157 547.00
35.4613 519.00
35.7656 430.00
36.0698 459.00
36.3741 478.00
36.6783 485.00
36.9826 440.00
37.2869 448.00
37.5911 448.00
37.8954 427.00
38.1996 405.00
38.5039 449.00
38.8082 380.00
39.1124 427.00
39.4167 417.00
39.7209 427.00
40.0252 405.00
40.3295 384.00
40.6337 420.00
40.938 352.00
41.2422 360.00
41.5465 360.00
41.8508 417.00
42.155 380.00
42.4593 391.00
42.7635 380.00
43.0678 367.00
43.3721 368.00
43.6763 341.00
43.9806 354.00
44.2849 360.00
44.5891 348.00
44.8934 347.00
45.1976 363.00
45.5019 326.00
45.8062 351.00
46.1104 357.00
46.4147 370.00
46.7189 358.00
47.0232 360.00
47.3275 327.00
47.6317 328.00
47.936 355.00
48.2402 296.00
48.5445 340.00
48.8488 350.00
49.153 307.00
49.4573 327.00
49.7615 320.00
50.0658 310.00
50.3701 289.00
50.6743 330.00
50.9786 302.00
51.2828 296.00
51.5871 304.00
51.8914 316.00
52.1956 279.00
52.4999 307.00
52.8041 273.00
53.1084 265.00
53.4127 270.00
53.7169 289.00
54.0212 285.00
54.3254 270.00
54.6297 281.00
54.934 285.00
55.2382 248.00
55.5425 236.00
55.8467 249.00
56.151 266.00
56.4553 287.00
56.7595 264.00
57.0638 272.00
57.368 247.00
57.6723 275.00
57.9766 266.00
58.2808 269.00
58.5851 249.00
58.8893 249.00
59.1936 247.00
59.4979 268.00
59.8021 208.00
60.1064 287.00
60.4106 243.00
60.7149 228.00
61.0192 210.00
61.3234 247.00
61.6277 236.00
61.932 225.00
62.2362 217.00
62.5405 204.00
62.8447 231.00
63.149 233.00
63.4533 218.00
63.7575 232.00
64.0618 229.00
64.366 224.00
64.6703 225.00
64.9745 211.00
65.2788 223.00
65.5831 220.00
65.8873 219.00
66.1916 216.00
66.4959 187.00
66.8001 204.00
67.1044 218.00
67.4086 233.00
67.7129 226.00
68.0172 237.00
68.3214 240.00
68.6257 228.00
68.9299 205.00
69.2342 221.00
69.5385 220.00
69.8427 236.00
70.147 205.00
70.4512 227.00
70.7555 226.00
71.0598 258.00
71.364 203.00
71.6683 227.00
71.9725 208.00
72.2768 205.00
72.5811 223.00
72.8853 211.00
73.1896 189.00
73.4938 193.00
73.7981 239.00
74.1024 259.00
74.4066 203.00
74.7109 213.00
75.0151 226.00
75.3194 215.00
75.6237 222.00
75.9279 217.00
76.2322 233.00
76.5364 241.00
76.8407 242.00
77.145 186.00
77.4492 250.00
77.7535 220.00
78.0577 242.00
78.362 243.00
78.6663 222.00
78.9705 196.00
79.2748 224.00
79.579 219.00
79.8833 223.00
80.1876 211.00
80.4918 249.00
80.7961 230.00
81.1003 229.00
81.4046 276.00
81.7089 228.00
82.0131 224.00
82.3174 212.00
82.6217 219.00
82.9259 233.00
83.2302 224.00
83.5344 201.00
83.8387 228.00
84.143 270.00
84.4472 215.00
84.7515 239.00
85.0557 236.00
85.36 228.00
85.6643 216.00
85.9685 216.00
86.2728 181.00
86.577 221.00
86.8813 199.00
87.1856 197.00
87.4898 231.00
87.7941 191.00
88.0983 231.00
88.4026 192.00
88.7069 191.00
89.0111 215.00
89.3154 187.00
89.6196 210.00
89.9239 195.00
90.2282 184.00
90.5324 230.00
90.8367 213.00
91.1409 177.00
91.4452 222.00
91.7495 177.00
92.0537 203.00
92.358 181.00
92.6622 203.00
92.9665 191.00
93.2708 200.00
93.575 215.00
93.8793 173.00
94.1835 179.00
94.4878 168.00
94.7921 187.00
95.0963 171.00
95.4006 203.00
95.7048 179.00
96.0091 198.00
96.3134 210.00
96.6176 169.00
96.9219 191.00
97.2261 173.00
97.5304 192.00
97.8347 199.00
98.1389 204.00
98.4432 189.00
98.7474 213.00
99.0517 209.00
99.356 184.00
99.6602 173.00
99.9645 186.00
100.095 195.00