File: data/xrd_creation/results/NSC_50.xy
9.903433 3036.00
10.2077 3066.00
10.512 3111.00
10.8162 2853.00
11.1205 2641.00
11.4247 2487.00
11.729 2424.00
12.0333 2432.00
12.3375 2384.00
12.6418 2253.00
12.946 2234.00
13.2503 2129.00
13.5546 2339.00
13.8588 2139.00
14.1631 2147.00
14.4673 2335.00
14.7716 2592.00
15.0759 2092.00
15.3801 2019.00
15.6844 2086.00
15.9886 2032.00
16.2929 1966.00
16.5972 2006.00
16.9014 1945.00
17.2057 2009.00
17.5099 2014.00
17.8142 1848.00
18.1185 1841.00
18.4227 1882.00
18.727 1861.00
19.0312 2157.00
19.3355 2369.00
19.6398 2602.00
19.944 1934.00
20.2483 1932.00
20.5525 2490.00
20.8568 2963.00
21.1611 3945.00
21.4653 2626.00
21.7696 1930.00
22.0738 2816.00
22.3781 3577.00
22.6824 2005.00
22.9866 1830.00
23.2909 1771.00
23.5951 1803.00
23.8994 2727.00
24.2037 2171.00
24.5079 2029.00
24.8122 1678.00
25.1164 1583.00
25.4207 1719.00
25.725 1960.00
26.0292 1671.00
26.3335 1627.00
26.6378 1652.00
26.942 1720.00
27.2463 1659.00
27.5505 1956.00
27.8548 1956.00
28.1591 4002.00
28.4633 2603.00
28.7676 1573.00
29.0718 1661.00
29.3761 1505.00
29.6804 1541.00
29.9846 1602.00
30.2889 2022.00
30.5931 4454.00
30.8974 2496.00
31.2017 2025.00
31.5059 3677.00
31.8102 1909.00
32.1144 1845.00
32.4187 1596.00
32.723 2216.00
33.0272 3152.00
33.3315 2542.00
33.6357 2268.00
33.94 4164.00
34.2443 4073.00
34.5485 1872.00
34.8528 1465.00
35.157 1616.00
35.4613 1816.00
35.7656 1563.00
36.0698 1466.00
36.3741 1391.00
36.6783 1411.00
36.9826 1317.00
37.2869 1229.00
37.5911 1260.00
37.8954 1222.00
38.1996 1316.00
38.5039 1378.00
38.8082 1317.00
39.1124 1240.00
39.4167 1403.00
39.7209 1484.00
40.0252 1311.00
40.3295 1279.00
40.6337 1676.00
40.938 2166.00
41.2422 1617.00
41.5465 1522.00
41.8508 1306.00
42.155 1215.00
42.4593 1210.00
42.7635 1239.00
43.0678 1423.00
43.3721 1533.00
43.6763 1272.00
43.9806 1244.00
44.2849 1342.00
44.5891 1511.00
44.8934 1534.00
45.1976 1448.00
45.5019 1788.00
45.8062 1446.00
46.1104 1414.00
46.4147 1488.00
46.7189 1642.00
47.0232 1638.00
47.3275 1357.00
47.6317 1283.00
47.936 1451.00
48.2402 1262.00
48.5445 1233.00
48.8488 1681.00
49.153 1728.00
49.4573 1505.00
49.7615 1200.00
50.0658 1575.00
50.3701 1844.00
50.6743 1606.00
50.9786 1332.00
51.2828 1410.00
51.5871 1353.00
51.8914 1468.00
52.1956 1329.00
52.4999 1377.00
52.8041 1362.00
53.1084 1457.00
53.4127 1566.00
53.7169 1693.00
54.0212 1610.00
54.3254 1384.00
54.6297 1333.00
54.934 1254.00
55.2382 1459.00
55.5425 1501.00
55.8467 1394.00
56.151 1380.00
56.4553 1197.00
56.7595 1268.00
57.0638 1427.00
57.368 1784.00
57.6723 1445.00
57.9766 1504.00
58.2808 1358.00
58.5851 1328.00
58.8893 1307.00
59.1936 1288.00
59.4979 1222.00
59.8021 1576.00
60.1064 1825.00
60.4106 1547.00
60.7149 1478.00
61.0192 1458.00
61.3234 1487.00
61.6277 1255.00
61.932 1302.00
62.2362 1252.00
62.5405 1180.00
62.8447 1416.00
63.149 1162.00
63.4533 1129.00
63.7575 1101.00
64.0618 1157.00
64.366 1277.00
64.6703 1128.00
64.9745 1329.00
65.2788 1316.00
65.5831 1303.00
65.8873 1315.00
66.1916 1043.00
66.4959 1047.00
66.8001 1043.00
67.1044 1008.00
67.4086 1049.00
67.7129 989.00
68.0172 965.00
68.3214 961.00
68.6257 1016.00
68.9299 1016.00
69.2342 994.00
69.5385 952.00
69.8427 1102.00
70.147 1044.00
70.4512 1112.00
70.7555 959.00
71.0598 1093.00
71.364 1214.00
71.6683 1221.00
71.9725 1147.00
72.2768 1203.00
72.5811 1025.00
72.8853 1041.00
73.1896 889.00
73.4938 1003.00
73.7981 1043.00
74.1024 1026.00
74.4066 1015.00
74.7109 1007.00
75.0151 1025.00
75.3194 1037.00
75.6237 1040.00
75.9279 1062.00
76.2322 1013.00
76.5364 1026.00
76.8407 1042.00
77.145 958.00
77.4492 955.00
77.7535 1021.00
78.0577 901.00
78.362 952.00
78.6663 1035.00
78.9705 1005.00
79.2748 934.00
79.579 882.00
79.8833 893.00
80.1876 923.00
80.4918 912.00
80.7961 888.00
81.1003 906.00
81.4046 982.00
81.7089 994.00
82.0131 992.00
82.3174 965.00
82.6217 1037.00
82.9259 1001.00
83.2302 1092.00
83.5344 1006.00
83.8387 917.00
84.143 968.00
84.4472 965.00
84.7515 913.00
85.0557 1000.00
85.36 957.00
85.6643 995.00
85.9685 984.00
86.2728 969.00
86.577 927.00
86.8813 900.00
87.1856 903.00
87.4898 930.00
87.7941 1016.00
88.0983 1033.00
88.4026 989.00
88.7069 1002.00
89.0111 1038.00
89.3154 964.00
89.6196 1050.00
89.9239 1090.00
90.2282 1076.00
90.5324 1026.00
90.8367 945.00
91.1409 970.00
91.4452 958.00
91.7495 960.00
92.0537 895.00
92.358 893.00
92.6622 824.00
92.9665 931.00
93.2708 909.00
93.575 906.00
93.8793 988.00
94.1835 935.00
94.4878 815.00
94.7921 922.00
95.0963 967.00
95.4006 920.00
95.7048 933.00
96.0091 940.00
96.3134 931.00
96.6176 1162.00
96.9219 1071.00
97.2261 947.00
97.5304 869.00
97.8347 935.00
98.1389 861.00
98.4432 932.00
98.7474 941.00
99.0517 951.00
99.356 1021.00
99.6602 1002.00
99.9645 932.00
100.095 972.00