File: data/xrd_creation/results/NSC_11.xy
9.903433 2818.00
10.2077 2770.00
10.512 2674.00
10.8162 2700.00
11.1205 2461.00
11.4247 2487.00
11.729 2296.00
12.0333 2331.00
12.3375 2067.00
12.6418 2140.00
12.946 2087.00
13.2503 2017.00
13.5546 2036.00
13.8588 2048.00
14.1631 2522.00
14.4673 2602.00
14.7716 1972.00
15.0759 2425.00
15.3801 2054.00
15.6844 1901.00
15.9886 1798.00
16.2929 1865.00
16.5972 1845.00
16.9014 1836.00
17.2057 1735.00
17.5099 1817.00
17.8142 1816.00
18.1185 1706.00
18.4227 1715.00
18.727 1941.00
19.0312 1856.00
19.3355 1972.00
19.6398 3805.00
19.944 4057.00
20.2483 2651.00
20.5525 7643.00
20.8568 4544.00
21.1611 2030.00
21.4653 2085.00
21.7696 5089.00
22.0738 4184.00
22.3781 1784.00
22.6824 1676.00
22.9866 1617.00
23.2909 1972.00
23.5951 4319.00
23.8994 5504.00
24.2037 2158.00
24.5079 2020.00
24.8122 1896.00
25.1164 2860.00
25.4207 3825.00
25.725 1694.00
26.0292 1754.00
26.3335 1852.00
26.6378 2153.00
26.942 1425.00
27.2463 1427.00
27.5505 1442.00
27.8548 1424.00
28.1591 1879.00
28.4633 4661.00
28.7676 3342.00
29.0718 1535.00
29.3761 1492.00
29.6804 1429.00
29.9846 1571.00
30.2889 2367.00
30.5931 2438.00
30.8974 2300.00
31.2017 2342.00
31.5059 6830.00
31.8102 3654.00
32.1144 1600.00
32.4187 1499.00
32.723 1446.00
33.0272 1660.00
33.3315 3936.00
33.6357 1907.00
33.94 1779.00
34.2443 1688.00
34.5485 1416.00
34.8528 1519.00
35.157 1780.00
35.4613 2951.00
35.7656 3267.00
36.0698 2464.00
36.3741 2255.00
36.6783 1242.00
36.9826 1141.00
37.2869 1257.00
37.5911 1377.00
37.8954 1647.00
38.1996 1579.00
38.5039 2024.00
38.8082 1360.00
39.1124 1239.00
39.4167 1218.00
39.7209 1448.00
40.0252 1508.00
40.3295 1290.00
40.6337 1327.00
40.938 1280.00
41.2422 1341.00
41.5465 1619.00
41.8508 1634.00
42.155 1379.00
42.4593 1447.00
42.7635 1132.00
43.0678 1314.00
43.3721 1762.00
43.6763 1436.00
43.9806 1518.00
44.2849 1316.00
44.5891 1197.00
44.8934 1487.00
45.1976 2087.00
45.5019 1818.00
45.8062 1322.00
46.1104 1570.00
46.4147 1858.00
46.7189 1718.00
47.0232 1644.00
47.3275 1210.00
47.6317 1296.00
47.936 1852.00
48.2402 2925.00
48.5445 2375.00
48.8488 1502.00
49.153 1436.00
49.4573 1915.00
49.7615 1857.00
50.0658 1199.00
50.3701 1379.00
50.6743 1302.00
50.9786 1402.00
51.2828 1627.00
51.5871 2643.00
51.8914 2175.00
52.1956 1430.00
52.4999 1206.00
52.8041 1258.00
53.1084 1118.00
53.4127 1042.00
53.7169 1123.00
54.0212 1195.00
54.3254 1401.00
54.6297 2137.00
54.934 1792.00
55.2382 1496.00
55.5425 2167.00
55.8467 2465.00
56.151 2063.00
56.4553 1353.00
56.7595 1178.00
57.0638 1278.00
57.368 1378.00
57.6723 1164.00
57.9766 1254.00
58.2808 2134.00
58.5851 1666.00
58.8893 1359.00
59.1936 1232.00
59.4979 1347.00
59.8021 1639.00
60.1064 2077.00
60.4106 1852.00
60.7149 1368.00
61.0192 1369.00
61.3234 1675.00
61.6277 1865.00
61.932 1593.00
62.2362 1277.00
62.5405 1455.00
62.8447 1478.00
63.149 1388.00
63.4533 1256.00
63.7575 1464.00
64.0618 1776.00
64.366 1878.00
64.6703 1439.00
64.9745 1228.00
65.2788 1340.00
65.5831 1376.00
65.8873 1534.00
66.1916 1840.00
66.4959 1593.00
66.8001 1304.00
67.1044 1170.00
67.4086 1323.00
67.7129 1257.00
68.0172 1252.00
68.3214 1475.00
68.6257 1247.00
68.9299 1288.00
69.2342 1391.00
69.5385 1360.00
69.8427 1101.00
70.147 1107.00
70.4512 1209.00
70.7555 1240.00
71.0598 1126.00
71.364 1299.00
71.6683 1226.00
71.9725 1155.00
72.2768 1155.00
72.5811 1050.00
72.8853 1182.00
73.1896 1136.00
73.4938 1108.00
73.7981 1124.00
74.1024 1180.00
74.4066 1179.00
74.7109 1169.00
75.0151 1168.00
75.3194 1332.00
75.6237 1386.00
75.9279 1286.00
76.2322 1111.00
76.5364 1103.00
76.8407 1110.00
77.145 1171.00
77.4492 1175.00
77.7535 1153.00
78.0577 1058.00
78.362 1037.00
78.6663 1157.00
78.9705 1222.00
79.2748 1305.00
79.579 1223.00
79.8833 1153.00
80.1876 1014.00
80.4918 1080.00
80.7961 1077.00
81.1003 1120.00
81.4046 1165.00
81.7089 1139.00
82.0131 1132.00
82.3174 1076.00
82.6217 1077.00
82.9259 982.00
83.2302 1047.00
83.5344 1079.00
83.8387 1157.00
84.143 1213.00
84.4472 1154.00
84.7515 1130.00
85.0557 1163.00
85.36 1166.00
85.6643 1220.00
85.9685 1260.00
86.2728 1220.00
86.577 1201.00
86.8813 1142.00
87.1856 1123.00
87.4898 1192.00
87.7941 1117.00
88.0983 1068.00
88.4026 1081.00
88.7069 1077.00
89.0111 1059.00
89.3154 1077.00
89.6196 1149.00
89.9239 1227.00
90.2282 1194.00
90.5324 1132.00
90.8367 1133.00
91.1409 1087.00
91.4452 1105.00
91.7495 1200.00
92.0537 1234.00
92.358 1230.00
92.6622 1188.00
92.9665 1096.00
93.2708 1109.00
93.575 1072.00
93.8793 1088.00
94.1835 1168.00
94.4878 1118.00
94.7921 1047.00
95.0963 1114.00
95.4006 1172.00
95.7048 1119.00
96.0091 1100.00
96.3134 1139.00
96.6176 1102.00
96.9219 1168.00
97.2261 1213.00
97.5304 1208.00
97.8347 1104.00
98.1389 1019.00
98.4432 1062.00
98.7474 1082.00
99.0517 1031.00
99.356 1090.00
99.6602 1206.00
99.9645 1185.00
100.095 1123.00