File: data/xrd_creation/results/NSC_196.xy
9.903433 2798.00
10.2077 2716.00
10.512 2616.00
10.8162 2571.00
11.1205 2509.00
11.4247 2526.00
11.729 2378.00
12.0333 2247.00
12.3375 2159.00
12.6418 2091.00
12.946 2067.00
13.2503 2061.00
13.5546 2092.00
13.8588 2245.00
14.1631 3287.00
14.4673 2005.00
14.7716 1908.00
15.0759 2071.00
15.3801 1862.00
15.6844 1838.00
15.9886 1824.00
16.2929 1828.00
16.5972 1774.00
16.9014 1814.00
17.2057 2276.00
17.5099 1703.00
17.8142 2027.00
18.1185 1656.00
18.4227 1557.00
18.727 1595.00
19.0312 1653.00
19.3355 1922.00
19.6398 4568.00
19.944 15610.00
20.2483 1990.00
20.5525 1663.00
20.8568 1572.00
21.1611 1619.00
21.4653 1514.00
21.7696 1581.00
22.0738 1469.00
22.3781 1497.00
22.6824 1440.00
22.9866 1435.00
23.2909 2262.00
23.5951 1361.00
23.8994 1354.00
24.2037 1506.00
24.5079 2538.00
24.8122 1922.00
25.1164 1477.00
25.4207 1592.00
25.725 1297.00
26.0292 1332.00
26.3335 1411.00
26.6378 1868.00
26.942 7112.00
27.2463 1518.00
27.5505 1411.00
27.8548 1789.00
28.1591 5536.00
28.4633 3283.00
28.7676 5765.00
29.0718 1640.00
29.3761 1398.00
29.6804 3865.00
29.9846 1261.00
30.2889 1308.00
30.5931 1940.00
30.8974 1455.00
31.2017 2008.00
31.5059 7047.00
31.8102 4939.00
32.1144 3549.00
32.4187 1314.00
32.723 1204.00
33.0272 1186.00
33.3315 1255.00
33.6357 1331.00
33.94 1926.00
34.2443 6808.00
34.5485 9926.00
34.8528 2978.00
35.157 3035.00
35.4613 1259.00
35.7656 2612.00
36.0698 1242.00
36.3741 1451.00
36.6783 1031.00
36.9826 974.00
37.2869 1013.00
37.5911 2138.00
37.8954 1009.00
38.1996 2023.00
38.5039 1186.00
38.8082 987.00
39.1124 1586.00
39.4167 1140.00
39.7209 1046.00
40.0252 1566.00
40.3295 1357.00
40.6337 883.00
40.938 931.00
41.2422 1638.00
41.5465 1335.00
41.8508 1545.00
42.155 1213.00
42.4593 1325.00
42.7635 1584.00
43.0678 964.00
43.3721 875.00
43.6763 828.00
43.9806 810.00
44.2849 852.00
44.5891 1032.00
44.8934 2438.00
45.1976 2470.00
45.5019 1090.00
45.8062 1138.00
46.1104 1231.00
46.4147 971.00
46.7189 1009.00
47.0232 1536.00
47.3275 3305.00
47.6317 1825.00
47.936 824.00
48.2402 889.00
48.5445 1221.00
48.8488 850.00
49.153 855.00
49.4573 1144.00
49.7615 2079.00
50.0658 1420.00
50.3701 939.00
50.6743 2004.00
50.9786 1686.00
51.2828 1857.00
51.5871 1630.00
51.8914 3320.00
52.1956 3588.00
52.4999 1536.00
52.8041 876.00
53.1084 942.00
53.4127 1578.00
53.7169 2739.00
54.0212 1557.00
54.3254 998.00
54.6297 1465.00
54.934 1436.00
55.2382 1293.00
55.5425 972.00
55.8467 1517.00
56.151 1542.00
56.4553 1174.00
56.7595 1125.00
57.0638 845.00
57.368 834.00
57.6723 1091.00
57.9766 1432.00
58.2808 1142.00
58.5851 1252.00
58.8893 1185.00
59.1936 1159.00
59.4979 1764.00
59.8021 2684.00
60.1064 1770.00
60.4106 1511.00
60.7149 1462.00
61.0192 1072.00
61.3234 1370.00
61.6277 1647.00
61.932 1631.00
62.2362 1505.00
62.5405 1299.00
62.8447 984.00
63.149 1033.00
63.4533 1592.00
63.7575 1401.00
64.0618 1049.00
64.366 854.00
64.6703 1002.00
64.9745 1630.00
65.2788 1335.00
65.5831 896.00
65.8873 1336.00
66.1916 2080.00
66.4959 1673.00
66.8001 1148.00
67.1044 1271.00
67.4086 1379.00
67.7129 986.00
68.0172 737.00
68.3214 689.00
68.6257 927.00
68.9299 1030.00
69.2342 831.00
69.5385 829.00
69.8427 798.00
70.147 762.00
70.4512 713.00
70.7555 700.00
71.0598 673.00
71.364 815.00
71.6683 1113.00
71.9725 1204.00
72.2768 1119.00
72.5811 1049.00
72.8853 885.00
73.1896 801.00
73.4938 852.00
73.7981 833.00
74.1024 878.00
74.4066 958.00
74.7109 823.00
75.0151 692.00
75.3194 858.00
75.6237 1048.00
75.9279 1185.00
76.2322 976.00
76.5364 758.00
76.8407 751.00
77.145 852.00
77.4492 932.00
77.7535 928.00
78.0577 923.00
78.362 839.00
78.6663 800.00
78.9705 1137.00
79.2748 850.00
79.579 784.00
79.8833 790.00
80.1876 760.00
80.4918 863.00
80.7961 980.00
81.1003 1085.00
81.4046 1146.00
81.7089 842.00
82.0131 844.00
82.3174 985.00
82.6217 989.00
82.9259 884.00
83.2302 808.00
83.5344 750.00
83.8387 968.00
84.143 1089.00
84.4472 865.00
84.7515 844.00
85.0557 806.00
85.36 742.00
85.6643 710.00
85.9685 748.00
86.2728 682.00
86.577 640.00
86.8813 764.00
87.1856 890.00
87.4898 1109.00
87.7941 1058.00
88.0983 892.00
88.4026 893.00
88.7069 953.00
89.0111 907.00
89.3154 908.00
89.6196 921.00
89.9239 1098.00
90.2282 1093.00
90.5324 934.00
90.8367 1035.00
91.1409 1300.00
91.4452 932.00
91.7495 750.00
92.0537 783.00
92.358 781.00
92.6622 796.00
92.9665 726.00
93.2708 755.00
93.575 746.00
93.8793 776.00
94.1835 809.00
94.4878 856.00
94.7921 867.00
95.0963 752.00
95.4006 734.00
95.7048 861.00
96.0091 921.00
96.3134 1044.00
96.6176 886.00
96.9219 858.00
97.2261 836.00
97.5304 860.00
97.8347 804.00
98.1389 704.00
98.4432 738.00
98.7474 674.00
99.0517 824.00
99.356 821.00
99.6602 880.00
99.9645 903.00
100.095 945.00