File: data/xrd_creation/results/NSC_139.xy
9.903433 2847.00
10.2077 2855.00
10.512 2767.00
10.8162 2680.00
11.1205 2495.00
11.4247 2597.00
11.729 2523.00
12.0333 2556.00
12.3375 2447.00
12.6418 2495.00
12.946 2564.00
13.2503 2456.00
13.5546 2432.00
13.8588 2391.00
14.1631 2352.00
14.4673 2266.00
14.7716 2286.00
15.0759 2163.00
15.3801 2210.00
15.6844 2135.00
15.9886 2160.00
16.2929 2113.00
16.5972 2055.00
16.9014 2099.00
17.2057 2068.00
17.5099 2019.00
17.8142 2044.00
18.1185 1980.00
18.4227 1978.00
18.727 1980.00
19.0312 2002.00
19.3355 2046.00
19.6398 2419.00
19.944 7874.00
20.2483 2129.00
20.5525 2207.00
20.8568 1893.00
21.1611 2219.00
21.4653 1923.00
21.7696 2021.00
22.0738 2485.00
22.3781 1854.00
22.6824 1793.00
22.9866 1804.00
23.2909 1822.00
23.5951 1904.00
23.8994 1808.00
24.2037 1757.00
24.5079 2278.00
24.8122 1770.00
25.1164 1772.00
25.4207 1964.00
25.725 2525.00
26.0292 20249.00
26.3335 2624.00
26.6378 1893.00
26.942 1880.00
27.2463 1930.00
27.5505 1926.00
27.8548 2307.00
28.1591 13068.00
28.4633 2291.00
28.7676 1863.00
29.0718 1920.00
29.3761 2082.00
29.6804 11144.00
29.9846 2006.00
30.2889 1667.00
30.5931 1643.00
30.8974 1685.00
31.2017 1666.00
31.5059 1733.00
31.8102 1627.00
32.1144 1698.00
32.4187 1563.00
32.723 1912.00
33.0272 1651.00
33.3315 1525.00
33.6357 1575.00
33.94 1499.00
34.2443 1422.00
34.5485 1556.00
34.8528 1490.00
35.157 1483.00
35.4613 1502.00
35.7656 1473.00
36.0698 1521.00
36.3741 1473.00
36.6783 1473.00
36.9826 1533.00
37.2869 1469.00
37.5911 1466.00
37.8954 1513.00
38.1996 1483.00
38.5039 1865.00
38.8082 2734.00
39.1124 1470.00
39.4167 1482.00
39.7209 1396.00
40.0252 1828.00
40.3295 2548.00
40.6337 1395.00
40.938 1422.00
41.2422 1355.00
41.5465 1445.00
41.8508 1397.00
42.155 1350.00
42.4593 1370.00
42.7635 1364.00
43.0678 1408.00
43.3721 1438.00
43.6763 1325.00
43.9806 1455.00
44.2849 2446.00
44.5891 2367.00
44.8934 1563.00
45.1976 4686.00
45.5019 1442.00
45.8062 1426.00
46.1104 1344.00
46.4147 1402.00
46.7189 1853.00
47.0232 1517.00
47.3275 1366.00
47.6317 1386.00
47.936 1569.00
48.2402 2258.00
48.5445 6454.00
48.8488 2703.00
49.153 5685.00
49.4573 1496.00
49.7615 1399.00
50.0658 1531.00
50.3701 1471.00
50.6743 2510.00
50.9786 1379.00
51.2828 1398.00
51.5871 1315.00
51.8914 1309.00
52.1956 1350.00
52.4999 1331.00
52.8041 1374.00
53.1084 1494.00
53.4127 3001.00
53.7169 1435.00
54.0212 1296.00
54.3254 1322.00
54.6297 1319.00
54.934 1373.00
55.2382 1826.00
55.5425 1783.00
55.8467 1453.00
56.151 1265.00
56.4553 1431.00
56.7595 4646.00
57.0638 1763.00
57.368 1411.00
57.6723 1485.00
57.9766 5298.00
58.2808 1431.00
58.5851 1274.00
58.8893 1331.00
59.1936 1289.00
59.4979 1262.00
59.8021 1293.00
60.1064 1284.00
60.4106 1247.00
60.7149 1295.00
61.0192 1306.00
61.3234 1418.00
61.6277 1382.00
61.932 1842.00
62.2362 1209.00
62.5405 1325.00
62.8447 1336.00
63.149 1327.00
63.4533 1356.00
63.7575 1352.00
64.0618 1338.00
64.366 1996.00
64.6703 2739.00
64.9745 10124.00
65.2788 2054.00
65.5831 2934.00
65.8873 1410.00
66.1916 1343.00
66.4959 1569.00
66.8001 1320.00
67.1044 1271.00
67.4086 1272.00
67.7129 1309.00
68.0172 1287.00
68.3214 1312.00
68.6257 1334.00
68.9299 1391.00
69.2342 1262.00
69.5385 1319.00
69.8427 1294.00
70.147 1285.00
70.4512 1776.00
70.7555 2144.00
71.0598 1290.00
71.364 1299.00
71.6683 1286.00
71.9725 1210.00
72.2768 1576.00
72.5811 1421.00
72.8853 1252.00
73.1896 1256.00
73.4938 1296.00
73.7981 1227.00
74.1024 1228.00
74.4066 1229.00
74.7109 1259.00
75.0151 1278.00
75.3194 1234.00
75.6237 2186.00
75.9279 1872.00
76.2322 1378.00
76.5364 1233.00
76.8407 1230.00
77.145 1308.00
77.4492 1978.00
77.7535 1711.00
78.0577 1284.00
78.362 1405.00
78.6663 1986.00
78.9705 3870.00
79.2748 2547.00
79.579 1210.00
79.8833 1311.00
80.1876 1713.00
80.4918 1600.00
80.7961 1327.00
81.1003 1302.00
81.4046 1293.00
81.7089 1210.00
82.0131 1301.00
82.3174 1781.00
82.6217 2599.00
82.9259 1461.00
83.2302 1287.00
83.5344 1229.00
83.8387 1251.00
84.143 1581.00
84.4472 1644.00
84.7515 1272.00
85.0557 1270.00
85.36 1408.00
85.6643 1268.00
85.9685 1299.00
86.2728 1719.00
86.577 1281.00
86.8813 1251.00
87.1856 1184.00
87.4898 1178.00
87.7941 1264.00
88.0983 1225.00
88.4026 1246.00
88.7069 1208.00
89.0111 1228.00
89.3154 1224.00
89.6196 1427.00
89.9239 1297.00
90.2282 1297.00
90.5324 1232.00
90.8367 1733.00
91.1409 1541.00
91.4452 1255.00
91.7495 1212.00
92.0537 1297.00
92.358 2669.00
92.6622 1990.00
92.9665 1491.00
93.2708 1354.00
93.575 1551.00
93.8793 1407.00
94.1835 1250.00
94.4878 1114.00
94.7921 1276.00
95.0963 1178.00
95.4006 1208.00
95.7048 1303.00
96.0091 1301.00
96.3134 1326.00
96.6176 1141.00
96.9219 1212.00
97.2261 1397.00
97.5304 2100.00
97.8347 1703.00
98.1389 1287.00
98.4432 1329.00
98.7474 1406.00
99.0517 1393.00
99.356 1395.00
99.6602 1608.00
99.9645 1613.00
100.095 1314.00