File: data/xrd_creation/results/NSC_76.xy
9.903433 2723.00
10.2077 2592.00
10.512 2463.00
10.8162 2329.00
11.1205 2292.00
11.4247 2151.00
11.729 2105.00
12.0333 2042.00
12.3375 1941.00
12.6418 1901.00
12.946 1901.00
13.2503 1688.00
13.5546 1605.00
13.8588 1590.00
14.1631 1639.00
14.4673 1546.00
14.7716 1602.00
15.0759 1594.00
15.3801 1599.00
15.6844 1469.00
15.9886 1447.00
16.2929 1417.00
16.5972 1386.00
16.9014 1439.00
17.2057 1398.00
17.5099 1269.00
17.8142 1280.00
18.1185 1191.00
18.4227 1239.00
18.727 1224.00
19.0312 1192.00
19.3355 1377.00
19.6398 1241.00
19.944 1240.00
20.2483 1148.00
20.5525 1073.00
20.8568 1042.00
21.1611 1092.00
21.4653 1251.00
21.7696 1023.00
22.0738 1028.00
22.3781 1056.00
22.6824 1051.00
22.9866 997.00
23.2909 1016.00
23.5951 980.00
23.8994 911.00
24.2037 892.00
24.5079 977.00
24.8122 946.00
25.1164 999.00
25.4207 1312.00
25.725 2128.00
26.0292 961.00
26.3335 1123.00
26.6378 864.00
26.942 832.00
27.2463 886.00
27.5505 1202.00
27.8548 1875.00
28.1591 962.00
28.4633 954.00
28.7676 1142.00
29.0718 1103.00
29.3761 938.00
29.6804 804.00
29.9846 800.00
30.2889 810.00
30.5931 800.00
30.8974 741.00
31.2017 704.00
31.5059 731.00
31.8102 697.00
32.1144 686.00
32.4187 671.00
32.723 697.00
33.0272 627.00
33.3315 707.00
33.6357 870.00
33.94 660.00
34.2443 567.00
34.5485 599.00
34.8528 626.00
35.157 568.00
35.4613 622.00
35.7656 567.00
36.0698 481.00
36.3741 499.00
36.6783 510.00
36.9826 530.00
37.2869 538.00
37.5911 505.00
37.8954 512.00
38.1996 826.00
38.5039 443.00
38.8082 451.00
39.1124 436.00
39.4167 507.00
39.7209 698.00
40.0252 501.00
40.3295 413.00
40.6337 385.00
40.938 436.00
41.2422 445.00
41.5465 460.00
41.8508 408.00
42.155 437.00
42.4593 425.00
42.7635 441.00
43.0678 467.00
43.3721 435.00
43.6763 472.00
43.9806 652.00
44.2849 406.00
44.5891 586.00
44.8934 479.00
45.1976 400.00
45.5019 401.00
45.8062 398.00
46.1104 409.00
46.4147 398.00
46.7189 418.00
47.0232 442.00
47.3275 397.00
47.6317 381.00
47.936 983.00
48.2402 515.00
48.5445 1147.00
48.8488 390.00
49.153 386.00
49.4573 370.00
49.7615 388.00
50.0658 414.00
50.3701 406.00
50.6743 392.00
50.9786 355.00
51.2828 346.00
51.5871 518.00
51.8914 351.00
52.1956 376.00
52.4999 356.00
52.8041 484.00
53.1084 386.00
53.4127 317.00
53.7169 302.00
54.0212 367.00
54.3254 338.00
54.6297 359.00
54.934 431.00
55.2382 347.00
55.5425 311.00
55.8467 304.00
56.151 378.00
56.4553 480.00
56.7595 327.00
57.0638 368.00
57.368 405.00
57.6723 403.00
57.9766 300.00
58.2808 296.00
58.5851 290.00
58.8893 320.00
59.1936 297.00
59.4979 282.00
59.8021 320.00
60.1064 309.00
60.4106 339.00
60.7149 320.00
61.0192 317.00
61.3234 351.00
61.6277 382.00
61.932 300.00
62.2362 298.00
62.5405 315.00
62.8447 270.00
63.149 238.00
63.4533 241.00
63.7575 282.00
64.0618 371.00
64.366 322.00
64.6703 463.00
64.9745 321.00
65.2788 353.00
65.5831 270.00
65.8873 297.00
66.1916 271.00
66.4959 266.00
66.8001 268.00
67.1044 268.00
67.4086 269.00
67.7129 246.00
68.0172 246.00
68.3214 278.00
68.6257 249.00
68.9299 256.00
69.2342 246.00
69.5385 247.00
69.8427 263.00
70.147 354.00
70.4512 286.00
70.7555 262.00
71.0598 242.00
71.364 277.00
71.6683 234.00
71.9725 249.00
72.2768 246.00
72.5811 231.00
72.8853 238.00
73.1896 250.00
73.4938 244.00
73.7981 258.00
74.1024 241.00
74.4066 260.00
74.7109 234.00
75.0151 264.00
75.3194 326.00
75.6237 348.00
75.9279 272.00
76.2322 272.00
76.5364 298.00
76.8407 275.00
77.145 278.00
77.4492 295.00
77.7535 258.00
78.0577 326.00
78.362 309.00
78.6663 369.00
78.9705 283.00
79.2748 321.00
79.579 249.00
79.8833 324.00
80.1876 277.00
80.4918 311.00
80.7961 279.00
81.1003 302.00
81.4046 242.00
81.7089 298.00
82.0131 284.00
82.3174 308.00
82.6217 275.00
82.9259 296.00
83.2302 231.00
83.5344 264.00
83.8387 344.00
84.143 283.00
84.4472 272.00
84.7515 268.00
85.0557 239.00
85.36 263.00
85.6643 256.00
85.9685 300.00
86.2728 248.00
86.577 237.00
86.8813 226.00
87.1856 230.00
87.4898 241.00
87.7941 226.00
88.0983 224.00
88.4026 216.00
88.7069 198.00
89.0111 221.00
89.3154 213.00
89.6196 260.00
89.9239 214.00
90.2282 233.00
90.5324 277.00
90.8367 264.00
91.1409 226.00
91.4452 193.00
91.7495 218.00
92.0537 259.00
92.358 242.00
92.6622 237.00
92.9665 238.00
93.2708 201.00
93.575 221.00
93.8793 261.00
94.1835 203.00
94.4878 265.00
94.7921 232.00
95.0963 199.00
95.4006 228.00
95.7048 208.00
96.0091 228.00
96.3134 196.00
96.6176 201.00
96.9219 185.00
97.2261 239.00
97.5304 224.00
97.8347 206.00
98.1389 257.00
98.4432 256.00
98.7474 219.00
99.0517 228.00
99.356 213.00
99.6602 247.00
99.9645 222.00
100.095 224.00