File: data/xrd_creation/results/NSC_27.xy
9.903433 2630.00
10.2077 2747.00
10.512 2629.00
10.8162 2439.00
11.1205 2402.00
11.4247 2434.00
11.729 2283.00
12.0333 2123.00
12.3375 2106.00
12.6418 2112.00
12.946 2082.00
13.2503 2000.00
13.5546 1972.00
13.8588 2009.00
14.1631 2749.00
14.4673 2250.00
14.7716 1926.00
15.0759 2073.00
15.3801 2520.00
15.6844 1797.00
15.9886 1806.00
16.2929 1710.00
16.5972 1758.00
16.9014 1732.00
17.2057 1705.00
17.5099 1664.00
17.8142 1733.00
18.1185 1608.00
18.4227 1714.00
18.727 1531.00
19.0312 1652.00
19.3355 1876.00
19.6398 4885.00
19.944 3128.00
20.2483 2628.00
20.5525 11172.00
20.8568 3309.00
21.1611 2208.00
21.4653 1716.00
21.7696 1805.00
22.0738 4387.00
22.3781 1752.00
22.6824 1562.00
22.9866 1631.00
23.2909 1929.00
23.5951 6807.00
23.8994 3385.00
24.2037 1639.00
24.5079 1544.00
24.8122 1567.00
25.1164 1824.00
25.4207 5771.00
25.725 1596.00
26.0292 1919.00
26.3335 2635.00
26.6378 1339.00
26.942 1377.00
27.2463 1366.00
27.5505 1305.00
27.8548 1436.00
28.1591 1590.00
28.4633 6685.00
28.7676 2108.00
29.0718 1368.00
29.3761 1331.00
29.6804 1215.00
29.9846 1314.00
30.2889 1596.00
30.5931 3642.00
30.8974 1549.00
31.2017 2476.00
31.5059 9883.00
31.8102 2601.00
32.1144 1275.00
32.4187 1314.00
32.723 1251.00
33.0272 1343.00
33.3315 2460.00
33.6357 3435.00
33.94 1742.00
34.2443 1860.00
34.5485 1293.00
34.8528 1374.00
35.157 2590.00
35.4613 2580.00
35.7656 4815.00
36.0698 1723.00
36.3741 1264.00
36.6783 1142.00
36.9826 1094.00
37.2869 1111.00
37.5911 1137.00
37.8954 1492.00
38.1996 1415.00
38.5039 1997.00
38.8082 1478.00
39.1124 1155.00
39.4167 1164.00
39.7209 1628.00
40.0252 1398.00
40.3295 1067.00
40.6337 1335.00
40.938 1137.00
41.2422 1354.00
41.5465 1902.00
41.8508 1409.00
42.155 1456.00
42.4593 1332.00
42.7635 1055.00
43.0678 1638.00
43.3721 1726.00
43.6763 1103.00
43.9806 1375.00
44.2849 1179.00
44.5891 1189.00
44.8934 1720.00
45.1976 2851.00
45.5019 1253.00
45.8062 1111.00
46.1104 2083.00
46.4147 1884.00
46.7189 1905.00
47.0232 1293.00
47.3275 1152.00
47.6317 1278.00
47.936 1928.00
48.2402 4078.00
48.5445 1719.00
48.8488 1670.00
49.153 1253.00
49.4573 1262.00
49.7615 1575.00
50.0658 1321.00
50.3701 1185.00
50.6743 1103.00
50.9786 1372.00
51.2828 1985.00
51.5871 2899.00
51.8914 2441.00
52.1956 1400.00
52.4999 1089.00
52.8041 1186.00
53.1084 1121.00
53.4127 1026.00
53.7169 1056.00
54.0212 1084.00
54.3254 1767.00
54.6297 1511.00
54.934 1703.00
55.2382 2167.00
55.5425 3277.00
55.8467 2478.00
56.151 1369.00
56.4553 1059.00
56.7595 1150.00
57.0638 1249.00
57.368 1185.00
57.6723 1137.00
57.9766 1177.00
58.2808 1579.00
58.5851 1775.00
58.8893 1324.00
59.1936 1148.00
59.4979 1115.00
59.8021 1620.00
60.1064 2436.00
60.4106 1940.00
60.7149 1538.00
61.0192 1595.00
61.3234 2206.00
61.6277 1485.00
61.932 1458.00
62.2362 1523.00
62.5405 1514.00
62.8447 1315.00
63.149 1259.00
63.4533 1437.00
63.7575 1692.00
64.0618 1730.00
64.366 1460.00
64.6703 1450.00
64.9745 1061.00
65.2788 1249.00
65.5831 1247.00
65.8873 1424.00
66.1916 2204.00
66.4959 2027.00
66.8001 1226.00
67.1044 1178.00
67.4086 1305.00
67.7129 1471.00
68.0172 1391.00
68.3214 1134.00
68.6257 1156.00
68.9299 1443.00
69.2342 1509.00
69.5385 1364.00
69.8427 1169.00
70.147 1054.00
70.4512 1101.00
70.7555 1283.00
71.0598 1537.00
71.364 1445.00
71.6683 1140.00
71.9725 1009.00
72.2768 1007.00
72.5811 1033.00
72.8853 1032.00
73.1896 1044.00
73.4938 1280.00
73.7981 1334.00
74.1024 1272.00
74.4066 1098.00
74.7109 1095.00
75.0151 1399.00
75.3194 1629.00
75.6237 1327.00
75.9279 1105.00
76.2322 994.00
76.5364 970.00
76.8407 1027.00
77.145 1084.00
77.4492 1150.00
77.7535 1151.00
78.0577 1162.00
78.362 1052.00
78.6663 1320.00
78.9705 1405.00
79.2748 1352.00
79.579 1167.00
79.8833 1133.00
80.1876 1113.00
80.4918 1068.00
80.7961 1175.00
81.1003 1255.00
81.4046 1129.00
81.7089 1028.00
82.0131 976.00
82.3174 1028.00
82.6217 1094.00
82.9259 1015.00
83.2302 1046.00
83.5344 1273.00
83.8387 1281.00
84.143 1116.00
84.4472 1114.00
84.7515 1177.00
85.0557 1205.00
85.36 1112.00
85.6643 1123.00
85.9685 1196.00
86.2728 1208.00
86.577 1131.00
86.8813 1072.00
87.1856 1041.00
87.4898 1106.00
87.7941 1074.00
88.0983 1100.00
88.4026 1044.00
88.7069 1049.00
89.0111 1005.00
89.3154 1196.00
89.6196 1336.00
89.9239 1279.00
90.2282 1087.00
90.5324 1048.00
90.8367 936.00
91.1409 1073.00
91.4452 1241.00
91.7495 1246.00
92.0537 1156.00
92.358 1158.00
92.6622 1184.00
92.9665 1219.00
93.2708 1168.00
93.575 1075.00
93.8793 1100.00
94.1835 1104.00
94.4878 1108.00
94.7921 1068.00
95.0963 1169.00
95.4006 1260.00
95.7048 1154.00
96.0091 1165.00
96.3134 1194.00
96.6176 1165.00
96.9219 1129.00
97.2261 1039.00
97.5304 1013.00
97.8347 992.00
98.1389 1008.00
98.4432 1082.00
98.7474 1193.00
99.0517 1199.00
99.356 1064.00
99.6602 1118.00
99.9645 1218.00
100.095 1271.00