File: data/xrd_creation/results/NSC_221.xy
9.903433 2693.00
10.2077 2631.00
10.512 2531.00
10.8162 2458.00
11.1205 2318.00
11.4247 2396.00
11.729 2121.00
12.0333 2207.00
12.3375 2150.00
12.6418 2067.00
12.946 1921.00
13.2503 1975.00
13.5546 2488.00
13.8588 2844.00
14.1631 1853.00
14.4673 1814.00
14.7716 1878.00
15.0759 1806.00
15.3801 1757.00
15.6844 1761.00
15.9886 1732.00
16.2929 1630.00
16.5972 1684.00
16.9014 1700.00
17.2057 1674.00
17.5099 1709.00
17.8142 1611.00
18.1185 1582.00
18.4227 1510.00
18.727 1598.00
19.0312 1959.00
19.3355 7410.00
19.6398 6865.00
19.944 1603.00
20.2483 1506.00
20.5525 1497.00
20.8568 1507.00
21.1611 1527.00
21.4653 1443.00
21.7696 1420.00
22.0738 1388.00
22.3781 1488.00
22.6824 1632.00
22.9866 2791.00
23.2909 1441.00
23.5951 1392.00
23.8994 1406.00
24.2037 1513.00
24.5079 1382.00
24.8122 1301.00
25.1164 1230.00
25.4207 1282.00
25.725 1262.00
26.0292 1230.00
26.3335 1178.00
26.6378 1205.00
26.942 1239.00
27.2463 1224.00
27.5505 2872.00
27.8548 2469.00
28.1591 1555.00
28.4633 2251.00
28.7676 1262.00
29.0718 1138.00
29.3761 1124.00
29.6804 1153.00
29.9846 1121.00
30.2889 1621.00
30.5931 2411.00
30.8974 7726.00
31.2017 1590.00
31.5059 1539.00
31.8102 1577.00
32.1144 1075.00
32.4187 1120.00
32.723 1060.00
33.0272 1078.00
33.3315 1107.00
33.6357 1159.00
33.94 1761.00
34.2443 6642.00
34.5485 1935.00
34.8528 1191.00
35.157 1062.00
35.4613 1159.00
35.7656 1003.00
36.0698 1036.00
36.3741 976.00
36.6783 947.00
36.9826 906.00
37.2869 921.00
37.5911 863.00
37.8954 874.00
38.1996 893.00
38.5039 925.00
38.8082 1010.00
39.1124 1148.00
39.4167 1116.00
39.7209 1073.00
40.0252 935.00
40.3295 853.00
40.6337 885.00
40.938 1100.00
41.2422 1246.00
41.5465 1626.00
41.8508 1388.00
42.155 1330.00
42.4593 932.00
42.7635 868.00
43.0678 845.00
43.3721 843.00
43.6763 845.00
43.9806 1064.00
44.2849 1696.00
44.5891 2378.00
44.8934 1138.00
45.1976 900.00
45.5019 898.00
45.8062 969.00
46.1104 1289.00
46.4147 1532.00
46.7189 3197.00
47.0232 1783.00
47.3275 949.00
47.6317 812.00
47.936 888.00
48.2402 930.00
48.5445 926.00
48.8488 920.00
49.153 1098.00
49.4573 1005.00
49.7615 926.00
50.0658 932.00
50.3701 1470.00
50.6743 2652.00
50.9786 1587.00
51.2828 941.00
51.5871 908.00
51.8914 810.00
52.1956 835.00
52.4999 885.00
52.8041 897.00
53.1084 1270.00
53.4127 2806.00
53.7169 1753.00
54.0212 986.00
54.3254 924.00
54.6297 896.00
54.934 962.00
55.2382 836.00
55.5425 888.00
55.8467 991.00
56.151 862.00
56.4553 939.00
56.7595 805.00
57.0638 865.00
57.368 885.00
57.6723 922.00
57.9766 882.00
58.2808 1063.00
58.5851 1387.00
58.8893 1910.00
59.1936 2394.00
59.4979 1436.00
59.8021 905.00
60.1064 962.00
60.4106 1107.00
60.7149 989.00
61.0192 1064.00
61.3234 1695.00
61.6277 1286.00
61.932 1165.00
62.2362 1207.00
62.5405 1131.00
62.8447 1052.00
63.149 921.00
63.4533 859.00
63.7575 777.00
64.0618 742.00
64.366 777.00
64.6703 890.00
64.9745 1127.00
65.2788 1044.00
65.5831 1121.00
65.8873 1172.00
66.1916 1393.00
66.4959 1285.00
66.8001 989.00
67.1044 850.00
67.4086 779.00
67.7129 800.00
68.0172 767.00
68.3214 915.00
68.6257 1232.00
68.9299 953.00
69.2342 852.00
69.5385 786.00
69.8427 865.00
70.147 777.00
70.4512 807.00
70.7555 806.00
71.0598 795.00
71.364 757.00
71.6683 898.00
71.9725 1039.00
72.2768 1264.00
72.5811 1072.00
72.8853 1081.00
73.1896 977.00
73.4938 767.00
73.7981 852.00
74.1024 851.00
74.4066 845.00
74.7109 792.00
75.0151 746.00
75.3194 860.00
75.6237 1106.00
75.9279 1003.00
76.2322 807.00
76.5364 841.00
76.8407 925.00
77.145 844.00
77.4492 758.00
77.7535 726.00
78.0577 691.00
78.362 726.00
78.6663 725.00
78.9705 803.00
79.2748 817.00
79.579 963.00
79.8833 940.00
80.1876 967.00
80.4918 1131.00
80.7961 1116.00
81.1003 789.00
81.4046 756.00
81.7089 783.00
82.0131 932.00
82.3174 968.00
82.6217 837.00
82.9259 847.00
83.2302 800.00
83.5344 766.00
83.8387 738.00
84.143 720.00
84.4472 737.00
84.7515 766.00
85.0557 706.00
85.36 830.00
85.6643 862.00
85.9685 909.00
86.2728 957.00
86.577 1082.00
86.8813 1186.00
87.1856 1007.00
87.4898 884.00
87.7941 898.00
88.0983 807.00
88.4026 757.00
88.7069 804.00
89.0111 929.00
89.3154 922.00
89.6196 843.00
89.9239 910.00
90.2282 840.00
90.5324 849.00
90.8367 854.00
91.1409 789.00
91.4452 803.00
91.7495 743.00
92.0537 852.00
92.358 924.00
92.6622 927.00
92.9665 979.00
93.2708 1008.00
93.575 1015.00
93.8793 872.00
94.1835 846.00
94.4878 779.00
94.7921 755.00
95.0963 778.00
95.4006 860.00
95.7048 844.00
96.0091 823.00
96.3134 786.00
96.6176 803.00
96.9219 794.00
97.2261 809.00
97.5304 835.00
97.8347 845.00
98.1389 800.00
98.4432 789.00
98.7474 777.00
99.0517 828.00
99.356 891.00
99.6602 951.00
99.9645 1214.00
100.095 1168.00