File: data/xrd_creation/results/NSC_113.xy
9.903433 2808.00
10.2077 2700.00
10.512 2572.00
10.8162 2382.00
11.1205 2279.00
11.4247 2292.00
11.729 2150.00
12.0333 2173.00
12.3375 1931.00
12.6418 1937.00
12.946 1909.00
13.2503 1888.00
13.5546 1798.00
13.8588 1860.00
14.1631 1932.00
14.4673 2381.00
14.7716 1688.00
15.0759 1649.00
15.3801 1571.00
15.6844 1546.00
15.9886 1545.00
16.2929 1509.00
16.5972 1478.00
16.9014 1451.00
17.2057 1503.00
17.5099 1395.00
17.8142 1441.00
18.1185 1373.00
18.4227 1341.00
18.727 1330.00
19.0312 1300.00
19.3355 1429.00
19.6398 2154.00
19.944 4015.00
20.2483 1818.00
20.5525 1597.00
20.8568 4338.00
21.1611 4211.00
21.4653 1288.00
21.7696 1315.00
22.0738 1281.00
22.3781 1370.00
22.6824 1348.00
22.9866 1162.00
23.2909 1101.00
23.5951 1141.00
23.8994 1987.00
24.2037 3136.00
24.5079 1103.00
24.8122 1069.00
25.1164 1085.00
25.4207 964.00
25.725 926.00
26.0292 934.00
26.3335 920.00
26.6378 909.00
26.942 904.00
27.2463 896.00
27.5505 877.00
27.8548 841.00
28.1591 893.00
28.4633 927.00
28.7676 1324.00
29.0718 3123.00
29.3761 1087.00
29.6804 905.00
29.9846 804.00
30.2889 728.00
30.5931 783.00
30.8974 849.00
31.2017 756.00
31.5059 930.00
31.8102 3558.00
32.1144 3755.00
32.4187 1159.00
32.723 851.00
33.0272 668.00
33.3315 734.00
33.6357 671.00
33.94 711.00
34.2443 887.00
34.5485 656.00
34.8528 619.00
35.157 644.00
35.4613 665.00
35.7656 869.00
36.0698 1903.00
36.3741 1155.00
36.6783 2464.00
36.9826 997.00
37.2869 705.00
37.5911 889.00
37.8954 646.00
38.1996 600.00
38.5039 617.00
38.8082 738.00
39.1124 556.00
39.4167 646.00
39.7209 586.00
40.0252 558.00
40.3295 723.00
40.6337 805.00
40.938 571.00
41.2422 534.00
41.5465 498.00
41.8508 590.00
42.155 1044.00
42.4593 815.00
42.7635 844.00
43.0678 634.00
43.3721 497.00
43.6763 547.00
43.9806 700.00
44.2849 1403.00
44.5891 617.00
44.8934 488.00
45.1976 668.00
45.5019 471.00
45.8062 868.00
46.1104 1373.00
46.4147 487.00
46.7189 493.00
47.0232 576.00
47.3275 1280.00
47.6317 1490.00
47.936 492.00
48.2402 487.00
48.5445 489.00
48.8488 614.00
49.153 967.00
49.4573 2205.00
49.7615 564.00
50.0658 567.00
50.3701 760.00
50.6743 446.00
50.9786 427.00
51.2828 520.00
51.5871 574.00
51.8914 538.00
52.1956 976.00
52.4999 2084.00
52.8041 535.00
53.1084 506.00
53.4127 502.00
53.7169 412.00
54.0212 391.00
54.3254 425.00
54.6297 440.00
54.934 457.00
55.2382 442.00
55.5425 620.00
55.8467 877.00
56.151 441.00
56.4553 504.00
56.7595 742.00
57.0638 1498.00
57.368 1722.00
57.6723 816.00
57.9766 476.00
58.2808 437.00
58.5851 528.00
58.8893 771.00
59.1936 585.00
59.4979 390.00
59.8021 420.00
60.1064 533.00
60.4106 503.00
60.7149 523.00
61.0192 527.00
61.3234 1105.00
61.6277 855.00
61.932 455.00
62.2362 499.00
62.5405 556.00
62.8447 967.00
63.149 1501.00
63.4533 772.00
63.7575 470.00
64.0618 409.00
64.366 501.00
64.6703 459.00
64.9745 393.00
65.2788 466.00
65.5831 1068.00
65.8873 1006.00
66.1916 740.00
66.4959 448.00
66.8001 428.00
67.1044 497.00
67.4086 957.00
67.7129 562.00
68.0172 464.00
68.3214 391.00
68.6257 351.00
68.9299 350.00
69.2342 364.00
69.5385 794.00
69.8427 764.00
70.147 407.00
70.4512 387.00
70.7555 392.00
71.0598 461.00
71.364 508.00
71.6683 424.00
71.9725 384.00
72.2768 403.00
72.5811 356.00
72.8853 336.00
73.1896 347.00
73.4938 671.00
73.7981 642.00
74.1024 355.00
74.4066 315.00
74.7109 345.00
75.0151 420.00
75.3194 753.00
75.6237 532.00
75.9279 476.00
76.2322 504.00
76.5364 433.00
76.8407 318.00
77.145 329.00
77.4492 403.00
77.7535 582.00
78.0577 541.00
78.362 392.00
78.6663 337.00
78.9705 359.00
79.2748 457.00
79.579 409.00
79.8833 385.00
80.1876 405.00
80.4918 354.00
80.7961 378.00
81.1003 469.00
81.4046 684.00
81.7089 579.00
82.0131 424.00
82.3174 329.00
82.6217 430.00
82.9259 797.00
83.2302 540.00
83.5344 359.00
83.8387 289.00
84.143 303.00
84.4472 318.00
84.7515 285.00
85.0557 387.00
85.36 371.00
85.6643 324.00
85.9685 323.00
86.2728 442.00
86.577 636.00
86.8813 477.00
87.1856 364.00
87.4898 469.00
87.7941 748.00
88.0983 548.00
88.4026 366.00
88.7069 420.00
89.0111 422.00
89.3154 342.00
89.6196 290.00
89.9239 325.00
90.2282 352.00
90.5324 463.00
90.8367 408.00
91.1409 416.00
91.4452 407.00
91.7495 349.00
92.0537 352.00
92.358 437.00
92.6622 669.00
92.9665 581.00
93.2708 347.00
93.575 330.00
93.8793 356.00
94.1835 545.00
94.4878 480.00
94.7921 377.00
95.0963 378.00
95.4006 473.00
95.7048 442.00
96.0091 391.00
96.3134 423.00
96.6176 402.00
96.9219 365.00
97.2261 322.00
97.5304 374.00
97.8347 554.00
98.1389 610.00
98.4432 466.00
98.7474 323.00
99.0517 300.00
99.356 292.00
99.6602 335.00
99.9645 511.00
100.095 624.00