File: data/xrd_creation/results/NSC_77.xy
9.903433 2990.00
10.2077 2849.00
10.512 2753.00
10.8162 2764.00
11.1205 2686.00
11.4247 2638.00
11.729 2542.00
12.0333 2414.00
12.3375 2507.00
12.6418 2396.00
12.946 2307.00
13.2503 2322.00
13.5546 2275.00
13.8588 2263.00
14.1631 2168.00
14.4673 2290.00
14.7716 2068.00
15.0759 2056.00
15.3801 2062.00
15.6844 1995.00
15.9886 2129.00
16.2929 2015.00
16.5972 1961.00
16.9014 1986.00
17.2057 1946.00
17.5099 1916.00
17.8142 1887.00
18.1185 1862.00
18.4227 1840.00
18.727 1847.00
19.0312 1822.00
19.3355 2165.00
19.6398 3673.00
19.944 1854.00
20.2483 1847.00
20.5525 1881.00
20.8568 1796.00
21.1611 1724.00
21.4653 2117.00
21.7696 1908.00
22.0738 1745.00
22.3781 1752.00
22.6824 1684.00
22.9866 1799.00
23.2909 1779.00
23.5951 1743.00
23.8994 1732.00
24.2037 1730.00
24.5079 1663.00
24.8122 1782.00
25.1164 1940.00
25.4207 2567.00
25.725 14345.00
26.0292 2280.00
26.3335 1761.00
26.6378 1726.00
26.942 1740.00
27.2463 1730.00
27.5505 2123.00
27.8548 9723.00
28.1591 1997.00
28.4633 1677.00
28.7676 1755.00
29.0718 2072.00
29.3761 4687.00
29.6804 2330.00
29.9846 1763.00
30.2889 1664.00
30.5931 1587.00
30.8974 1482.00
31.2017 1600.00
31.5059 1526.00
31.8102 1405.00
32.1144 1503.00
32.4187 1430.00
32.723 1396.00
33.0272 1343.00
33.3315 1371.00
33.6357 1324.00
33.94 1335.00
34.2443 1335.00
34.5485 1247.00
34.8528 1247.00
35.157 1285.00
35.4613 1266.00
35.7656 1227.00
36.0698 1263.00
36.3741 1168.00
36.6783 1205.00
36.9826 1126.00
37.2869 1171.00
37.5911 1120.00
37.8954 1155.00
38.1996 1829.00
38.5039 1526.00
38.8082 1088.00
39.1124 1105.00
39.4167 1100.00
39.7209 1619.00
40.0252 1389.00
40.3295 1086.00
40.6337 1093.00
40.938 1035.00
41.2422 1075.00
41.5465 1073.00
41.8508 1049.00
42.155 1044.00
42.4593 1023.00
42.7635 1052.00
43.0678 1178.00
43.3721 1029.00
43.6763 1179.00
43.9806 2538.00
44.2849 1432.00
44.5891 1360.00
44.8934 2377.00
45.1976 1130.00
45.5019 1046.00
45.8062 972.00
46.1104 1019.00
46.4147 1155.00
46.7189 1051.00
47.0232 1065.00
47.3275 1024.00
47.6317 1091.00
47.936 2319.00
48.2402 2399.00
48.5445 3067.00
48.8488 2196.00
49.153 1105.00
49.4573 983.00
49.7615 1036.00
50.0658 1100.00
50.3701 1554.00
50.6743 1022.00
50.9786 955.00
51.2828 947.00
51.5871 945.00
51.8914 952.00
52.1956 920.00
52.4999 956.00
52.8041 1293.00
53.1084 1505.00
53.4127 974.00
53.7169 926.00
54.0212 904.00
54.3254 984.00
54.6297 904.00
54.934 1413.00
55.2382 1107.00
55.5425 930.00
55.8467 911.00
56.151 1067.00
56.4553 2196.00
56.7595 1228.00
57.0638 932.00
57.368 1052.00
57.6723 1965.00
57.9766 1011.00
58.2808 897.00
58.5851 914.00
58.8893 860.00
59.1936 874.00
59.4979 855.00
59.8021 886.00
60.1064 841.00
60.4106 893.00
60.7149 908.00
61.0192 922.00
61.3234 924.00
61.6277 1157.00
61.932 859.00
62.2362 887.00
62.5405 842.00
62.8447 843.00
63.149 839.00
63.4533 885.00
63.7575 871.00
64.0618 1406.00
64.366 1461.00
64.6703 3412.00
64.9745 1516.00
65.2788 1622.00
65.5831 924.00
65.8873 935.00
66.1916 871.00
66.4959 850.00
66.8001 768.00
67.1044 771.00
67.4086 830.00
67.7129 780.00
68.0172 755.00
68.3214 783.00
68.6257 835.00
68.9299 760.00
69.2342 813.00
69.5385 834.00
69.8427 854.00
70.147 1127.00
70.4512 1183.00
70.7555 773.00
71.0598 750.00
71.364 755.00
71.6683 746.00
71.9725 853.00
72.2768 801.00
72.5811 718.00
72.8853 772.00
73.1896 756.00
73.4938 699.00
73.7981 684.00
74.1024 767.00
74.4066 770.00
74.7109 721.00
75.0151 770.00
75.3194 1273.00
75.6237 1138.00
75.9279 851.00
76.2322 671.00
76.5364 753.00
76.8407 731.00
77.145 995.00
77.4492 829.00
77.7535 745.00
78.0577 899.00
78.362 1272.00
78.6663 1497.00
78.9705 1131.00
79.2748 741.00
79.579 745.00
79.8833 831.00
80.1876 781.00
80.4918 676.00
80.7961 668.00
81.1003 669.00
81.4046 692.00
81.7089 733.00
82.0131 941.00
82.3174 1270.00
82.6217 872.00
82.9259 670.00
83.2302 687.00
83.5344 659.00
83.8387 901.00
84.143 830.00
84.4472 724.00
84.7515 732.00
85.0557 720.00
85.36 663.00
85.6643 741.00
85.9685 816.00
86.2728 678.00
86.577 610.00
86.8813 624.00
87.1856 610.00
87.4898 651.00
87.7941 720.00
88.0983 652.00
88.4026 623.00
88.7069 656.00
89.0111 578.00
89.3154 697.00
89.6196 696.00
89.9239 660.00
90.2282 649.00
90.5324 870.00
90.8367 831.00
91.1409 715.00
91.4452 695.00
91.7495 682.00
92.0537 955.00
92.358 915.00
92.6622 891.00
92.9665 743.00
93.2708 712.00
93.575 673.00
93.8793 637.00
94.1835 610.00
94.4878 654.00
94.7921 679.00
95.0963 647.00
95.4006 651.00
95.7048 732.00
96.0091 697.00
96.3134 649.00
96.6176 604.00
96.9219 675.00
97.2261 975.00
97.5304 795.00
97.8347 734.00
98.1389 717.00
98.4432 761.00
98.7474 772.00
99.0517 739.00
99.356 854.00
99.6602 748.00
99.9645 731.00
100.095 663.00