File: data/xrd_creation/results/NSC_79.xy
9.903433 2885.00
10.2077 2847.00
10.512 2718.00
10.8162 2735.00
11.1205 2609.00
11.4247 2632.00
11.729 2544.00
12.0333 2578.00
12.3375 2539.00
12.6418 2494.00
12.946 2368.00
13.2503 2262.00
13.5546 2280.00
13.8588 2282.00
14.1631 2203.00
14.4673 2119.00
14.7716 2085.00
15.0759 2123.00
15.3801 1912.00
15.6844 1989.00
15.9886 1963.00
16.2929 1948.00
16.5972 1999.00
16.9014 1886.00
17.2057 1909.00
17.5099 2001.00
17.8142 1847.00
18.1185 1880.00
18.4227 1876.00
18.727 1848.00
19.0312 1846.00
19.3355 2127.00
19.6398 4831.00
19.944 1761.00
20.2483 1917.00
20.5525 1741.00
20.8568 1791.00
21.1611 1710.00
21.4653 1888.00
21.7696 1776.00
22.0738 1620.00
22.3781 1618.00
22.6824 1634.00
22.9866 1591.00
23.2909 2481.00
23.5951 1598.00
23.8994 1655.00
24.2037 1820.00
24.5079 1601.00
24.8122 2100.00
25.1164 2383.00
25.4207 2358.00
25.725 15968.00
26.0292 2356.00
26.3335 1693.00
26.6378 1515.00
26.942 1632.00
27.2463 1673.00
27.5505 2056.00
27.8548 13690.00
28.1591 2080.00
28.4633 1577.00
28.7676 1537.00
29.0718 1837.00
29.3761 5863.00
29.6804 2129.00
29.9846 1577.00
30.2889 1537.00
30.5931 1501.00
30.8974 1412.00
31.2017 1401.00
31.5059 1335.00
31.8102 1273.00
32.1144 1390.00
32.4187 1382.00
32.723 1302.00
33.0272 1232.00
33.3315 1263.00
33.6357 1226.00
33.94 1311.00
34.2443 1246.00
34.5485 1222.00
34.8528 1151.00
35.157 1129.00
35.4613 1450.00
35.7656 1488.00
36.0698 1267.00
36.3741 1187.00
36.6783 1107.00
36.9826 1112.00
37.2869 1110.00
37.5911 1071.00
37.8954 1088.00
38.1996 1893.00
38.5039 1791.00
38.8082 1198.00
39.1124 1129.00
39.4167 1101.00
39.7209 1890.00
40.0252 1659.00
40.3295 1150.00
40.6337 981.00
40.938 1147.00
41.2422 1152.00
41.5465 1067.00
41.8508 1006.00
42.155 1037.00
42.4593 1030.00
42.7635 937.00
43.0678 1119.00
43.3721 1031.00
43.6763 1064.00
43.9806 2245.00
44.2849 1575.00
44.5891 1503.00
44.8934 3490.00
45.1976 1128.00
45.5019 1009.00
45.8062 1020.00
46.1104 1005.00
46.4147 1167.00
46.7189 972.00
47.0232 990.00
47.3275 1040.00
47.6317 1168.00
47.936 2849.00
48.2402 3091.00
48.5445 2713.00
48.8488 2670.00
49.153 1100.00
49.4573 979.00
49.7615 1011.00
50.0658 1087.00
50.3701 1860.00
50.6743 959.00
50.9786 958.00
51.2828 1066.00
51.5871 984.00
51.8914 941.00
52.1956 875.00
52.4999 933.00
52.8041 1284.00
53.1084 1748.00
53.4127 984.00
53.7169 962.00
54.0212 932.00
54.3254 909.00
54.6297 954.00
54.934 1408.00
55.2382 1230.00
55.5425 952.00
55.8467 984.00
56.151 1044.00
56.4553 2798.00
56.7595 1429.00
57.0638 1073.00
57.368 1082.00
57.6723 2860.00
57.9766 1076.00
58.2808 958.00
58.5851 982.00
58.8893 912.00
59.1936 848.00
59.4979 858.00
59.8021 808.00
60.1064 935.00
60.4106 889.00
60.7149 933.00
61.0192 984.00
61.3234 986.00
61.6277 1316.00
61.932 886.00
62.2362 851.00
62.5405 807.00
62.8447 855.00
63.149 894.00
63.4533 855.00
63.7575 883.00
64.0618 1682.00
64.366 1792.00
64.6703 4731.00
64.9745 1716.00
65.2788 2086.00
65.5831 1020.00
65.8873 985.00
66.1916 877.00
66.4959 796.00
66.8001 763.00
67.1044 826.00
67.4086 829.00
67.7129 817.00
68.0172 805.00
68.3214 805.00
68.6257 855.00
68.9299 821.00
69.2342 776.00
69.5385 772.00
69.8427 822.00
70.147 1134.00
70.4512 1236.00
70.7555 842.00
71.0598 810.00
71.364 795.00
71.6683 816.00
71.9725 920.00
72.2768 837.00
72.5811 769.00
72.8853 784.00
73.1896 688.00
73.4938 733.00
73.7981 782.00
74.1024 755.00
74.4066 802.00
74.7109 806.00
75.0151 865.00
75.3194 1296.00
75.6237 1263.00
75.9279 956.00
76.2322 771.00
76.5364 778.00
76.8407 886.00
77.145 1126.00
77.4492 1048.00
77.7535 810.00
78.0577 1028.00
78.362 1667.00
78.6663 1865.00
78.9705 1462.00
79.2748 818.00
79.579 829.00
79.8833 1001.00
80.1876 951.00
80.4918 702.00
80.7961 757.00
81.1003 733.00
81.4046 734.00
81.7089 795.00
82.0131 1076.00
82.3174 1486.00
82.6217 976.00
82.9259 759.00
83.2302 717.00
83.5344 760.00
83.8387 988.00
84.143 968.00
84.4472 759.00
84.7515 793.00
85.0557 889.00
85.36 771.00
85.6643 830.00
85.9685 942.00
86.2728 768.00
86.577 790.00
86.8813 685.00
87.1856 711.00
87.4898 693.00
87.7941 697.00
88.0983 698.00
88.4026 682.00
88.7069 720.00
89.0111 731.00
89.3154 805.00
89.6196 742.00
89.9239 683.00
90.2282 734.00
90.5324 959.00
90.8367 931.00
91.1409 747.00
91.4452 764.00
91.7495 726.00
92.0537 1281.00
92.358 1087.00
92.6622 1034.00
92.9665 862.00
93.2708 850.00
93.575 787.00
93.8793 674.00
94.1835 655.00
94.4878 663.00
94.7921 713.00
95.0963 713.00
95.4006 746.00
95.7048 862.00
96.0091 752.00
96.3134 742.00
96.6176 724.00
96.9219 807.00
97.2261 1076.00
97.5304 923.00
97.8347 749.00
98.1389 807.00
98.4432 995.00
98.7474 821.00
99.0517 826.00
99.356 1155.00
99.6602 917.00
99.9645 744.00
100.095 653.00