File: data/xrd_creation/results/NSC_153.xy
9.903433 2612.00
10.2077 2326.00
10.512 2272.00
10.8162 2199.00
11.1205 2117.00
11.4247 2032.00
11.729 1964.00
12.0333 1854.00
12.3375 1853.00
12.6418 1702.00
12.946 1565.00
13.2503 1561.00
13.5546 1555.00
13.8588 1522.00
14.1631 1364.00
14.4673 1403.00
14.7716 1334.00
15.0759 1319.00
15.3801 1333.00
15.6844 1225.00
15.9886 1218.00
16.2929 1249.00
16.5972 1182.00
16.9014 1123.00
17.2057 1173.00
17.5099 1122.00
17.8142 1116.00
18.1185 1031.00
18.4227 1074.00
18.727 1023.00
19.0312 964.00
19.3355 974.00
19.6398 908.00
19.944 916.00
20.2483 901.00
20.5525 890.00
20.8568 877.00
21.1611 799.00
21.4653 861.00
21.7696 788.00
22.0738 830.00
22.3781 815.00
22.6824 775.00
22.9866 746.00
23.2909 761.00
23.5951 779.00
23.8994 707.00
24.2037 700.00
24.5079 677.00
24.8122 674.00
25.1164 693.00
25.4207 674.00
25.725 692.00
26.0292 619.00
26.3335 651.00
26.6378 622.00
26.942 619.00
27.2463 639.00
27.5505 613.00
27.8548 577.00
28.1591 582.00
28.4633 580.00
28.7676 573.00
29.0718 535.00
29.3761 575.00
29.6804 547.00
29.9846 548.00
30.2889 562.00
30.5931 546.00
30.8974 516.00
31.2017 503.00
31.5059 471.00
31.8102 504.00
32.1144 479.00
32.4187 506.00
32.723 460.00
33.0272 526.00
33.3315 459.00
33.6357 452.00
33.94 437.00
34.2443 439.00
34.5485 422.00
34.8528 420.00
35.157 421.00
35.4613 456.00
35.7656 374.00
36.0698 410.00
36.3741 412.00
36.6783 367.00
36.9826 391.00
37.2869 339.00
37.5911 372.00
37.8954 361.00
38.1996 340.00
38.5039 384.00
38.8082 391.00
39.1124 418.00
39.4167 373.00
39.7209 325.00
40.0252 315.00
40.3295 344.00
40.6337 361.00
40.938 359.00
41.2422 337.00
41.5465 331.00
41.8508 331.00
42.155 322.00
42.4593 292.00
42.7635 291.00
43.0678 313.00
43.3721 287.00
43.6763 314.00
43.9806 298.00
44.2849 305.00
44.5891 289.00
44.8934 308.00
45.1976 278.00
45.5019 357.00
45.8062 243.00
46.1104 310.00
46.4147 274.00
46.7189 289.00
47.0232 249.00
47.3275 276.00
47.6317 273.00
47.936 272.00
48.2402 282.00
48.5445 276.00
48.8488 256.00
49.153 295.00
49.4573 289.00
49.7615 217.00
50.0658 269.00
50.3701 233.00
50.6743 266.00
50.9786 236.00
51.2828 270.00
51.5871 240.00
51.8914 272.00
52.1956 259.00
52.4999 240.00
52.8041 257.00
53.1084 233.00
53.4127 241.00
53.7169 233.00
54.0212 235.00
54.3254 238.00
54.6297 214.00
54.934 222.00
55.2382 257.00
55.5425 234.00
55.8467 216.00
56.151 210.00
56.4553 226.00
56.7595 211.00
57.0638 216.00
57.368 217.00
57.6723 208.00
57.9766 180.00
58.2808 206.00
58.5851 225.00
58.8893 211.00
59.1936 194.00
59.4979 190.00
59.8021 192.00
60.1064 217.00
60.4106 193.00
60.7149 196.00
61.0192 206.00
61.3234 180.00
61.6277 197.00
61.932 206.00
62.2362 217.00
62.5405 223.00
62.8447 188.00
63.149 193.00
63.4533 204.00
63.7575 211.00
64.0618 159.00
64.366 169.00
64.6703 170.00
64.9745 202.00
65.2788 186.00
65.5831 184.00
65.8873 194.00
66.1916 180.00
66.4959 168.00
66.8001 189.00
67.1044 196.00
67.4086 193.00
67.7129 193.00
68.0172 174.00
68.3214 164.00
68.6257 186.00
68.9299 187.00
69.2342 194.00
69.5385 183.00
69.8427 199.00
70.147 178.00
70.4512 192.00
70.7555 202.00
71.0598 193.00
71.364 191.00
71.6683 203.00
71.9725 188.00
72.2768 203.00
72.5811 173.00
72.8853 205.00
73.1896 184.00
73.4938 202.00
73.7981 193.00
74.1024 207.00
74.4066 199.00
74.7109 186.00
75.0151 224.00
75.3194 227.00
75.6237 190.00
75.9279 190.00
76.2322 205.00
76.5364 170.00
76.8407 212.00
77.145 204.00
77.4492 196.00
77.7535 218.00
78.0577 232.00
78.362 203.00
78.6663 231.00
78.9705 196.00
79.2748 221.00
79.579 210.00
79.8833 193.00
80.1876 203.00
80.4918 196.00
80.7961 204.00
81.1003 244.00
81.4046 215.00
81.7089 208.00
82.0131 232.00
82.3174 240.00
82.6217 172.00
82.9259 208.00
83.2302 221.00
83.5344 222.00
83.8387 186.00
84.143 206.00
84.4472 197.00
84.7515 207.00
85.0557 199.00
85.36 179.00
85.6643 202.00
85.9685 213.00
86.2728 209.00
86.577 204.00
86.8813 197.00
87.1856 189.00
87.4898 202.00
87.7941 205.00
88.0983 200.00
88.4026 189.00
88.7069 186.00
89.0111 177.00
89.3154 197.00
89.6196 186.00
89.9239 184.00
90.2282 174.00
90.5324 176.00
90.8367 192.00
91.1409 153.00
91.4452 188.00
91.7495 189.00
92.0537 193.00
92.358 204.00
92.6622 182.00
92.9665 174.00
93.2708 171.00
93.575 161.00
93.8793 158.00
94.1835 189.00
94.4878 191.00
94.7921 177.00
95.0963 200.00
95.4006 185.00
95.7048 186.00
96.0091 178.00
96.3134 185.00
96.6176 183.00
96.9219 189.00
97.2261 162.00
97.5304 206.00
97.8347 148.00
98.1389 189.00
98.4432 151.00
98.7474 156.00
99.0517 170.00
99.356 175.00
99.6602 171.00
99.9645 178.00
100.095 187.00