File: data/xrd_creation/results/NSC_167.xy
9.903433 2713.00
10.2077 2569.00
10.512 2500.00
10.8162 2378.00
11.1205 2405.00
11.4247 2268.00
11.729 2202.00
12.0333 2067.00
12.3375 2037.00
12.6418 1896.00
12.946 1943.00
13.2503 1815.00
13.5546 1794.00
13.8588 1824.00
14.1631 2316.00
14.4673 1931.00
14.7716 1664.00
15.0759 1617.00
15.3801 1614.00
15.6844 1601.00
15.9886 1579.00
16.2929 1552.00
16.5972 1542.00
16.9014 1552.00
17.2057 1572.00
17.5099 2038.00
17.8142 1357.00
18.1185 1409.00
18.4227 1365.00
18.727 1391.00
19.0312 1349.00
19.3355 1625.00
19.6398 1902.00
19.944 2397.00
20.2483 1949.00
20.5525 1347.00
20.8568 1364.00
21.1611 1361.00
21.4653 1403.00
21.7696 1366.00
22.0738 1348.00
22.3781 1290.00
22.6824 1298.00
22.9866 1528.00
23.2909 2092.00
23.5951 4516.00
23.8994 2290.00
24.2037 1338.00
24.5079 1457.00
24.8122 1406.00
25.1164 1085.00
25.4207 1132.00
25.725 1123.00
26.0292 1603.00
26.3335 1127.00
26.6378 1079.00
26.942 1138.00
27.2463 1463.00
27.5505 1635.00
27.8548 1143.00
28.1591 1587.00
28.4633 2562.00
28.7676 1046.00
29.0718 1160.00
29.3761 1074.00
29.6804 1030.00
29.9846 987.00
30.2889 974.00
30.5931 1019.00
30.8974 1514.00
31.2017 4419.00
31.5059 2554.00
31.8102 2550.00
32.1144 1627.00
32.4187 1245.00
32.723 1059.00
33.0272 859.00
33.3315 838.00
33.6357 867.00
33.94 844.00
34.2443 826.00
34.5485 967.00
34.8528 1864.00
35.157 2481.00
35.4613 1436.00
35.7656 787.00
36.0698 708.00
36.3741 897.00
36.6783 720.00
36.9826 803.00
37.2869 753.00
37.5911 646.00
37.8954 653.00
38.1996 667.00
38.5039 679.00
38.8082 632.00
39.1124 590.00
39.4167 625.00
39.7209 629.00
40.0252 708.00
40.3295 654.00
40.6337 650.00
40.938 699.00
41.2422 730.00
41.5465 778.00
41.8508 800.00
42.155 753.00
42.4593 1114.00
42.7635 1554.00
43.0678 815.00
43.3721 741.00
43.6763 671.00
43.9806 600.00
44.2849 553.00
44.5891 616.00
44.8934 909.00
45.1976 748.00
45.5019 999.00
45.8062 810.00
46.1104 615.00
46.4147 594.00
46.7189 589.00
47.0232 668.00
47.3275 810.00
47.6317 1602.00
47.936 1428.00
48.2402 1090.00
48.5445 625.00
48.8488 486.00
49.153 526.00
49.4573 635.00
49.7615 633.00
50.0658 523.00
50.3701 537.00
50.6743 566.00
50.9786 976.00
51.2828 1016.00
51.5871 994.00
51.8914 970.00
52.1956 795.00
52.4999 488.00
52.8041 554.00
53.1084 714.00
53.4127 613.00
53.7169 630.00
54.0212 459.00
54.3254 608.00
54.6297 956.00
54.934 1108.00
55.2382 575.00
55.5425 515.00
55.8467 556.00
56.151 652.00
56.4553 513.00
56.7595 426.00
57.0638 439.00
57.368 448.00
57.6723 414.00
57.9766 436.00
58.2808 448.00
58.5851 491.00
58.8893 446.00
59.1936 609.00
59.4979 666.00
59.8021 754.00
60.1064 821.00
60.4106 797.00
60.7149 1015.00
61.0192 687.00
61.3234 566.00
61.6277 505.00
61.932 570.00
62.2362 633.00
62.5405 593.00
62.8447 750.00
63.149 602.00
63.4533 625.00
63.7575 516.00
64.0618 542.00
64.366 474.00
64.6703 465.00
64.9745 442.00
65.2788 398.00
65.5831 484.00
65.8873 485.00
66.1916 503.00
66.4959 682.00
66.8001 576.00
67.1044 610.00
67.4086 517.00
67.7129 633.00
68.0172 724.00
68.3214 491.00
68.6257 373.00
68.9299 340.00
69.2342 419.00
69.5385 348.00
69.8427 437.00
70.147 589.00
70.4512 476.00
70.7555 518.00
71.0598 447.00
71.364 472.00
71.6683 451.00
71.9725 375.00
72.2768 393.00
72.5811 418.00
72.8853 366.00
73.1896 395.00
73.4938 373.00
73.7981 582.00
74.1024 608.00
74.4066 583.00
74.7109 420.00
75.0151 398.00
75.3194 440.00
75.6237 438.00
75.9279 402.00
76.2322 380.00
76.5364 387.00
76.8407 352.00
77.145 323.00
77.4492 360.00
77.7535 362.00
78.0577 331.00
78.362 293.00
78.6663 399.00
78.9705 401.00
79.2748 439.00
79.579 357.00
79.8833 300.00
80.1876 293.00
80.4918 342.00
80.7961 320.00
81.1003 358.00
81.4046 336.00
81.7089 367.00
82.0131 396.00
82.3174 533.00
82.6217 382.00
82.9259 372.00
83.2302 338.00
83.5344 392.00
83.8387 376.00
84.143 429.00
84.4472 328.00
84.7515 327.00
85.0557 366.00
85.36 294.00
85.6643 299.00
85.9685 290.00
86.2728 360.00
86.577 406.00
86.8813 357.00
87.1856 292.00
87.4898 332.00
87.7941 367.00
88.0983 401.00
88.4026 377.00
88.7069 353.00
89.0111 400.00
89.3154 434.00
89.6196 364.00
89.9239 356.00
90.2282 395.00
90.5324 373.00
90.8367 321.00
91.1409 284.00
91.4452 319.00
91.7495 358.00
92.0537 342.00
92.358 394.00
92.6622 363.00
92.9665 302.00
93.2708 304.00
93.575 314.00
93.8793 324.00
94.1835 325.00
94.4878 397.00
94.7921 364.00
95.0963 362.00
95.4006 337.00
95.7048 427.00
96.0091 323.00
96.3134 271.00
96.6176 263.00
96.9219 308.00
97.2261 293.00
97.5304 319.00
97.8347 369.00
98.1389 322.00
98.4432 331.00
98.7474 364.00
99.0517 334.00
99.356 289.00
99.6602 301.00
99.9645 331.00
100.095 288.00