File: data/xrd_creation/results/NSC_6.xy
9.903433 3142.00
10.2077 2936.00
10.512 2786.00
10.8162 2758.00
11.1205 2635.00
11.4247 2577.00
11.729 2614.00
12.0333 2441.00
12.3375 2411.00
12.6418 2484.00
12.946 2328.00
13.2503 2305.00
13.5546 2263.00
13.8588 2399.00
14.1631 3652.00
14.4673 2327.00
14.7716 2271.00
15.0759 2165.00
15.3801 2171.00
15.6844 2174.00
15.9886 2254.00
16.2929 2132.00
16.5972 2151.00
16.9014 2158.00
17.2057 2203.00
17.5099 2131.00
17.8142 2130.00
18.1185 2090.00
18.4227 2089.00
18.727 2070.00
19.0312 2237.00
19.3355 2624.00
19.6398 7315.00
19.944 2882.00
20.2483 5460.00
20.5525 4081.00
20.8568 2244.00
21.1611 2055.00
21.4653 2027.00
21.7696 2033.00
22.0738 2080.00
22.3781 2046.00
22.6824 2121.00
22.9866 1999.00
23.2909 2890.00
23.5951 10850.00
23.8994 2257.00
24.2037 2443.00
24.5079 2258.00
24.8122 2151.00
25.1164 1923.00
25.4207 1828.00
25.725 1846.00
26.0292 1844.00
26.3335 1894.00
26.6378 1982.00
26.942 1813.00
27.2463 1757.00
27.5505 1838.00
27.8548 2055.00
28.1591 3049.00
28.4633 9157.00
28.7676 2265.00
29.0718 1822.00
29.3761 1732.00
29.6804 1712.00
29.9846 1675.00
30.2889 1754.00
30.5931 1849.00
30.8974 2117.00
31.2017 6848.00
31.5059 4955.00
31.8102 3839.00
32.1144 1864.00
32.4187 1729.00
32.723 1646.00
33.0272 2004.00
33.3315 1965.00
33.6357 1893.00
33.94 1754.00
34.2443 2149.00
34.5485 2161.00
34.8528 2255.00
35.157 3342.00
35.4613 5177.00
35.7656 2319.00
36.0698 1695.00
36.3741 1535.00
36.6783 1524.00
36.9826 1465.00
37.2869 1442.00
37.5911 1542.00
37.8954 1479.00
38.1996 1469.00
38.5039 1426.00
38.8082 1832.00
39.1124 1552.00
39.4167 1546.00
39.7209 1804.00
40.0252 1426.00
40.3295 1396.00
40.6337 1432.00
40.938 1991.00
41.2422 2288.00
41.5465 1905.00
41.8508 1582.00
42.155 1543.00
42.4593 1369.00
42.7635 1562.00
43.0678 2257.00
43.3721 1430.00
43.6763 1677.00
43.9806 1489.00
44.2849 1443.00
44.5891 1548.00
44.8934 2934.00
45.1976 1850.00
45.5019 1602.00
45.8062 2008.00
46.1104 2065.00
46.4147 1763.00
46.7189 1841.00
47.0232 1397.00
47.3275 1462.00
47.6317 1891.00
47.936 3849.00
48.2402 1839.00
48.5445 1767.00
48.8488 1512.00
49.153 1554.00
49.4573 2099.00
49.7615 1670.00
50.0658 1529.00
50.3701 2283.00
50.6743 1963.00
50.9786 2080.00
51.2828 3121.00
51.5871 2014.00
51.8914 1578.00
52.1956 1316.00
52.4999 1324.00
52.8041 1339.00
53.1084 1336.00
53.4127 1298.00
53.7169 1449.00
54.0212 1845.00
54.3254 2202.00
54.6297 1523.00
54.934 2044.00
55.2382 3176.00
55.5425 3155.00
55.8467 1884.00
56.151 1733.00
56.4553 1521.00
56.7595 1507.00
57.0638 1495.00
57.368 1535.00
57.6723 1548.00
57.9766 1684.00
58.2808 1859.00
58.5851 1652.00
58.8893 1483.00
59.1936 1359.00
59.4979 1489.00
59.8021 2386.00
60.1064 2112.00
60.4106 1573.00
60.7149 1851.00
61.0192 2266.00
61.3234 1642.00
61.6277 1568.00
61.932 1700.00
62.2362 1911.00
62.5405 1673.00
62.8447 1678.00
63.149 1966.00
63.4533 2022.00
63.7575 1832.00
64.0618 1407.00
64.366 1413.00
64.6703 1374.00
64.9745 1447.00
65.2788 1392.00
65.5831 1494.00
65.8873 1900.00
66.1916 1762.00
66.4959 1361.00
66.8001 1309.00
67.1044 1490.00
67.4086 1474.00
67.7129 1497.00
68.0172 1320.00
68.3214 1424.00
68.6257 1524.00
68.9299 1345.00
69.2342 1287.00
69.5385 1302.00
69.8427 1299.00
70.147 1198.00
70.4512 1320.00
70.7555 1594.00
71.0598 1687.00
71.364 1398.00
71.6683 1322.00
71.9725 1258.00
72.2768 1229.00
72.5811 1227.00
72.8853 1234.00
73.1896 1313.00
73.4938 1500.00
73.7981 1432.00
74.1024 1273.00
74.4066 1265.00
74.7109 1658.00
75.0151 1768.00
75.3194 1554.00
75.6237 1381.00
75.9279 1234.00
76.2322 1199.00
76.5364 1293.00
76.8407 1320.00
77.145 1329.00
77.4492 1241.00
77.7535 1235.00
78.0577 1340.00
78.362 1528.00
78.6663 1513.00
78.9705 1440.00
79.2748 1336.00
79.579 1298.00
79.8833 1225.00
80.1876 1244.00
80.4918 1301.00
80.7961 1399.00
81.1003 1257.00
81.4046 1207.00
81.7089 1198.00
82.0131 1170.00
82.3174 1253.00
82.6217 1302.00
82.9259 1350.00
83.2302 1539.00
83.5344 1434.00
83.8387 1300.00
84.143 1260.00
84.4472 1426.00
84.7515 1462.00
85.0557 1379.00
85.36 1316.00
85.6643 1283.00
85.9685 1325.00
86.2728 1303.00
86.577 1321.00
86.8813 1161.00
87.1856 1267.00
87.4898 1248.00
87.7941 1358.00
88.0983 1386.00
88.4026 1379.00
88.7069 1418.00
89.0111 1577.00
89.3154 1565.00
89.6196 1400.00
89.9239 1341.00
90.2282 1220.00
90.5324 1190.00
90.8367 1205.00
91.1409 1377.00
91.4452 1303.00
91.7495 1207.00
92.0537 1277.00
92.358 1247.00
92.6622 1250.00
92.9665 1193.00
93.2708 1195.00
93.575 1389.00
93.8793 1380.00
94.1835 1281.00
94.4878 1337.00
94.7921 1400.00
95.0963 1350.00
95.4006 1338.00
95.7048 1387.00
96.0091 1402.00
96.3134 1381.00
96.6176 1329.00
96.9219 1315.00
97.2261 1258.00
97.5304 1200.00
97.8347 1240.00
98.1389 1148.00
98.4432 1366.00
98.7474 1419.00
99.0517 1372.00
99.356 1483.00
99.6602 1404.00
99.9645 1330.00
100.095 1442.00