File: data/xrd_creation/results/NSC_32.xy
9.903433 2998.00
10.2077 2900.00
10.512 2691.00
10.8162 2711.00
11.1205 2698.00
11.4247 2558.00
11.729 2601.00
12.0333 2683.00
12.3375 2443.00
12.6418 2371.00
12.946 2352.00
13.2503 2261.00
13.5546 2558.00
13.8588 2587.00
14.1631 2295.00
14.4673 2371.00
14.7716 2404.00
15.0759 2185.00
15.3801 2214.00
15.6844 2176.00
15.9886 2095.00
16.2929 2091.00
16.5972 2202.00
16.9014 2254.00
17.2057 2110.00
17.5099 2192.00
17.8142 2080.00
18.1185 1974.00
18.4227 2095.00
18.727 2039.00
19.0312 2498.00
19.3355 7549.00
19.6398 4650.00
19.944 1969.00
20.2483 1814.00
20.5525 1931.00
20.8568 1935.00
21.1611 1878.00
21.4653 1946.00
21.7696 1918.00
22.0738 1853.00
22.3781 2184.00
22.6824 3141.00
22.9866 2276.00
23.2909 1843.00
23.5951 1852.00
23.8994 2015.00
24.2037 2279.00
24.5079 2018.00
24.8122 1782.00
25.1164 1738.00
25.4207 1674.00
25.725 1654.00
26.0292 1621.00
26.3335 1686.00
26.6378 2025.00
26.942 2065.00
27.2463 1973.00
27.5505 4007.00
27.8548 2148.00
28.1591 4300.00
28.4633 2407.00
28.7676 1711.00
29.0718 1614.00
29.3761 1651.00
29.6804 1776.00
29.9846 2866.00
30.2889 1788.00
30.5931 1947.00
30.8974 5318.00
31.2017 4850.00
31.5059 3677.00
31.8102 1806.00
32.1144 1489.00
32.4187 1651.00
32.723 1544.00
33.0272 1755.00
33.3315 1738.00
33.6357 3013.00
33.94 7476.00
34.2443 3855.00
34.5485 1983.00
34.8528 2069.00
35.157 1765.00
35.4613 1684.00
35.7656 1518.00
36.0698 1352.00
36.3741 1309.00
36.6783 1311.00
36.9826 1394.00
37.2869 1291.00
37.5911 1316.00
37.8954 1465.00
38.1996 1329.00
38.5039 1317.00
38.8082 1415.00
39.1124 1294.00
39.4167 1525.00
39.7209 1623.00
40.0252 1320.00
40.3295 1279.00
40.6337 1559.00
40.938 1780.00
41.2422 2288.00
41.5465 1609.00
41.8508 1537.00
42.155 1480.00
42.4593 1364.00
42.7635 1396.00
43.0678 1283.00
43.3721 1330.00
43.6763 1317.00
43.9806 1573.00
44.2849 2861.00
44.5891 2013.00
44.8934 1478.00
45.1976 1375.00
45.5019 1461.00
45.8062 1320.00
46.1104 1511.00
46.4147 2996.00
46.7189 2946.00
47.0232 1414.00
47.3275 1225.00
47.6317 1149.00
47.936 1210.00
48.2402 1252.00
48.5445 1304.00
48.8488 1586.00
49.153 1879.00
49.4573 2429.00
49.7615 1375.00
50.0658 1771.00
50.3701 2353.00
50.6743 1789.00
50.9786 1936.00
51.2828 2154.00
51.5871 1367.00
51.8914 1312.00
52.1956 1229.00
52.4999 1432.00
52.8041 3196.00
53.1084 1693.00
53.4127 1247.00
53.7169 1240.00
54.0212 1445.00
54.3254 1392.00
54.6297 1190.00
54.934 1116.00
55.2382 1501.00
55.5425 1551.00
55.8467 1349.00
56.151 1309.00
56.4553 1204.00
56.7595 1268.00
57.0638 1547.00
57.368 1427.00
57.6723 1220.00
57.9766 1291.00
58.2808 1383.00
58.5851 2033.00
58.8893 2924.00
59.1936 1670.00
59.4979 1372.00
59.8021 1416.00
60.1064 1505.00
60.4106 1913.00
60.7149 2088.00
61.0192 1774.00
61.3234 1465.00
61.6277 1212.00
61.932 1421.00
62.2362 1363.00
62.5405 1458.00
62.8447 1645.00
63.149 1499.00
63.4533 1003.00
63.7575 1125.00
64.0618 1332.00
64.366 1269.00
64.6703 1167.00
64.9745 1040.00
65.2788 1102.00
65.5831 1582.00
65.8873 1465.00
66.1916 1540.00
66.4959 1484.00
66.8001 1327.00
67.1044 1067.00
67.4086 1005.00
67.7129 1571.00
68.0172 1182.00
68.3214 1113.00
68.6257 1089.00
68.9299 1166.00
69.2342 1202.00
69.5385 1116.00
69.8427 966.00
70.147 949.00
70.4512 1027.00
70.7555 1081.00
71.0598 1921.00
71.364 1635.00
71.6683 1101.00
71.9725 1159.00
72.2768 1110.00
72.5811 1157.00
72.8853 1136.00
73.1896 1138.00
73.4938 1272.00
73.7981 1142.00
74.1024 961.00
74.4066 1235.00
74.7109 1281.00
75.0151 1062.00
75.3194 1134.00
75.6237 1051.00
75.9279 953.00
76.2322 1046.00
76.5364 1196.00
76.8407 1142.00
77.145 1087.00
77.4492 1041.00
77.7535 1021.00
78.0577 940.00
78.362 902.00
78.6663 902.00
78.9705 1036.00
79.2748 1082.00
79.579 1491.00
79.8833 1268.00
80.1876 1248.00
80.4918 975.00
80.7961 984.00
81.1003 1133.00
81.4046 1221.00
81.7089 1083.00
82.0131 1077.00
82.3174 1008.00
82.6217 1027.00
82.9259 1133.00
83.2302 1018.00
83.5344 1059.00
83.8387 1002.00
84.143 1088.00
84.4472 1018.00
84.7515 926.00
85.0557 955.00
85.36 923.00
85.6643 951.00
85.9685 1044.00
86.2728 1288.00
86.577 1176.00
86.8813 1063.00
87.1856 1072.00
87.4898 1120.00
87.7941 1108.00
88.0983 1093.00
88.4026 1050.00
88.7069 1056.00
89.0111 1069.00
89.3154 1203.00
89.6196 1198.00
89.9239 1088.00
90.2282 1040.00
90.5324 1014.00
90.8367 1115.00
91.1409 1075.00
91.4452 963.00
91.7495 987.00
92.0537 942.00
92.358 951.00
92.6622 1103.00
92.9665 1199.00
93.2708 1118.00
93.575 992.00
93.8793 1030.00
94.1835 1117.00
94.4878 1046.00
94.7921 984.00
95.0963 1061.00
95.4006 1003.00
95.7048 1058.00
96.0091 956.00
96.3134 984.00
96.6176 1065.00
96.9219 1016.00
97.2261 895.00
97.5304 944.00
97.8347 958.00
98.1389 1003.00
98.4432 1061.00
98.7474 1072.00
99.0517 1317.00
99.356 1271.00
99.6602 1121.00
99.9645 1002.00
100.095 1045.00