File: data/xrd_creation/results/NSC_92.xy
9.903433 2860.00
10.2077 2643.00
10.512 2690.00
10.8162 2485.00
11.1205 2392.00
11.4247 2303.00
11.729 2273.00
12.0333 2159.00
12.3375 2058.00
12.6418 2078.00
12.946 1950.00
13.2503 1885.00
13.5546 1880.00
13.8588 1827.00
14.1631 2333.00
14.4673 2005.00
14.7716 1711.00
15.0759 1734.00
15.3801 1662.00
15.6844 1498.00
15.9886 1603.00
16.2929 1570.00
16.5972 1578.00
16.9014 1530.00
17.2057 1480.00
17.5099 1495.00
17.8142 1412.00
18.1185 1409.00
18.4227 1334.00
18.727 1316.00
19.0312 1387.00
19.3355 1482.00
19.6398 3018.00
19.944 2683.00
20.2483 1503.00
20.5525 2015.00
20.8568 7311.00
21.1611 1365.00
21.4653 1251.00
21.7696 1260.00
22.0738 1132.00
22.3781 1088.00
22.6824 1201.00
22.9866 1165.00
23.2909 1191.00
23.5951 1249.00
23.8994 3354.00
24.2037 1405.00
24.5079 1051.00
24.8122 950.00
25.1164 956.00
25.4207 905.00
25.725 924.00
26.0292 911.00
26.3335 1151.00
26.6378 1993.00
26.942 933.00
27.2463 770.00
27.5505 849.00
27.8548 836.00
28.1591 883.00
28.4633 932.00
28.7676 2125.00
29.0718 1699.00
29.3761 852.00
29.6804 768.00
29.9846 786.00
30.2889 765.00
30.5931 744.00
30.8974 768.00
31.2017 861.00
31.5059 1318.00
31.8102 5988.00
32.1144 1001.00
32.4187 1022.00
32.723 678.00
33.0272 731.00
33.3315 638.00
33.6357 880.00
33.94 1733.00
34.2443 687.00
34.5485 631.00
34.8528 616.00
35.157 634.00
35.4613 631.00
35.7656 1199.00
36.0698 1330.00
36.3741 1548.00
36.6783 1470.00
36.9826 682.00
37.2869 553.00
37.5911 594.00
37.8954 956.00
38.1996 536.00
38.5039 747.00
38.8082 520.00
39.1124 523.00
39.4167 474.00
39.7209 487.00
40.0252 507.00
40.3295 964.00
40.6337 451.00
40.938 467.00
41.2422 460.00
41.5465 507.00
41.8508 1106.00
42.155 561.00
42.4593 1044.00
42.7635 550.00
43.0678 471.00
43.3721 443.00
43.6763 548.00
43.9806 1618.00
44.2849 600.00
44.5891 406.00
44.8934 497.00
45.1976 497.00
45.5019 491.00
45.8062 1665.00
46.1104 492.00
46.4147 415.00
46.7189 477.00
47.0232 663.00
47.3275 2134.00
47.6317 508.00
47.936 424.00
48.2402 414.00
48.5445 500.00
48.8488 570.00
49.153 2488.00
49.4573 598.00
49.7615 419.00
50.0658 585.00
50.3701 446.00
50.6743 371.00
50.9786 387.00
51.2828 383.00
51.5871 673.00
51.8914 1250.00
52.1956 2466.00
52.4999 601.00
52.8041 360.00
53.1084 550.00
53.4127 348.00
53.7169 350.00
54.0212 365.00
54.3254 417.00
54.6297 503.00
54.934 472.00
55.2382 397.00
55.5425 891.00
55.8467 390.00
56.151 354.00
56.4553 443.00
56.7595 1405.00
57.0638 1112.00
57.368 1345.00
57.6723 500.00
57.9766 436.00
58.2808 408.00
58.5851 641.00
58.8893 608.00
59.1936 355.00
59.4979 336.00
59.8021 378.00
60.1064 500.00
60.4106 342.00
60.7149 359.00
61.0192 620.00
61.3234 1128.00
61.6277 396.00
61.932 588.00
62.2362 489.00
62.5405 540.00
62.8447 1613.00
63.149 901.00
63.4533 426.00
63.7575 309.00
64.0618 391.00
64.366 481.00
64.6703 594.00
64.9745 428.00
65.2788 698.00
65.5831 842.00
65.8873 1081.00
66.1916 512.00
66.4959 344.00
66.8001 340.00
67.1044 926.00
67.4086 585.00
67.7129 374.00
68.0172 313.00
68.3214 268.00
68.6257 278.00
68.9299 292.00
69.2342 426.00
69.5385 910.00
69.8427 334.00
70.147 309.00
70.4512 301.00
70.7555 338.00
71.0598 458.00
71.364 433.00
71.6683 375.00
71.9725 299.00
72.2768 291.00
72.5811 308.00
72.8853 279.00
73.1896 402.00
73.4938 709.00
73.7981 355.00
74.1024 313.00
74.4066 277.00
74.7109 309.00
75.0151 566.00
75.3194 537.00
75.6237 393.00
75.9279 417.00
76.2322 409.00
76.5364 289.00
76.8407 267.00
77.145 288.00
77.4492 411.00
77.7535 518.00
78.0577 361.00
78.362 247.00
78.6663 470.00
78.9705 439.00
79.2748 323.00
79.579 311.00
79.8833 323.00
80.1876 299.00
80.4918 258.00
80.7961 286.00
81.1003 647.00
81.4046 662.00
81.7089 432.00
82.0131 273.00
82.3174 293.00
82.6217 586.00
82.9259 563.00
83.2302 322.00
83.5344 317.00
83.8387 317.00
84.143 272.00
84.4472 256.00
84.7515 274.00
85.0557 298.00
85.36 271.00
85.6643 320.00
85.9685 310.00
86.2728 489.00
86.577 464.00
86.8813 306.00
87.1856 417.00
87.4898 681.00
87.7941 588.00
88.0983 343.00
88.4026 277.00
88.7069 339.00
89.0111 319.00
89.3154 246.00
89.6196 329.00
89.9239 343.00
90.2282 353.00
90.5324 339.00
90.8367 499.00
91.1409 412.00
91.4452 368.00
91.7495 330.00
92.0537 294.00
92.358 553.00
92.6622 511.00
92.9665 323.00
93.2708 373.00
93.575 304.00
93.8793 279.00
94.1835 430.00
94.4878 335.00
94.7921 334.00
95.0963 445.00
95.4006 400.00
95.7048 344.00
96.0091 341.00
96.3134 363.00
96.6176 315.00
96.9219 243.00
97.2261 274.00
97.5304 352.00
97.8347 616.00
98.1389 438.00
98.4432 342.00
98.7474 241.00
99.0517 263.00
99.356 251.00
99.6602 305.00
99.9645 598.00
100.095 550.00