File: data/xrd_creation/results/NSC_151.xy
9.903433 2589.00
10.2077 2434.00
10.512 2281.00
10.8162 2188.00
11.1205 2126.00
11.4247 2090.00
11.729 1900.00
12.0333 1845.00
12.3375 1748.00
12.6418 1743.00
12.946 1679.00
13.2503 1709.00
13.5546 1574.00
13.8588 1444.00
14.1631 1516.00
14.4673 1393.00
14.7716 1446.00
15.0759 1313.00
15.3801 1253.00
15.6844 1251.00
15.9886 1303.00
16.2929 1316.00
16.5972 1219.00
16.9014 1233.00
17.2057 1194.00
17.5099 1197.00
17.8142 1148.00
18.1185 1021.00
18.4227 1095.00
18.727 1076.00
19.0312 1022.00
19.3355 923.00
19.6398 944.00
19.944 1026.00
20.2483 1166.00
20.5525 947.00
20.8568 843.00
21.1611 860.00
21.4653 861.00
21.7696 841.00
22.0738 787.00
22.3781 837.00
22.6824 827.00
22.9866 813.00
23.2909 814.00
23.5951 706.00
23.8994 713.00
24.2037 700.00
24.5079 703.00
24.8122 641.00
25.1164 697.00
25.4207 659.00
25.725 640.00
26.0292 671.00
26.3335 686.00
26.6378 577.00
26.942 637.00
27.2463 644.00
27.5505 633.00
27.8548 626.00
28.1591 634.00
28.4633 595.00
28.7676 584.00
29.0718 581.00
29.3761 560.00
29.6804 551.00
29.9846 568.00
30.2889 555.00
30.5931 542.00
30.8974 513.00
31.2017 518.00
31.5059 511.00
31.8102 483.00
32.1144 473.00
32.4187 599.00
32.723 512.00
33.0272 619.00
33.3315 1021.00
33.6357 516.00
33.94 449.00
34.2443 499.00
34.5485 483.00
34.8528 417.00
35.157 447.00
35.4613 413.00
35.7656 420.00
36.0698 479.00
36.3741 384.00
36.6783 423.00
36.9826 390.00
37.2869 425.00
37.5911 403.00
37.8954 379.00
38.1996 414.00
38.5039 397.00
38.8082 355.00
39.1124 385.00
39.4167 401.00
39.7209 401.00
40.0252 349.00
40.3295 331.00
40.6337 327.00
40.938 341.00
41.2422 369.00
41.5465 306.00
41.8508 297.00
42.155 330.00
42.4593 320.00
42.7635 311.00
43.0678 346.00
43.3721 305.00
43.6763 324.00
43.9806 366.00
44.2849 290.00
44.5891 295.00
44.8934 250.00
45.1976 294.00
45.5019 297.00
45.8062 310.00
46.1104 292.00
46.4147 274.00
46.7189 286.00
47.0232 243.00
47.3275 256.00
47.6317 372.00
47.936 341.00
48.2402 316.00
48.5445 281.00
48.8488 287.00
49.153 242.00
49.4573 279.00
49.7615 280.00
50.0658 292.00
50.3701 257.00
50.6743 281.00
50.9786 244.00
51.2828 260.00
51.5871 246.00
51.8914 257.00
52.1956 275.00
52.4999 281.00
52.8041 239.00
53.1084 245.00
53.4127 246.00
53.7169 285.00
54.0212 261.00
54.3254 211.00
54.6297 210.00
54.934 250.00
55.2382 234.00
55.5425 246.00
55.8467 236.00
56.151 286.00
56.4553 240.00
56.7595 228.00
57.0638 229.00
57.368 249.00
57.6723 237.00
57.9766 225.00
58.2808 218.00
58.5851 202.00
58.8893 241.00
59.1936 233.00
59.4979 297.00
59.8021 232.00
60.1064 197.00
60.4106 193.00
60.7149 197.00
61.0192 200.00
61.3234 208.00
61.6277 189.00
61.932 186.00
62.2362 203.00
62.5405 215.00
62.8447 202.00
63.149 190.00
63.4533 204.00
63.7575 197.00
64.0618 211.00
64.366 205.00
64.6703 167.00
64.9745 188.00
65.2788 207.00
65.5831 178.00
65.8873 197.00
66.1916 212.00
66.4959 203.00
66.8001 204.00
67.1044 190.00
67.4086 200.00
67.7129 205.00
68.0172 201.00
68.3214 207.00
68.6257 198.00
68.9299 222.00
69.2342 198.00
69.5385 213.00
69.8427 187.00
70.147 196.00
70.4512 184.00
70.7555 206.00
71.0598 164.00
71.364 193.00
71.6683 190.00
71.9725 206.00
72.2768 184.00
72.5811 201.00
72.8853 187.00
73.1896 205.00
73.4938 186.00
73.7981 199.00
74.1024 186.00
74.4066 213.00
74.7109 214.00
75.0151 210.00
75.3194 198.00
75.6237 211.00
75.9279 206.00
76.2322 190.00
76.5364 205.00
76.8407 208.00
77.145 190.00
77.4492 197.00
77.7535 195.00
78.0577 228.00
78.362 224.00
78.6663 221.00
78.9705 227.00
79.2748 247.00
79.579 259.00
79.8833 256.00
80.1876 219.00
80.4918 222.00
80.7961 219.00
81.1003 221.00
81.4046 200.00
81.7089 226.00
82.0131 225.00
82.3174 186.00
82.6217 234.00
82.9259 242.00
83.2302 229.00
83.5344 217.00
83.8387 205.00
84.143 218.00
84.4472 221.00
84.7515 200.00
85.0557 201.00
85.36 192.00
85.6643 195.00
85.9685 200.00
86.2728 210.00
86.577 191.00
86.8813 226.00
87.1856 185.00
87.4898 195.00
87.7941 169.00
88.0983 178.00
88.4026 182.00
88.7069 192.00
89.0111 175.00
89.3154 214.00
89.6196 189.00
89.9239 190.00
90.2282 169.00
90.5324 173.00
90.8367 172.00
91.1409 180.00
91.4452 189.00
91.7495 200.00
92.0537 198.00
92.358 180.00
92.6622 186.00
92.9665 192.00
93.2708 169.00
93.575 184.00
93.8793 181.00
94.1835 174.00
94.4878 192.00
94.7921 175.00
95.0963 184.00
95.4006 176.00
95.7048 194.00
96.0091 187.00
96.3134 185.00
96.6176 167.00
96.9219 185.00
97.2261 183.00
97.5304 156.00
97.8347 186.00
98.1389 201.00
98.4432 194.00
98.7474 159.00
99.0517 192.00
99.356 161.00
99.6602 192.00
99.9645 173.00
100.095 164.00