File: data/xrd_creation/results/NSC_132.xy
9.903433 2924.00
10.2077 2787.00
10.512 2678.00
10.8162 2577.00
11.1205 2627.00
11.4247 2453.00
11.729 2501.00
12.0333 2427.00
12.3375 2361.00
12.6418 2236.00
12.946 2201.00
13.2503 2188.00
13.5546 2264.00
13.8588 2288.00
14.1631 2623.00
14.4673 2405.00
14.7716 2102.00
15.0759 2297.00
15.3801 2574.00
15.6844 2059.00
15.9886 2038.00
16.2929 1963.00
16.5972 1990.00
16.9014 1978.00
17.2057 1938.00
17.5099 1922.00
17.8142 1974.00
18.1185 1902.00
18.4227 2065.00
18.727 2660.00
19.0312 5891.00
19.3355 2108.00
19.6398 3578.00
19.944 5238.00
20.2483 2592.00
20.5525 13510.00
20.8568 3370.00
21.1611 2137.00
21.4653 2165.00
21.7696 6744.00
22.0738 4948.00
22.3781 1998.00
22.6824 1762.00
22.9866 1727.00
23.2909 1856.00
23.5951 3007.00
23.8994 3280.00
24.2037 1940.00
24.5079 4386.00
24.8122 2071.00
25.1164 2150.00
25.4207 5164.00
25.725 1665.00
26.0292 1686.00
26.3335 1717.00
26.6378 1857.00
26.942 2256.00
27.2463 1584.00
27.5505 1521.00
27.8548 1590.00
28.1591 1676.00
28.4633 3462.00
28.7676 2528.00
29.0718 1575.00
29.3761 1531.00
29.6804 1564.00
29.9846 1526.00
30.2889 2044.00
30.5931 3855.00
30.8974 2919.00
31.2017 1936.00
31.5059 9644.00
31.8102 2619.00
32.1144 1589.00
32.4187 1479.00
32.723 1651.00
33.0272 1643.00
33.3315 2604.00
33.6357 2683.00
33.94 2250.00
34.2443 1906.00
34.5485 1412.00
34.8528 1476.00
35.157 1873.00
35.4613 3086.00
35.7656 5689.00
36.0698 3108.00
36.3741 3725.00
36.6783 1812.00
36.9826 1403.00
37.2869 1408.00
37.5911 2142.00
37.8954 1840.00
38.1996 2609.00
38.5039 1767.00
38.8082 1459.00
39.1124 1393.00
39.4167 1308.00
39.7209 1625.00
40.0252 1953.00
40.3295 1272.00
40.6337 1493.00
40.938 1260.00
41.2422 1400.00
41.5465 2032.00
41.8508 2088.00
42.155 1481.00
42.4593 1489.00
42.7635 1334.00
43.0678 1335.00
43.3721 2386.00
43.6763 2316.00
43.9806 1655.00
44.2849 1995.00
44.5891 1401.00
44.8934 1367.00
45.1976 3131.00
45.5019 1547.00
45.8062 1508.00
46.1104 1670.00
46.4147 2269.00
46.7189 1465.00
47.0232 2227.00
47.3275 1352.00
47.6317 1341.00
47.936 1534.00
48.2402 4378.00
48.5445 3085.00
48.8488 1574.00
49.153 1345.00
49.4573 1459.00
49.7615 4395.00
50.0658 1593.00
50.3701 1274.00
50.6743 1345.00
50.9786 1538.00
51.2828 1486.00
51.5871 3338.00
51.8914 2402.00
52.1956 1470.00
52.4999 1334.00
52.8041 1379.00
53.1084 1459.00
53.4127 1296.00
53.7169 1247.00
54.0212 1311.00
54.3254 1433.00
54.6297 2042.00
54.934 3452.00
55.2382 1779.00
55.5425 2427.00
55.8467 2920.00
56.151 1520.00
56.4553 1258.00
56.7595 1242.00
57.0638 1311.00
57.368 1331.00
57.6723 1415.00
57.9766 1331.00
58.2808 1578.00
58.5851 3578.00
58.8893 1651.00
59.1936 1389.00
59.4979 1425.00
59.8021 1409.00
60.1064 2137.00
60.4106 2165.00
60.7149 1416.00
61.0192 1301.00
61.3234 2372.00
61.6277 1758.00
61.932 1508.00
62.2362 1350.00
62.5405 1773.00
62.8447 1673.00
63.149 1737.00
63.4533 1840.00
63.7575 1781.00
64.0618 1833.00
64.366 2028.00
64.6703 1517.00
64.9745 1222.00
65.2788 1496.00
65.5831 1628.00
65.8873 1297.00
66.1916 1477.00
66.4959 2298.00
66.8001 1405.00
67.1044 1170.00
67.4086 1688.00
67.7129 2050.00
68.0172 1648.00
68.3214 1486.00
68.6257 2072.00
68.9299 1479.00
69.2342 1531.00
69.5385 1399.00
69.8427 1240.00
70.147 1147.00
70.4512 1176.00
70.7555 1488.00
71.0598 1287.00
71.364 1696.00
71.6683 1379.00
71.9725 1185.00
72.2768 1160.00
72.5811 1181.00
72.8853 1475.00
73.1896 1281.00
73.4938 1300.00
73.7981 1184.00
74.1024 1501.00
74.4066 1294.00
74.7109 1280.00
75.0151 1384.00
75.3194 1568.00
75.6237 1489.00
75.9279 1633.00
76.2322 1381.00
76.5364 1208.00
76.8407 1167.00
77.145 1438.00
77.4492 1214.00
77.7535 1288.00
78.0577 1321.00
78.362 1075.00
78.6663 1248.00
78.9705 1482.00
79.2748 1664.00
79.579 1446.00
79.8833 1297.00
80.1876 1291.00
80.4918 1189.00
80.7961 1139.00
81.1003 1315.00
81.4046 1410.00
81.7089 1322.00
82.0131 1234.00
82.3174 1275.00
82.6217 1237.00
82.9259 1173.00
83.2302 1159.00
83.5344 1233.00
83.8387 1434.00
84.143 1558.00
84.4472 1392.00
84.7515 1204.00
85.0557 1507.00
85.36 1424.00
85.6643 1259.00
85.9685 1229.00
86.2728 1326.00
86.577 1313.00
86.8813 1302.00
87.1856 1317.00
87.4898 1336.00
87.7941 1300.00
88.0983 1162.00
88.4026 1298.00
88.7069 1240.00
89.0111 1251.00
89.3154 1418.00
89.6196 1371.00
89.9239 1514.00
90.2282 1392.00
90.5324 1338.00
90.8367 1270.00
91.1409 1219.00
91.4452 1297.00
91.7495 1355.00
92.0537 1608.00
92.358 1552.00
92.6622 1341.00
92.9665 1415.00
93.2708 1265.00
93.575 1145.00
93.8793 1211.00
94.1835 1287.00
94.4878 1295.00
94.7921 1206.00
95.0963 1238.00
95.4006 1435.00
95.7048 1375.00
96.0091 1251.00
96.3134 1280.00
96.6176 1312.00
96.9219 1386.00
97.2261 1312.00
97.5304 1153.00
97.8347 1219.00
98.1389 1199.00
98.4432 1182.00
98.7474 1190.00
99.0517 1222.00
99.356 1221.00
99.6602 1347.00
99.9645 1286.00
100.095 1305.00