File: data/xrd_creation/results/NSC_22.xy
9.903433 3077.00
10.2077 2995.00
10.512 2925.00
10.8162 2706.00
11.1205 2728.00
11.4247 2679.00
11.729 2543.00
12.0333 2584.00
12.3375 2902.00
12.6418 2527.00
12.946 2288.00
13.2503 2346.00
13.5546 2379.00
13.8588 2444.00
14.1631 3875.00
14.4673 2335.00
14.7716 2318.00
15.0759 2213.00
15.3801 2200.00
15.6844 2276.00
15.9886 2213.00
16.2929 2232.00
16.5972 2112.00
16.9014 2097.00
17.2057 2200.00
17.5099 2158.00
17.8142 2180.00
18.1185 2070.00
18.4227 2186.00
18.727 1990.00
19.0312 2154.00
19.3355 2440.00
19.6398 8384.00
19.944 2498.00
20.2483 5282.00
20.5525 3846.00
20.8568 2140.00
21.1611 2143.00
21.4653 2112.00
21.7696 2224.00
22.0738 2524.00
22.3781 2344.00
22.6824 2088.00
22.9866 2574.00
23.2909 2956.00
23.5951 11675.00
23.8994 2224.00
24.2037 2327.00
24.5079 2149.00
24.8122 2127.00
25.1164 1829.00
25.4207 1806.00
25.725 1803.00
26.0292 1692.00
26.3335 1702.00
26.6378 1714.00
26.942 1836.00
27.2463 1715.00
27.5505 1828.00
27.8548 1838.00
28.1591 2931.00
28.4633 9006.00
28.7676 2003.00
29.0718 1697.00
29.3761 1792.00
29.6804 1696.00
29.9846 1915.00
30.2889 1808.00
30.5931 1989.00
30.8974 2314.00
31.2017 7653.00
31.5059 5180.00
31.8102 3255.00
32.1144 1797.00
32.4187 1734.00
32.723 1589.00
33.0272 1604.00
33.3315 1628.00
33.6357 1679.00
33.94 1788.00
34.2443 3320.00
34.5485 1982.00
34.8528 2032.00
35.157 3639.00
35.4613 5337.00
35.7656 2102.00
36.0698 1739.00
36.3741 1645.00
36.6783 1405.00
36.9826 1444.00
37.2869 1435.00
37.5911 1421.00
37.8954 1473.00
38.1996 1413.00
38.5039 1426.00
38.8082 1594.00
39.1124 1388.00
39.4167 1497.00
39.7209 1942.00
40.0252 1554.00
40.3295 1429.00
40.6337 1464.00
40.938 1885.00
41.2422 2206.00
41.5465 2065.00
41.8508 1618.00
42.155 1581.00
42.4593 1479.00
42.7635 1578.00
43.0678 2456.00
43.3721 1466.00
43.6763 1493.00
43.9806 1466.00
44.2849 1370.00
44.5891 1556.00
44.8934 3349.00
45.1976 1816.00
45.5019 1582.00
45.8062 2084.00
46.1104 2105.00
46.4147 1741.00
46.7189 2152.00
47.0232 1793.00
47.3275 1504.00
47.6317 1805.00
47.936 4091.00
48.2402 1791.00
48.5445 1773.00
48.8488 1530.00
49.153 1490.00
49.4573 1971.00
49.7615 1443.00
50.0658 1515.00
50.3701 2293.00
50.6743 1788.00
50.9786 1910.00
51.2828 3353.00
51.5871 1960.00
51.8914 1589.00
52.1956 1340.00
52.4999 1407.00
52.8041 1505.00
53.1084 1449.00
53.4127 1498.00
53.7169 1405.00
54.0212 1735.00
54.3254 2287.00
54.6297 1591.00
54.934 2105.00
55.2382 3231.00
55.5425 3130.00
55.8467 1748.00
56.151 1673.00
56.4553 1435.00
56.7595 1572.00
57.0638 1372.00
57.368 1533.00
57.6723 1494.00
57.9766 1677.00
58.2808 1965.00
58.5851 1756.00
58.8893 1449.00
59.1936 1563.00
59.4979 1602.00
59.8021 2555.00
60.1064 2040.00
60.4106 1540.00
60.7149 1780.00
61.0192 2522.00
61.3234 1614.00
61.6277 1578.00
61.932 1677.00
62.2362 2020.00
62.5405 1655.00
62.8447 1526.00
63.149 1856.00
63.4533 1920.00
63.7575 1844.00
64.0618 1396.00
64.366 1370.00
64.6703 1353.00
64.9745 1483.00
65.2788 1431.00
65.5831 1557.00
65.8873 1808.00
66.1916 1796.00
66.4959 1302.00
66.8001 1351.00
67.1044 1587.00
67.4086 1510.00
67.7129 1545.00
68.0172 1314.00
68.3214 1297.00
68.6257 1469.00
68.9299 1450.00
69.2342 1331.00
69.5385 1260.00
69.8427 1241.00
70.147 1296.00
70.4512 1266.00
70.7555 1682.00
71.0598 1695.00
71.364 1429.00
71.6683 1346.00
71.9725 1332.00
72.2768 1356.00
72.5811 1254.00
72.8853 1228.00
73.1896 1353.00
73.4938 1613.00
73.7981 1422.00
74.1024 1302.00
74.4066 1302.00
74.7109 1737.00
75.0151 1681.00
75.3194 1629.00
75.6237 1401.00
75.9279 1262.00
76.2322 1261.00
76.5364 1318.00
76.8407 1301.00
77.145 1334.00
77.4492 1307.00
77.7535 1261.00
78.0577 1348.00
78.362 1539.00
78.6663 1565.00
78.9705 1380.00
79.2748 1341.00
79.579 1266.00
79.8833 1247.00
80.1876 1384.00
80.4918 1335.00
80.7961 1655.00
81.1003 1316.00
81.4046 1289.00
81.7089 1282.00
82.0131 1220.00
82.3174 1268.00
82.6217 1217.00
82.9259 1378.00
83.2302 1619.00
83.5344 1464.00
83.8387 1241.00
84.143 1310.00
84.4472 1485.00
84.7515 1452.00
85.0557 1326.00
85.36 1440.00
85.6643 1315.00
85.9685 1377.00
86.2728 1368.00
86.577 1307.00
86.8813 1259.00
87.1856 1303.00
87.4898 1250.00
87.7941 1310.00
88.0983 1359.00
88.4026 1293.00
88.7069 1354.00
89.0111 1491.00
89.3154 1554.00
89.6196 1329.00
89.9239 1325.00
90.2282 1219.00
90.5324 1269.00
90.8367 1218.00
91.1409 1310.00
91.4452 1442.00
91.7495 1283.00
92.0537 1187.00
92.358 1263.00
92.6622 1176.00
92.9665 1209.00
93.2708 1256.00
93.575 1359.00
93.8793 1311.00
94.1835 1200.00
94.4878 1402.00
94.7921 1540.00
95.0963 1397.00
95.4006 1326.00
95.7048 1414.00
96.0091 1420.00
96.3134 1418.00
96.6176 1387.00
96.9219 1378.00
97.2261 1350.00
97.5304 1236.00
97.8347 1198.00
98.1389 1247.00
98.4432 1257.00
98.7474 1332.00
99.0517 1315.00
99.356 1421.00
99.6602 1432.00
99.9645 1528.00
100.095 1469.00