File: data/xrd_creation/results/NSC_112.xy
9.903433 2768.00
10.2077 2832.00
10.512 2578.00
10.8162 2512.00
11.1205 2336.00
11.4247 2166.00
11.729 2143.00
12.0333 2002.00
12.3375 2067.00
12.6418 1962.00
12.946 1979.00
13.2503 1809.00
13.5546 1818.00
13.8588 1733.00
14.1631 2005.00
14.4673 2617.00
14.7716 1672.00
15.0759 1642.00
15.3801 1627.00
15.6844 1597.00
15.9886 1494.00
16.2929 1523.00
16.5972 1544.00
16.9014 1490.00
17.2057 1524.00
17.5099 1412.00
17.8142 1448.00
18.1185 1400.00
18.4227 1427.00
18.727 1375.00
19.0312 1311.00
19.3355 1424.00
19.6398 2239.00
19.944 5599.00
20.2483 1399.00
20.5525 1694.00
20.8568 5642.00
21.1611 2042.00
21.4653 1312.00
21.7696 1312.00
22.0738 1206.00
22.3781 1224.00
22.6824 1092.00
22.9866 1132.00
23.2909 1102.00
23.5951 1190.00
23.8994 2169.00
24.2037 3512.00
24.5079 1070.00
24.8122 1024.00
25.1164 1013.00
25.4207 956.00
25.725 1001.00
26.0292 956.00
26.3335 903.00
26.6378 916.00
26.942 850.00
27.2463 838.00
27.5505 881.00
27.8548 831.00
28.1591 878.00
28.4633 849.00
28.7676 1435.00
29.0718 4351.00
29.3761 914.00
29.6804 817.00
29.9846 803.00
30.2889 840.00
30.5931 750.00
30.8974 821.00
31.2017 824.00
31.5059 1042.00
31.8102 5831.00
32.1144 1473.00
32.4187 1294.00
32.723 725.00
33.0272 711.00
33.3315 675.00
33.6357 664.00
33.94 712.00
34.2443 925.00
34.5485 656.00
34.8528 646.00
35.157 581.00
35.4613 685.00
35.7656 841.00
36.0698 2630.00
36.3741 1090.00
36.6783 3361.00
36.9826 782.00
37.2869 644.00
37.5911 648.00
37.8954 581.00
38.1996 512.00
38.5039 588.00
38.8082 634.00
39.1124 555.00
39.4167 544.00
39.7209 536.00
40.0252 580.00
40.3295 907.00
40.6337 603.00
40.938 520.00
41.2422 536.00
41.5465 533.00
41.8508 743.00
42.155 963.00
42.4593 968.00
42.7635 683.00
43.0678 666.00
43.3721 503.00
43.6763 509.00
43.9806 869.00
44.2849 1057.00
44.5891 504.00
44.8934 460.00
45.1976 682.00
45.5019 535.00
45.8062 1149.00
46.1104 860.00
46.4147 462.00
46.7189 458.00
47.0232 527.00
47.3275 2154.00
47.6317 903.00
47.936 461.00
48.2402 474.00
48.5445 574.00
48.8488 586.00
49.153 1296.00
49.4573 1635.00
49.7615 515.00
50.0658 514.00
50.3701 617.00
50.6743 421.00
50.9786 429.00
51.2828 411.00
51.5871 382.00
51.8914 493.00
52.1956 1447.00
52.4999 1441.00
52.8041 504.00
53.1084 555.00
53.4127 457.00
53.7169 392.00
54.0212 381.00
54.3254 421.00
54.6297 400.00
54.934 380.00
55.2382 409.00
55.5425 782.00
55.8467 674.00
56.151 439.00
56.4553 453.00
56.7595 898.00
57.0638 1394.00
57.368 1959.00
57.6723 643.00
57.9766 407.00
58.2808 449.00
58.5851 496.00
58.8893 838.00
59.1936 448.00
59.4979 357.00
59.8021 387.00
60.1064 640.00
60.4106 382.00
60.7149 407.00
61.0192 492.00
61.3234 1532.00
61.6277 545.00
61.932 406.00
62.2362 485.00
62.5405 554.00
62.8447 1422.00
63.149 1542.00
63.4533 583.00
63.7575 379.00
64.0618 377.00
64.366 518.00
64.6703 431.00
64.9745 358.00
65.2788 518.00
65.5831 1046.00
65.8873 889.00
66.1916 626.00
66.4959 374.00
66.8001 388.00
67.1044 568.00
67.4086 892.00
67.7129 415.00
68.0172 403.00
68.3214 363.00
68.6257 325.00
68.9299 337.00
69.2342 358.00
69.5385 1083.00
69.8427 621.00
70.147 367.00
70.4512 317.00
70.7555 355.00
71.0598 485.00
71.364 500.00
71.6683 385.00
71.9725 414.00
72.2768 299.00
72.5811 324.00
72.8853 306.00
73.1896 362.00
73.4938 792.00
73.7981 549.00
74.1024 344.00
74.4066 332.00
74.7109 329.00
75.0151 396.00
75.3194 682.00
75.6237 441.00
75.9279 458.00
76.2322 499.00
76.5364 380.00
76.8407 345.00
77.145 321.00
77.4492 382.00
77.7535 645.00
78.0577 551.00
78.362 348.00
78.6663 295.00
78.9705 363.00
79.2748 373.00
79.579 361.00
79.8833 327.00
80.1876 342.00
80.4918 326.00
80.7961 355.00
81.1003 470.00
81.4046 678.00
81.7089 526.00
82.0131 359.00
82.3174 332.00
82.6217 451.00
82.9259 837.00
83.2302 467.00
83.5344 327.00
83.8387 298.00
84.143 289.00
84.4472 283.00
84.7515 273.00
85.0557 368.00
85.36 327.00
85.6643 281.00
85.9685 354.00
86.2728 458.00
86.577 576.00
86.8813 411.00
87.1856 367.00
87.4898 480.00
87.7941 742.00
88.0983 469.00
88.4026 311.00
88.7069 404.00
89.0111 361.00
89.3154 293.00
89.6196 289.00
89.9239 261.00
90.2282 324.00
90.5324 405.00
90.8367 374.00
91.1409 350.00
91.4452 341.00
91.7495 358.00
92.0537 303.00
92.358 460.00
92.6622 546.00
92.9665 506.00
93.2708 350.00
93.575 248.00
93.8793 351.00
94.1835 581.00
94.4878 456.00
94.7921 355.00
95.0963 468.00
95.4006 487.00
95.7048 419.00
96.0091 358.00
96.3134 411.00
96.6176 377.00
96.9219 313.00
97.2261 316.00
97.5304 411.00
97.8347 607.00
98.1389 543.00
98.4432 409.00
98.7474 338.00
99.0517 308.00
99.356 273.00
99.6602 306.00
99.9645 542.00
100.095 642.00