File: data/xrd_creation/results/NSC_157.xy
9.903433 3065.00
10.2077 2934.00
10.512 2810.00
10.8162 2707.00
11.1205 2694.00
11.4247 2565.00
11.729 2500.00
12.0333 2345.00
12.3375 2339.00
12.6418 2441.00
12.946 3203.00
13.2503 2367.00
13.5546 2263.00
13.8588 2227.00
14.1631 2217.00
14.4673 2137.00
14.7716 2088.00
15.0759 2072.00
15.3801 2138.00
15.6844 2158.00
15.9886 2270.00
16.2929 2418.00
16.5972 2479.00
16.9014 5162.00
17.2057 2426.00
17.5099 2541.00
17.8142 2005.00
18.1185 1941.00
18.4227 1988.00
18.727 2478.00
19.0312 2231.00
19.3355 2330.00
19.6398 4999.00
19.944 7509.00
20.2483 2070.00
20.5525 2583.00
20.8568 1909.00
21.1611 1816.00
21.4653 1780.00
21.7696 1806.00
22.0738 1733.00
22.3781 1678.00
22.6824 1844.00
22.9866 1798.00
23.2909 2130.00
23.5951 2216.00
23.8994 2007.00
24.2037 2073.00
24.5079 1578.00
24.8122 1681.00
25.1164 1744.00
25.4207 3007.00
25.725 1751.00
26.0292 1841.00
26.3335 1651.00
26.6378 1560.00
26.942 1528.00
27.2463 1736.00
27.5505 1563.00
27.8548 1560.00
28.1591 1764.00
28.4633 1580.00
28.7676 1951.00
29.0718 4924.00
29.3761 3414.00
29.6804 1772.00
29.9846 1588.00
30.2889 1827.00
30.5931 1530.00
30.8974 2471.00
31.2017 2375.00
31.5059 3027.00
31.8102 2294.00
32.1144 5500.00
32.4187 2033.00
32.723 2424.00
33.0272 3624.00
33.3315 1718.00
33.6357 3291.00
33.94 6867.00
34.2443 5117.00
34.5485 2568.00
34.8528 1697.00
35.157 1844.00
35.4613 1991.00
35.7656 1702.00
36.0698 1692.00
36.3741 1365.00
36.6783 1731.00
36.9826 1377.00
37.2869 1318.00
37.5911 1383.00
37.8954 1811.00
38.1996 1664.00
38.5039 1693.00
38.8082 2080.00
39.1124 1984.00
39.4167 1568.00
39.7209 1527.00
40.0252 2465.00
40.3295 1570.00
40.6337 1633.00
40.938 1222.00
41.2422 1123.00
41.5465 1233.00
41.8508 1429.00
42.155 1726.00
42.4593 1353.00
42.7635 1222.00
43.0678 1521.00
43.3721 1682.00
43.6763 1544.00
43.9806 1493.00
44.2849 1413.00
44.5891 1506.00
44.8934 1196.00
45.1976 1245.00
45.5019 1238.00
45.8062 1357.00
46.1104 1290.00
46.4147 1775.00
46.7189 3477.00
47.0232 2210.00
47.3275 1750.00
47.6317 1345.00
47.936 1347.00
48.2402 1657.00
48.5445 3872.00
48.8488 2459.00
49.153 1782.00
49.4573 2484.00
49.7615 1461.00
50.0658 1258.00
50.3701 1375.00
50.6743 1354.00
50.9786 1257.00
51.2828 1648.00
51.5871 1169.00
51.8914 1141.00
52.1956 1347.00
52.4999 1199.00
52.8041 1351.00
53.1084 1703.00
53.4127 1566.00
53.7169 1665.00
54.0212 1186.00
54.3254 1183.00
54.6297 1137.00
54.934 1116.00
55.2382 1138.00
55.5425 1099.00
55.8467 1316.00
56.151 1303.00
56.4553 1196.00
56.7595 1208.00
57.0638 1219.00
57.368 1333.00
57.6723 2146.00
57.9766 1526.00
58.2808 2397.00
58.5851 1300.00
58.8893 1780.00
59.1936 1313.00
59.4979 1174.00
59.8021 1126.00
60.1064 1175.00
60.4106 1437.00
60.7149 1740.00
61.0192 1331.00
61.3234 1815.00
61.6277 1420.00
61.932 1304.00
62.2362 1033.00
62.5405 1033.00
62.8447 972.00
63.149 1046.00
63.4533 1018.00
63.7575 1066.00
64.0618 1295.00
64.366 1234.00
64.6703 1224.00
64.9745 1408.00
65.2788 1240.00
65.5831 993.00
65.8873 1048.00
66.1916 873.00
66.4959 864.00
66.8001 1004.00
67.1044 1032.00
67.4086 1048.00
67.7129 847.00
68.0172 1046.00
68.3214 950.00
68.6257 899.00
68.9299 1100.00
69.2342 1067.00
69.5385 906.00
69.8427 1023.00
70.147 969.00
70.4512 876.00
70.7555 792.00
71.0598 1036.00
71.364 1044.00
71.6683 1097.00
71.9725 941.00
72.2768 1017.00
72.5811 1037.00
72.8853 900.00
73.1896 862.00
73.4938 912.00
73.7981 895.00
74.1024 794.00
74.4066 742.00
74.7109 798.00
75.0151 842.00
75.3194 840.00
75.6237 903.00
75.9279 797.00
76.2322 844.00
76.5364 837.00
76.8407 902.00
77.145 921.00
77.4492 919.00
77.7535 864.00
78.0577 980.00
78.362 1096.00
78.6663 1026.00
78.9705 917.00
79.2748 900.00
79.579 842.00
79.8833 766.00
80.1876 823.00
80.4918 788.00
80.7961 842.00
81.1003 1034.00
81.4046 942.00
81.7089 871.00
82.0131 788.00
82.3174 864.00
82.6217 899.00
82.9259 774.00
83.2302 937.00
83.5344 952.00
83.8387 901.00
84.143 828.00
84.4472 828.00
84.7515 867.00
85.0557 865.00
85.36 881.00
85.6643 825.00
85.9685 806.00
86.2728 860.00
86.577 856.00
86.8813 823.00
87.1856 925.00
87.4898 1084.00
87.7941 872.00
88.0983 753.00
88.4026 727.00
88.7069 726.00
89.0111 754.00
89.3154 821.00
89.6196 814.00
89.9239 765.00
90.2282 845.00
90.5324 804.00
90.8367 799.00
91.1409 879.00
91.4452 830.00
91.7495 825.00
92.0537 864.00
92.358 889.00
92.6622 742.00
92.9665 690.00
93.2708 743.00
93.575 822.00
93.8793 762.00
94.1835 792.00
94.4878 772.00
94.7921 711.00
95.0963 735.00
95.4006 830.00
95.7048 883.00
96.0091 821.00
96.3134 747.00
96.6176 916.00
96.9219 851.00
97.2261 904.00
97.5304 844.00
97.8347 793.00
98.1389 754.00
98.4432 787.00
98.7474 822.00
99.0517 758.00
99.356 756.00
99.6602 720.00
99.9645 792.00
100.095 732.00