File: data/xrd_creation/results/NSC_48.xy
9.903433 3011.00
10.2077 2911.00
10.512 2810.00
10.8162 2588.00
11.1205 2713.00
11.4247 2511.00
11.729 2430.00
12.0333 2313.00
12.3375 2393.00
12.6418 2200.00
12.946 2281.00
13.2503 2170.00
13.5546 2234.00
13.8588 2176.00
14.1631 2138.00
14.4673 2259.00
14.7716 3134.00
15.0759 2130.00
15.3801 1991.00
15.6844 1858.00
15.9886 1896.00
16.2929 1954.00
16.5972 2074.00
16.9014 1928.00
17.2057 2009.00
17.5099 1797.00
17.8142 1795.00
18.1185 1882.00
18.4227 1698.00
18.727 1675.00
19.0312 1710.00
19.3355 1653.00
19.6398 1671.00
19.944 1649.00
20.2483 1709.00
20.5525 1696.00
20.8568 2152.00
21.1611 2002.00
21.4653 1834.00
21.7696 3713.00
22.0738 1714.00
22.3781 1806.00
22.6824 5194.00
22.9866 1573.00
23.2909 2014.00
23.5951 1486.00
23.8994 1410.00
24.2037 1747.00
24.5079 1492.00
24.8122 1454.00
25.1164 1370.00
25.4207 1322.00
25.725 1377.00
26.0292 1176.00
26.3335 1358.00
26.6378 1194.00
26.942 1167.00
27.2463 1208.00
27.5505 1708.00
27.8548 1455.00
28.1591 1204.00
28.4633 1356.00
28.7676 1220.00
29.0718 1252.00
29.3761 1157.00
29.6804 1360.00
29.9846 1740.00
30.2889 1728.00
30.5931 1971.00
30.8974 22993.00
31.2017 1744.00
31.5059 1366.00
31.8102 1209.00
32.1144 1456.00
32.4187 1612.00
32.723 1254.00
33.0272 1561.00
33.3315 2427.00
33.6357 1173.00
33.94 1210.00
34.2443 2633.00
34.5485 4748.00
34.8528 1351.00
35.157 1301.00
35.4613 1446.00
35.7656 7151.00
36.0698 1150.00
36.3741 967.00
36.6783 962.00
36.9826 899.00
37.2869 1045.00
37.5911 1329.00
37.8954 1495.00
38.1996 987.00
38.5039 905.00
38.8082 1062.00
39.1124 1010.00
39.4167 1015.00
39.7209 877.00
40.0252 945.00
40.3295 840.00
40.6337 816.00
40.938 895.00
41.2422 918.00
41.5465 1052.00
41.8508 886.00
42.155 1923.00
42.4593 1159.00
42.7635 818.00
43.0678 829.00
43.3721 895.00
43.6763 906.00
43.9806 908.00
44.2849 845.00
44.5891 764.00
44.8934 863.00
45.1976 979.00
45.5019 799.00
45.8062 968.00
46.1104 1581.00
46.4147 759.00
46.7189 739.00
47.0232 765.00
47.3275 942.00
47.6317 765.00
47.936 721.00
48.2402 902.00
48.5445 947.00
48.8488 831.00
49.153 844.00
49.4573 1587.00
49.7615 965.00
50.0658 771.00
50.3701 697.00
50.6743 728.00
50.9786 1000.00
51.2828 6993.00
51.5871 1631.00
51.8914 848.00
52.1956 693.00
52.4999 657.00
52.8041 668.00
53.1084 1057.00
53.4127 672.00
53.7169 690.00
54.0212 692.00
54.3254 691.00
54.6297 837.00
54.934 708.00
55.2382 693.00
55.5425 695.00
55.8467 777.00
56.151 1041.00
56.4553 996.00
56.7595 749.00
57.0638 654.00
57.368 782.00
57.6723 1093.00
57.9766 890.00
58.2808 646.00
58.5851 713.00
58.8893 756.00
59.1936 704.00
59.4979 1182.00
59.8021 729.00
60.1064 721.00
60.4106 747.00
60.7149 1185.00
61.0192 3746.00
61.3234 1281.00
61.6277 1044.00
61.932 642.00
62.2362 730.00
62.5405 1186.00
62.8447 695.00
63.149 650.00
63.4533 646.00
63.7575 708.00
64.0618 1045.00
64.366 685.00
64.6703 656.00
64.9745 628.00
65.2788 678.00
65.5831 800.00
65.8873 712.00
66.1916 731.00
66.4959 597.00
66.8001 663.00
67.1044 600.00
67.4086 575.00
67.7129 574.00
68.0172 616.00
68.3214 960.00
68.6257 700.00
68.9299 618.00
69.2342 527.00
69.5385 605.00
69.8427 631.00
70.147 517.00
70.4512 504.00
70.7555 516.00
71.0598 614.00
71.364 619.00
71.6683 603.00
71.9725 533.00
72.2768 696.00
72.5811 524.00
72.8853 458.00
73.1896 487.00
73.4938 483.00
73.7981 625.00
74.1024 685.00
74.4066 537.00
74.7109 464.00
75.0151 505.00
75.3194 912.00
75.6237 629.00
75.9279 421.00
76.2322 504.00
76.5364 683.00
76.8407 702.00
77.145 522.00
77.4492 524.00
77.7535 479.00
78.0577 643.00
78.362 487.00
78.6663 479.00
78.9705 476.00
79.2748 629.00
79.579 655.00
79.8833 460.00
80.1876 481.00
80.4918 527.00
80.7961 574.00
81.1003 499.00
81.4046 515.00
81.7089 537.00
82.0131 835.00
82.3174 756.00
82.6217 541.00
82.9259 483.00
83.2302 690.00
83.5344 920.00
83.8387 589.00
84.143 500.00
84.4472 434.00
84.7515 474.00
85.0557 454.00
85.36 505.00
85.6643 511.00
85.9685 807.00
86.2728 779.00
86.577 557.00
86.8813 486.00
87.1856 473.00
87.4898 526.00
87.7941 470.00
88.0983 452.00
88.4026 464.00
88.7069 572.00
89.0111 507.00
89.3154 401.00
89.6196 471.00
89.9239 567.00
90.2282 599.00
90.5324 448.00
90.8367 455.00
91.1409 460.00
91.4452 461.00
91.7495 428.00
92.0537 440.00
92.358 484.00
92.6622 688.00
92.9665 579.00
93.2708 494.00
93.575 432.00
93.8793 437.00
94.1835 425.00
94.4878 436.00
94.7921 445.00
95.0963 506.00
95.4006 668.00
95.7048 559.00
96.0091 447.00
96.3134 506.00
96.6176 873.00
96.9219 737.00
97.2261 503.00
97.5304 508.00
97.8347 535.00
98.1389 580.00
98.4432 568.00
98.7474 472.00
99.0517 462.00
99.356 563.00
99.6602 504.00
99.9645 465.00
100.095 439.00