File: data/xrd_creation/results/NSC_81.xy
9.903433 3037.00
10.2077 2905.00
10.512 2706.00
10.8162 2653.00
11.1205 2589.00
11.4247 2532.00
11.729 2403.00
12.0333 2477.00
12.3375 2292.00
12.6418 2268.00
12.946 2199.00
13.2503 2178.00
13.5546 2159.00
13.8588 2481.00
14.1631 3044.00
14.4673 2123.00
14.7716 2030.00
15.0759 1946.00
15.3801 2000.00
15.6844 1998.00
15.9886 1977.00
16.2929 1961.00
16.5972 2043.00
16.9014 1859.00
17.2057 1775.00
17.5099 1864.00
17.8142 1863.00
18.1185 1789.00
18.4227 1773.00
18.727 1766.00
19.0312 1768.00
19.3355 2129.00
19.6398 4384.00
19.944 3758.00
20.2483 4670.00
20.5525 1927.00
20.8568 1690.00
21.1611 1696.00
21.4653 1671.00
21.7696 1691.00
22.0738 1655.00
22.3781 1609.00
22.6824 1696.00
22.9866 1740.00
23.2909 4250.00
23.5951 7209.00
23.8994 2085.00
24.2037 2394.00
24.5079 1711.00
24.8122 1635.00
25.1164 1527.00
25.4207 1461.00
25.725 1481.00
26.0292 1512.00
26.3335 1487.00
26.6378 1418.00
26.942 1367.00
27.2463 1440.00
27.5505 1491.00
27.8548 1480.00
28.1591 2631.00
28.4633 3446.00
28.7676 1583.00
29.0718 1300.00
29.3761 1393.00
29.6804 1286.00
29.9846 1281.00
30.2889 1362.00
30.5931 1469.00
30.8974 1410.00
31.2017 4556.00
31.5059 5626.00
31.8102 4709.00
32.1144 1713.00
32.4187 1447.00
32.723 1321.00
33.0272 1208.00
33.3315 1222.00
33.6357 1185.00
33.94 1177.00
34.2443 1191.00
34.5485 1219.00
34.8528 1538.00
35.157 2736.00
35.4613 4258.00
35.7656 1350.00
36.0698 1103.00
36.3741 1162.00
36.6783 1066.00
36.9826 973.00
37.2869 1049.00
37.5911 1064.00
37.8954 1007.00
38.1996 943.00
38.5039 963.00
38.8082 991.00
39.1124 1041.00
39.4167 997.00
39.7209 1079.00
40.0252 1125.00
40.3295 1077.00
40.6337 1099.00
40.938 1084.00
41.2422 1086.00
41.5465 1238.00
41.8508 1138.00
42.155 1271.00
42.4593 1189.00
42.7635 1493.00
43.0678 1834.00
43.3721 1154.00
43.6763 1130.00
43.9806 992.00
44.2849 967.00
44.5891 988.00
44.8934 1336.00
45.1976 1652.00
45.5019 1409.00
45.8062 1613.00
46.1104 1329.00
46.4147 964.00
46.7189 1067.00
47.0232 1188.00
47.3275 1016.00
47.6317 1359.00
47.936 2454.00
48.2402 2520.00
48.5445 1745.00
48.8488 1063.00
49.153 973.00
49.4573 1009.00
49.7615 1121.00
50.0658 985.00
50.3701 915.00
50.6743 891.00
50.9786 923.00
51.2828 1177.00
51.5871 1756.00
51.8914 1459.00
52.1956 1667.00
52.4999 1343.00
52.8041 1041.00
53.1084 886.00
53.4127 923.00
53.7169 958.00
54.0212 984.00
54.3254 1240.00
54.6297 1154.00
54.934 1511.00
55.2382 2421.00
55.5425 1581.00
55.8467 924.00
56.151 921.00
56.4553 980.00
56.7595 1101.00
57.0638 971.00
57.368 868.00
57.6723 801.00
57.9766 813.00
58.2808 879.00
58.5851 1032.00
58.8893 977.00
59.1936 872.00
59.4979 822.00
59.8021 972.00
60.1064 1283.00
60.4106 1080.00
60.7149 1266.00
61.0192 1676.00
61.3234 1459.00
61.6277 1064.00
61.932 836.00
62.2362 959.00
62.5405 1066.00
62.8447 1123.00
63.149 1126.00
63.4533 1406.00
63.7575 1153.00
64.0618 1185.00
64.366 990.00
64.6703 904.00
64.9745 863.00
65.2788 839.00
65.5831 830.00
65.8873 844.00
66.1916 854.00
66.4959 897.00
66.8001 960.00
67.1044 1059.00
67.4086 972.00
67.7129 947.00
68.0172 985.00
68.3214 954.00
68.6257 980.00
68.9299 1031.00
69.2342 811.00
69.5385 713.00
69.8427 697.00
70.147 680.00
70.4512 787.00
70.7555 928.00
71.0598 1147.00
71.364 955.00
71.6683 767.00
71.9725 775.00
72.2768 892.00
72.5811 759.00
72.8853 726.00
73.1896 701.00
73.4938 676.00
73.7981 744.00
74.1024 836.00
74.4066 849.00
74.7109 1037.00
75.0151 1135.00
75.3194 927.00
75.6237 866.00
75.9279 849.00
76.2322 845.00
76.5364 732.00
76.8407 790.00
77.145 695.00
77.4492 737.00
77.7535 714.00
78.0577 766.00
78.362 741.00
78.6663 853.00
78.9705 726.00
79.2748 742.00
79.579 692.00
79.8833 719.00
80.1876 642.00
80.4918 708.00
80.7961 665.00
81.1003 731.00
81.4046 840.00
81.7089 718.00
82.0131 748.00
82.3174 727.00
82.6217 704.00
82.9259 796.00
83.2302 813.00
83.5344 942.00
83.8387 835.00
84.143 692.00
84.4472 664.00
84.7515 816.00
85.0557 781.00
85.36 812.00
85.6643 766.00
85.9685 681.00
86.2728 679.00
86.577 684.00
86.8813 747.00
87.1856 666.00
87.4898 714.00
87.7941 703.00
88.0983 704.00
88.4026 771.00
88.7069 759.00
89.0111 719.00
89.3154 832.00
89.6196 876.00
89.9239 828.00
90.2282 820.00
90.5324 848.00
90.8367 770.00
91.1409 667.00
91.4452 721.00
91.7495 738.00
92.0537 728.00
92.358 697.00
92.6622 693.00
92.9665 614.00
93.2708 671.00
93.575 651.00
93.8793 653.00
94.1835 670.00
94.4878 709.00
94.7921 701.00
95.0963 722.00
95.4006 772.00
95.7048 809.00
96.0091 791.00
96.3134 768.00
96.6176 787.00
96.9219 773.00
97.2261 691.00
97.5304 651.00
97.8347 724.00
98.1389 658.00
98.4432 657.00
98.7474 674.00
99.0517 705.00
99.356 674.00
99.6602 688.00
99.9645 730.00
100.095 657.00