File: data/xrd_creation/results/NSC_184.xy
9.903433 2751.00
10.2077 2501.00
10.512 2401.00
10.8162 2316.00
11.1205 2286.00
11.4247 2244.00
11.729 2141.00
12.0333 2109.00
12.3375 1961.00
12.6418 1862.00
12.946 1862.00
13.2503 1767.00
13.5546 1729.00
13.8588 1742.00
14.1631 1782.00
14.4673 1624.00
14.7716 1565.00
15.0759 1541.00
15.3801 1575.00
15.6844 1555.00
15.9886 1530.00
16.2929 1472.00
16.5972 1555.00
16.9014 1464.00
17.2057 1425.00
17.5099 1356.00
17.8142 1420.00
18.1185 1559.00
18.4227 1459.00
18.727 1356.00
19.0312 1318.00
19.3355 1376.00
19.6398 1343.00
19.944 1258.00
20.2483 1371.00
20.5525 2308.00
20.8568 2107.00
21.1611 1522.00
21.4653 1101.00
21.7696 1165.00
22.0738 1176.00
22.3781 1191.00
22.6824 1313.00
22.9866 1310.00
23.2909 1053.00
23.5951 1013.00
23.8994 1034.00
24.2037 985.00
24.5079 1020.00
24.8122 1045.00
25.1164 901.00
25.4207 936.00
25.725 903.00
26.0292 955.00
26.3335 982.00
26.6378 1455.00
26.942 1152.00
27.2463 860.00
27.5505 874.00
27.8548 831.00
28.1591 847.00
28.4633 825.00
28.7676 815.00
29.0718 785.00
29.3761 844.00
29.6804 750.00
29.9846 809.00
30.2889 845.00
30.5931 826.00
30.8974 769.00
31.2017 768.00
31.5059 783.00
31.8102 744.00
32.1144 865.00
32.4187 2089.00
32.723 9134.00
33.0272 914.00
33.3315 744.00
33.6357 767.00
33.94 706.00
34.2443 717.00
34.5485 1166.00
34.8528 705.00
35.157 640.00
35.4613 600.00
35.7656 616.00
36.0698 1039.00
36.3741 901.00
36.6783 1281.00
36.9826 564.00
37.2869 645.00
37.5911 958.00
37.8954 483.00
38.1996 523.00
38.5039 539.00
38.8082 596.00
39.1124 538.00
39.4167 1119.00
39.7209 844.00
40.0252 1415.00
40.3295 499.00
40.6337 445.00
40.938 495.00
41.2422 501.00
41.5465 472.00
41.8508 542.00
42.155 438.00
42.4593 444.00
42.7635 429.00
43.0678 468.00
43.3721 472.00
43.6763 631.00
43.9806 510.00
44.2849 454.00
44.5891 536.00
44.8934 1040.00
45.1976 420.00
45.5019 407.00
45.8062 371.00
46.1104 368.00
46.4147 393.00
46.7189 384.00
47.0232 413.00
47.3275 459.00
47.6317 572.00
47.936 409.00
48.2402 415.00
48.5445 381.00
48.8488 399.00
49.153 409.00
49.4573 389.00
49.7615 375.00
50.0658 516.00
50.3701 416.00
50.6743 337.00
50.9786 377.00
51.2828 493.00
51.5871 452.00
51.8914 586.00
52.1956 411.00
52.4999 373.00
52.8041 365.00
53.1084 536.00
53.4127 1150.00
53.7169 478.00
54.0212 423.00
54.3254 443.00
54.6297 768.00
54.934 1511.00
55.2382 582.00
55.5425 1501.00
55.8467 539.00
56.151 571.00
56.4553 552.00
56.7595 348.00
57.0638 332.00
57.368 392.00
57.6723 326.00
57.9766 338.00
58.2808 406.00
58.5851 426.00
58.8893 470.00
59.1936 362.00
59.4979 376.00
59.8021 364.00
60.1064 380.00
60.4106 392.00
60.7149 493.00
61.0192 390.00
61.3234 376.00
61.6277 369.00
61.932 373.00
62.2362 354.00
62.5405 338.00
62.8447 408.00
63.149 845.00
63.4533 701.00
63.7575 364.00
64.0618 342.00
64.366 721.00
64.6703 1041.00
64.9745 450.00
65.2788 337.00
65.5831 457.00
65.8873 452.00
66.1916 369.00
66.4959 282.00
66.8001 424.00
67.1044 936.00
67.4086 700.00
67.7129 385.00
68.0172 392.00
68.3214 761.00
68.6257 365.00
68.9299 381.00
69.2342 274.00
69.5385 300.00
69.8427 289.00
70.147 338.00
70.4512 283.00
70.7555 343.00
71.0598 372.00
71.364 296.00
71.6683 258.00
71.9725 260.00
72.2768 227.00
72.5811 263.00
72.8853 299.00
73.1896 260.00
73.4938 288.00
73.7981 246.00
74.1024 266.00
74.4066 258.00
74.7109 200.00
75.0151 285.00
75.3194 292.00
75.6237 273.00
75.9279 272.00
76.2322 260.00
76.5364 304.00
76.8407 269.00
77.145 242.00
77.4492 277.00
77.7535 273.00
78.0577 264.00
78.362 350.00
78.6663 289.00
78.9705 244.00
79.2748 233.00
79.579 283.00
79.8833 279.00
80.1876 303.00
80.4918 273.00
80.7961 238.00
81.1003 238.00
81.4046 245.00
81.7089 239.00
82.0131 278.00
82.3174 286.00
82.6217 280.00
82.9259 236.00
83.2302 234.00
83.5344 237.00
83.8387 281.00
84.143 303.00
84.4472 294.00
84.7515 353.00
85.0557 314.00
85.36 302.00
85.6643 263.00
85.9685 250.00
86.2728 226.00
86.577 228.00
86.8813 230.00
87.1856 329.00
87.4898 319.00
87.7941 463.00
88.0983 325.00
88.4026 264.00
88.7069 224.00
89.0111 223.00
89.3154 354.00
89.6196 355.00
89.9239 329.00
90.2282 446.00
90.5324 418.00
90.8367 347.00
91.1409 496.00
91.4452 489.00
91.7495 322.00
92.0537 307.00
92.358 265.00
92.6622 250.00
92.9665 260.00
93.2708 235.00
93.575 256.00
93.8793 198.00
94.1835 235.00
94.4878 265.00
94.7921 241.00
95.0963 203.00
95.4006 258.00
95.7048 267.00
96.0091 318.00
96.3134 320.00
96.6176 293.00
96.9219 287.00
97.2261 244.00
97.5304 210.00
97.8347 227.00
98.1389 221.00
98.4432 233.00
98.7474 216.00
99.0517 234.00
99.356 209.00
99.6602 235.00
99.9645 214.00
100.095 227.00