File: data/xrd_creation/results/NSC_108.xy
9.903433 2647.00
10.2077 2553.00
10.512 2465.00
10.8162 2362.00
11.1205 2315.00
11.4247 2214.00
11.729 2141.00
12.0333 2052.00
12.3375 2024.00
12.6418 1845.00
12.946 1840.00
13.2503 1813.00
13.5546 1756.00
13.8588 1692.00
14.1631 1705.00
14.4673 1780.00
14.7716 1589.00
15.0759 1670.00
15.3801 1601.00
15.6844 1471.00
15.9886 1535.00
16.2929 1601.00
16.5972 1446.00
16.9014 1483.00
17.2057 1463.00
17.5099 1514.00
17.8142 1397.00
18.1185 1398.00
18.4227 1332.00
18.727 1304.00
19.0312 1416.00
19.3355 1362.00
19.6398 1348.00
19.944 1282.00
20.2483 1295.00
20.5525 1273.00
20.8568 1223.00
21.1611 1259.00
21.4653 1185.00
21.7696 1210.00
22.0738 1187.00
22.3781 1210.00
22.6824 1132.00
22.9866 1164.00
23.2909 1132.00
23.5951 1075.00
23.8994 1134.00
24.2037 1146.00
24.5079 1031.00
24.8122 1013.00
25.1164 1106.00
25.4207 1017.00
25.725 1108.00
26.0292 1149.00
26.3335 2031.00
26.6378 5432.00
26.942 3308.00
27.2463 1043.00
27.5505 1051.00
27.8548 994.00
28.1591 974.00
28.4633 994.00
28.7676 969.00
29.0718 949.00
29.3761 906.00
29.6804 974.00
29.9846 883.00
30.2889 938.00
30.5931 900.00
30.8974 889.00
31.2017 871.00
31.5059 920.00
31.8102 750.00
32.1144 831.00
32.4187 759.00
32.723 798.00
33.0272 784.00
33.3315 966.00
33.6357 1673.00
33.94 5155.00
34.2443 3009.00
34.5485 843.00
34.8528 711.00
35.157 712.00
35.4613 719.00
35.7656 632.00
36.0698 771.00
36.3741 693.00
36.6783 604.00
36.9826 634.00
37.2869 649.00
37.5911 729.00
37.8954 1659.00
38.1996 2093.00
38.5039 747.00
38.8082 712.00
39.1124 875.00
39.4167 656.00
39.7209 610.00
40.0252 607.00
40.3295 563.00
40.6337 532.00
40.938 588.00
41.2422 525.00
41.5465 572.00
41.8508 567.00
42.155 560.00
42.4593 570.00
42.7635 668.00
43.0678 561.00
43.3721 551.00
43.6763 535.00
43.9806 487.00
44.2849 493.00
44.5891 514.00
44.8934 554.00
45.1976 516.00
45.5019 449.00
45.8062 528.00
46.1104 496.00
46.4147 501.00
46.7189 480.00
47.0232 485.00
47.3275 478.00
47.6317 450.00
47.936 464.00
48.2402 485.00
48.5445 481.00
48.8488 481.00
49.153 454.00
49.4573 476.00
49.7615 471.00
50.0658 427.00
50.3701 553.00
50.6743 516.00
50.9786 534.00
51.2828 558.00
51.5871 1453.00
51.8914 5527.00
52.1956 2221.00
52.4999 578.00
52.8041 545.00
53.1084 489.00
53.4127 504.00
53.7169 471.00
54.0212 463.00
54.3254 491.00
54.6297 796.00
54.934 1906.00
55.2382 676.00
55.5425 483.00
55.8467 434.00
56.151 439.00
56.4553 411.00
56.7595 444.00
57.0638 485.00
57.368 443.00
57.6723 581.00
57.9766 1137.00
58.2808 571.00
58.5851 417.00
58.8893 434.00
59.1936 421.00
59.4979 415.00
59.8021 407.00
60.1064 412.00
60.4106 428.00
60.7149 385.00
61.0192 375.00
61.3234 403.00
61.6277 539.00
61.932 1401.00
62.2362 1139.00
62.5405 496.00
62.8447 406.00
63.149 352.00
63.4533 399.00
63.7575 413.00
64.0618 436.00
64.366 466.00
64.6703 1058.00
64.9745 1684.00
65.2788 607.00
65.5831 504.00
65.8873 1119.00
66.1916 1785.00
66.4959 721.00
66.8001 438.00
67.1044 389.00
67.4086 375.00
67.7129 357.00
68.0172 382.00
68.3214 382.00
68.6257 358.00
68.9299 347.00
69.2342 377.00
69.5385 416.00
69.8427 394.00
70.147 351.00
70.4512 350.00
70.7555 356.00
71.0598 439.00
71.364 929.00
71.6683 720.00
71.9725 422.00
72.2768 372.00
72.5811 362.00
72.8853 373.00
73.1896 362.00
73.4938 303.00
73.7981 333.00
74.1024 332.00
74.4066 345.00
74.7109 304.00
75.0151 329.00
75.3194 342.00
75.6237 313.00
75.9279 331.00
76.2322 318.00
76.5364 348.00
76.8407 382.00
77.145 297.00
77.4492 380.00
77.7535 321.00
78.0577 351.00
78.362 391.00
78.6663 941.00
78.9705 1242.00
79.2748 540.00
79.579 384.00
79.8833 310.00
80.1876 345.00
80.4918 328.00
80.7961 347.00
81.1003 479.00
81.4046 573.00
81.7089 389.00
82.0131 335.00
82.3174 307.00
82.6217 291.00
82.9259 306.00
83.2302 351.00
83.5344 427.00
83.8387 1056.00
84.143 653.00
84.4472 378.00
84.7515 299.00
85.0557 308.00
85.36 317.00
85.6643 334.00
85.9685 295.00
86.2728 298.00
86.577 309.00
86.8813 352.00
87.1856 434.00
87.4898 626.00
87.7941 403.00
88.0983 303.00
88.4026 285.00
88.7069 314.00
89.0111 346.00
89.3154 346.00
89.6196 546.00
89.9239 1197.00
90.2282 823.00
90.5324 476.00
90.8367 816.00
91.1409 1022.00
91.4452 576.00
91.7495 361.00
92.0537 313.00
92.358 311.00
92.6622 348.00
92.9665 341.00
93.2708 583.00
93.575 652.00
93.8793 437.00
94.1835 310.00
94.4878 268.00
94.7921 318.00
95.0963 324.00
95.4006 278.00
95.7048 332.00
96.0091 587.00
96.3134 597.00
96.6176 391.00
96.9219 298.00
97.2261 283.00
97.5304 325.00
97.8347 276.00
98.1389 306.00
98.4432 298.00
98.7474 298.00
99.0517 314.00
99.356 327.00
99.6602 285.00
99.9645 291.00
100.095 289.00