File: data/xrd_creation/results/NSC_51.xy
9.903433 2879.00
10.2077 2894.00
10.512 2789.00
10.8162 2707.00
11.1205 2627.00
11.4247 2589.00
11.729 2825.00
12.0333 3548.00
12.3375 2414.00
12.6418 2409.00
12.946 2639.00
13.2503 2470.00
13.5546 2639.00
13.8588 2832.00
14.1631 2233.00
14.4673 2123.00
14.7716 2165.00
15.0759 2125.00
15.3801 2130.00
15.6844 2025.00
15.9886 1983.00
16.2929 1940.00
16.5972 2033.00
16.9014 2060.00
17.2057 1981.00
17.5099 1954.00
17.8142 1975.00
18.1185 1966.00
18.4227 1869.00
18.727 1923.00
19.0312 2423.00
19.3355 3613.00
19.6398 4165.00
19.944 3297.00
20.2483 2301.00
20.5525 2277.00
20.8568 2053.00
21.1611 1812.00
21.4653 1862.00
21.7696 1822.00
22.0738 1795.00
22.3781 1947.00
22.6824 2948.00
22.9866 6317.00
23.2909 2372.00
23.5951 1932.00
23.8994 1829.00
24.2037 1774.00
24.5079 1764.00
24.8122 1698.00
25.1164 1760.00
25.4207 1785.00
25.725 1670.00
26.0292 1724.00
26.3335 1586.00
26.6378 1748.00
26.942 1723.00
27.2463 1786.00
27.5505 2341.00
27.8548 3035.00
28.1591 2086.00
28.4633 2156.00
28.7676 1714.00
29.0718 1568.00
29.3761 1576.00
29.6804 1605.00
29.9846 1834.00
30.2889 2584.00
30.5931 5898.00
30.8974 5386.00
31.2017 2500.00
31.5059 3149.00
31.8102 1734.00
32.1144 1546.00
32.4187 1590.00
32.723 1526.00
33.0272 1493.00
33.3315 1545.00
33.6357 1713.00
33.94 3298.00
34.2443 3879.00
34.5485 4020.00
34.8528 1806.00
35.157 1423.00
35.4613 1396.00
35.7656 1347.00
36.0698 1424.00
36.3741 1367.00
36.6783 1327.00
36.9826 1363.00
37.2869 1282.00
37.5911 1313.00
37.8954 1290.00
38.1996 1275.00
38.5039 1228.00
38.8082 1318.00
39.1124 1210.00
39.4167 1337.00
39.7209 1322.00
40.0252 1295.00
40.3295 1301.00
40.6337 1431.00
40.938 1431.00
41.2422 1546.00
41.5465 1567.00
41.8508 1682.00
42.155 1557.00
42.4593 1384.00
42.7635 1390.00
43.0678 1214.00
43.3721 1293.00
43.6763 1328.00
43.9806 1397.00
44.2849 1462.00
44.5891 1539.00
44.8934 1794.00
45.1976 1548.00
45.5019 1373.00
45.8062 1467.00
46.1104 1743.00
46.4147 2080.00
46.7189 3235.00
47.0232 2772.00
47.3275 1728.00
47.6317 1457.00
47.936 1380.00
48.2402 1229.00
48.5445 1257.00
48.8488 1287.00
49.153 1245.00
49.4573 1324.00
49.7615 1339.00
50.0658 1417.00
50.3701 1990.00
50.6743 1898.00
50.9786 1570.00
51.2828 1454.00
51.5871 1437.00
51.8914 1433.00
52.1956 1289.00
52.4999 1235.00
52.8041 1394.00
53.1084 1576.00
53.4127 1786.00
53.7169 2294.00
54.0212 1782.00
54.3254 1433.00
54.6297 1350.00
54.934 1382.00
55.2382 1319.00
55.5425 1253.00
55.8467 1236.00
56.151 1176.00
56.4553 1174.00
56.7595 1188.00
57.0638 1278.00
57.368 1286.00
57.6723 1240.00
57.9766 1247.00
58.2808 1278.00
58.5851 1555.00
58.8893 1805.00
59.1936 2326.00
59.4979 2023.00
59.8021 1585.00
60.1064 1467.00
60.4106 1383.00
60.7149 1502.00
61.0192 1476.00
61.3234 1540.00
61.6277 1671.00
61.932 1629.00
62.2362 1381.00
62.5405 1401.00
62.8447 1332.00
63.149 1270.00
63.4533 1271.00
63.7575 1209.00
64.0618 1238.00
64.366 1342.00
64.6703 1209.00
64.9745 1300.00
65.2788 1468.00
65.5831 1393.00
65.8873 1350.00
66.1916 1365.00
66.4959 1357.00
66.8001 1323.00
67.1044 1242.00
67.4086 1137.00
67.7129 1195.00
68.0172 1222.00
68.3214 1160.00
68.6257 1269.00
68.9299 1378.00
69.2342 1361.00
69.5385 1174.00
69.8427 1176.00
70.147 1217.00
70.4512 1081.00
70.7555 1096.00
71.0598 1127.00
71.364 1158.00
71.6683 1158.00
71.9725 1190.00
72.2768 1304.00
72.5811 1359.00
72.8853 1228.00
73.1896 1206.00
73.4938 1144.00
73.7981 1199.00
74.1024 1113.00
74.4066 1102.00
74.7109 1153.00
75.0151 1203.00
75.3194 1112.00
75.6237 1115.00
75.9279 1150.00
76.2322 1128.00
76.5364 1103.00
76.8407 1095.00
77.145 1124.00
77.4492 1052.00
77.7535 1035.00
78.0577 1007.00
78.362 1023.00
78.6663 1000.00
78.9705 1060.00
79.2748 1062.00
79.579 1126.00
79.8833 1106.00
80.1876 1192.00
80.4918 1222.00
80.7961 1308.00
81.1003 1162.00
81.4046 1111.00
81.7089 1088.00
82.0131 1117.00
82.3174 1146.00
82.6217 1076.00
82.9259 1140.00
83.2302 1112.00
83.5344 1003.00
83.8387 1073.00
84.143 1085.00
84.4472 1087.00
84.7515 1016.00
85.0557 1036.00
85.36 1022.00
85.6643 1107.00
85.9685 1182.00
86.2728 1129.00
86.577 1104.00
86.8813 1150.00
87.1856 1157.00
87.4898 1208.00
87.7941 1140.00
88.0983 1036.00
88.4026 1045.00
88.7069 1067.00
89.0111 1119.00
89.3154 1148.00
89.6196 1135.00
89.9239 1100.00
90.2282 1080.00
90.5324 1135.00
90.8367 1034.00
91.1409 1056.00
91.4452 1147.00
91.7495 992.00
92.0537 1010.00
92.358 1193.00
92.6622 1205.00
92.9665 1062.00
93.2708 1167.00
93.575 1101.00
93.8793 1068.00
94.1835 1051.00
94.4878 1041.00
94.7921 1037.00
95.0963 1038.00
95.4006 1151.00
95.7048 1060.00
96.0091 1034.00
96.3134 1119.00
96.6176 1076.00
96.9219 1026.00
97.2261 1081.00
97.5304 1081.00
97.8347 1011.00
98.1389 1005.00
98.4432 1003.00
98.7474 987.00
99.0517 1069.00
99.356 1057.00
99.6602 1064.00
99.9645 1133.00
100.095 1145.00