File: data/xrd_creation/results/NSC_162.xy
9.903433 2681.00
10.2077 2479.00
10.512 2333.00
10.8162 2169.00
11.1205 2135.00
11.4247 2048.00
11.729 1924.00
12.0333 1837.00
12.3375 1851.00
12.6418 1737.00
12.946 1681.00
13.2503 1615.00
13.5546 1524.00
13.8588 1481.00
14.1631 1466.00
14.4673 1428.00
14.7716 1364.00
15.0759 1322.00
15.3801 1322.00
15.6844 1301.00
15.9886 1270.00
16.2929 1178.00
16.5972 1210.00
16.9014 1151.00
17.2057 1160.00
17.5099 1085.00
17.8142 1129.00
18.1185 1112.00
18.4227 1044.00
18.727 961.00
19.0312 1035.00
19.3355 1034.00
19.6398 962.00
19.944 967.00
20.2483 942.00
20.5525 963.00
20.8568 885.00
21.1611 883.00
21.4653 848.00
21.7696 844.00
22.0738 782.00
22.3781 858.00
22.6824 846.00
22.9866 829.00
23.2909 772.00
23.5951 753.00
23.8994 757.00
24.2037 729.00
24.5079 679.00
24.8122 701.00
25.1164 744.00
25.4207 676.00
25.725 675.00
26.0292 703.00
26.3335 713.00
26.6378 676.00
26.942 624.00
27.2463 702.00
27.5505 638.00
27.8548 1365.00
28.1591 647.00
28.4633 652.00
28.7676 618.00
29.0718 608.00
29.3761 606.00
29.6804 582.00
29.9846 584.00
30.2889 594.00
30.5931 576.00
30.8974 515.00
31.2017 568.00
31.5059 586.00
31.8102 589.00
32.1144 532.00
32.4187 571.00
32.723 544.00
33.0272 493.00
33.3315 481.00
33.6357 483.00
33.94 476.00
34.2443 459.00
34.5485 489.00
34.8528 487.00
35.157 453.00
35.4613 485.00
35.7656 450.00
36.0698 422.00
36.3741 459.00
36.6783 427.00
36.9826 421.00
37.2869 387.00
37.5911 399.00
37.8954 346.00
38.1996 360.00
38.5039 367.00
38.8082 395.00
39.1124 389.00
39.4167 379.00
39.7209 371.00
40.0252 355.00
40.3295 369.00
40.6337 364.00
40.938 344.00
41.2422 385.00
41.5465 346.00
41.8508 378.00
42.155 356.00
42.4593 342.00
42.7635 358.00
43.0678 351.00
43.3721 317.00
43.6763 346.00
43.9806 343.00
44.2849 316.00
44.5891 283.00
44.8934 299.00
45.1976 326.00
45.5019 324.00
45.8062 280.00
46.1104 482.00
46.4147 342.00
46.7189 335.00
47.0232 328.00
47.3275 300.00
47.6317 328.00
47.936 302.00
48.2402 294.00
48.5445 306.00
48.8488 304.00
49.153 288.00
49.4573 301.00
49.7615 304.00
50.0658 280.00
50.3701 265.00
50.6743 273.00
50.9786 286.00
51.2828 277.00
51.5871 256.00
51.8914 248.00
52.1956 247.00
52.4999 281.00
52.8041 241.00
53.1084 229.00
53.4127 271.00
53.7169 266.00
54.0212 328.00
54.3254 308.00
54.6297 260.00
54.934 266.00
55.2382 296.00
55.5425 327.00
55.8467 258.00
56.151 269.00
56.4553 247.00
56.7595 238.00
57.0638 224.00
57.368 239.00
57.6723 281.00
57.9766 224.00
58.2808 215.00
58.5851 225.00
58.8893 222.00
59.1936 241.00
59.4979 258.00
59.8021 232.00
60.1064 221.00
60.4106 225.00
60.7149 193.00
61.0192 191.00
61.3234 218.00
61.6277 205.00
61.932 227.00
62.2362 227.00
62.5405 233.00
62.8447 229.00
63.149 212.00
63.4533 223.00
63.7575 207.00
64.0618 206.00
64.366 197.00
64.6703 204.00
64.9745 200.00
65.2788 197.00
65.5831 212.00
65.8873 210.00
66.1916 238.00
66.4959 204.00
66.8001 237.00
67.1044 174.00
67.4086 173.00
67.7129 168.00
68.0172 196.00
68.3214 189.00
68.6257 237.00
68.9299 205.00
69.2342 188.00
69.5385 222.00
69.8427 179.00
70.147 196.00
70.4512 218.00
70.7555 225.00
71.0598 188.00
71.364 211.00
71.6683 224.00
71.9725 206.00
72.2768 189.00
72.5811 194.00
72.8853 192.00
73.1896 206.00
73.4938 186.00
73.7981 210.00
74.1024 227.00
74.4066 291.00
74.7109 221.00
75.0151 235.00
75.3194 237.00
75.6237 218.00
75.9279 221.00
76.2322 266.00
76.5364 191.00
76.8407 235.00
77.145 231.00
77.4492 232.00
77.7535 236.00
78.0577 227.00
78.362 245.00
78.6663 237.00
78.9705 216.00
79.2748 214.00
79.579 228.00
79.8833 191.00
80.1876 245.00
80.4918 221.00
80.7961 215.00
81.1003 244.00
81.4046 250.00
81.7089 259.00
82.0131 243.00
82.3174 219.00
82.6217 183.00
82.9259 217.00
83.2302 234.00
83.5344 238.00
83.8387 226.00
84.143 249.00
84.4472 228.00
84.7515 256.00
85.0557 242.00
85.36 217.00
85.6643 208.00
85.9685 226.00
86.2728 191.00
86.577 217.00
86.8813 193.00
87.1856 208.00
87.4898 193.00
87.7941 210.00
88.0983 189.00
88.4026 209.00
88.7069 203.00
89.0111 182.00
89.3154 187.00
89.6196 220.00
89.9239 190.00
90.2282 181.00
90.5324 192.00
90.8367 218.00
91.1409 204.00
91.4452 189.00
91.7495 206.00
92.0537 192.00
92.358 176.00
92.6622 231.00
92.9665 180.00
93.2708 177.00
93.575 186.00
93.8793 218.00
94.1835 201.00
94.4878 209.00
94.7921 185.00
95.0963 200.00
95.4006 219.00
95.7048 174.00
96.0091 192.00
96.3134 188.00
96.6176 176.00
96.9219 177.00
97.2261 178.00
97.5304 184.00
97.8347 194.00
98.1389 160.00
98.4432 196.00
98.7474 210.00
99.0517 173.00
99.356 172.00
99.6602 188.00
99.9645 202.00
100.095 210.00