File: data/xrd_creation/results/NSC_165.xy
9.903433 2574.00
10.2077 2422.00
10.512 2249.00
10.8162 2236.00
11.1205 2159.00
11.4247 2018.00
11.729 1921.00
12.0333 1868.00
12.3375 1754.00
12.6418 1653.00
12.946 1602.00
13.2503 1591.00
13.5546 1534.00
13.8588 1537.00
14.1631 1383.00
14.4673 1385.00
14.7716 1321.00
15.0759 1314.00
15.3801 1264.00
15.6844 1310.00
15.9886 1225.00
16.2929 1200.00
16.5972 1187.00
16.9014 1248.00
17.2057 1188.00
17.5099 1090.00
17.8142 1147.00
18.1185 1109.00
18.4227 1055.00
18.727 1081.00
19.0312 1017.00
19.3355 980.00
19.6398 942.00
19.944 908.00
20.2483 890.00
20.5525 864.00
20.8568 873.00
21.1611 808.00
21.4653 833.00
21.7696 809.00
22.0738 852.00
22.3781 812.00
22.6824 798.00
22.9866 789.00
23.2909 750.00
23.5951 740.00
23.8994 742.00
24.2037 746.00
24.5079 744.00
24.8122 649.00
25.1164 661.00
25.4207 651.00
25.725 680.00
26.0292 643.00
26.3335 630.00
26.6378 716.00
26.942 679.00
27.2463 635.00
27.5505 610.00
27.8548 648.00
28.1591 645.00
28.4633 606.00
28.7676 595.00
29.0718 573.00
29.3761 546.00
29.6804 620.00
29.9846 560.00
30.2889 541.00
30.5931 530.00
30.8974 537.00
31.2017 507.00
31.5059 496.00
31.8102 514.00
32.1144 497.00
32.4187 448.00
32.723 465.00
33.0272 463.00
33.3315 454.00
33.6357 490.00
33.94 487.00
34.2443 405.00
34.5485 390.00
34.8528 390.00
35.157 439.00
35.4613 418.00
35.7656 412.00
36.0698 408.00
36.3741 414.00
36.6783 373.00
36.9826 406.00
37.2869 352.00
37.5911 365.00
37.8954 395.00
38.1996 379.00
38.5039 392.00
38.8082 366.00
39.1124 378.00
39.4167 349.00
39.7209 352.00
40.0252 345.00
40.3295 342.00
40.6337 337.00
40.938 353.00
41.2422 353.00
41.5465 340.00
41.8508 336.00
42.155 312.00
42.4593 323.00
42.7635 343.00
43.0678 366.00
43.3721 331.00
43.6763 318.00
43.9806 300.00
44.2849 299.00
44.5891 306.00
44.8934 300.00
45.1976 281.00
45.5019 278.00
45.8062 289.00
46.1104 297.00
46.4147 302.00
46.7189 285.00
47.0232 268.00
47.3275 277.00
47.6317 302.00
47.936 279.00
48.2402 295.00
48.5445 289.00
48.8488 266.00
49.153 260.00
49.4573 285.00
49.7615 270.00
50.0658 263.00
50.3701 248.00
50.6743 262.00
50.9786 234.00
51.2828 266.00
51.5871 246.00
51.8914 237.00
52.1956 269.00
52.4999 241.00
52.8041 248.00
53.1084 239.00
53.4127 238.00
53.7169 265.00
54.0212 218.00
54.3254 264.00
54.6297 240.00
54.934 234.00
55.2382 222.00
55.5425 259.00
55.8467 227.00
56.151 213.00
56.4553 200.00
56.7595 215.00
57.0638 211.00
57.368 215.00
57.6723 216.00
57.9766 237.00
58.2808 223.00
58.5851 203.00
58.8893 202.00
59.1936 213.00
59.4979 236.00
59.8021 218.00
60.1064 220.00
60.4106 210.00
60.7149 216.00
61.0192 207.00
61.3234 194.00
61.6277 208.00
61.932 194.00
62.2362 198.00
62.5405 230.00
62.8447 186.00
63.149 183.00
63.4533 201.00
63.7575 182.00
64.0618 195.00
64.366 229.00
64.6703 180.00
64.9745 206.00
65.2788 186.00
65.5831 205.00
65.8873 170.00
66.1916 181.00
66.4959 182.00
66.8001 169.00
67.1044 182.00
67.4086 203.00
67.7129 176.00
68.0172 211.00
68.3214 191.00
68.6257 182.00
68.9299 163.00
69.2342 192.00
69.5385 165.00
69.8427 184.00
70.147 151.00
70.4512 180.00
70.7555 162.00
71.0598 171.00
71.364 180.00
71.6683 196.00
71.9725 184.00
72.2768 177.00
72.5811 226.00
72.8853 183.00
73.1896 215.00
73.4938 204.00
73.7981 215.00
74.1024 178.00
74.4066 192.00
74.7109 200.00
75.0151 202.00
75.3194 195.00
75.6237 188.00
75.9279 187.00
76.2322 230.00
76.5364 183.00
76.8407 203.00
77.145 190.00
77.4492 186.00
77.7535 224.00
78.0577 216.00
78.362 216.00
78.6663 216.00
78.9705 199.00
79.2748 206.00
79.579 215.00
79.8833 210.00
80.1876 216.00
80.4918 219.00
80.7961 241.00
81.1003 227.00
81.4046 205.00
81.7089 222.00
82.0131 222.00
82.3174 239.00
82.6217 205.00
82.9259 214.00
83.2302 206.00
83.5344 219.00
83.8387 240.00
84.143 237.00
84.4472 220.00
84.7515 201.00
85.0557 211.00
85.36 210.00
85.6643 186.00
85.9685 182.00
86.2728 246.00
86.577 209.00
86.8813 188.00
87.1856 223.00
87.4898 179.00
87.7941 179.00
88.0983 173.00
88.4026 208.00
88.7069 176.00
89.0111 183.00
89.3154 226.00
89.6196 173.00
89.9239 178.00
90.2282 189.00
90.5324 193.00
90.8367 183.00
91.1409 173.00
91.4452 180.00
91.7495 195.00
92.0537 168.00
92.358 178.00
92.6622 204.00
92.9665 188.00
93.2708 170.00
93.575 183.00
93.8793 166.00
94.1835 198.00
94.4878 187.00
94.7921 156.00
95.0963 181.00
95.4006 185.00
95.7048 190.00
96.0091 194.00
96.3134 194.00
96.6176 181.00
96.9219 201.00
97.2261 212.00
97.5304 195.00
97.8347 176.00
98.1389 180.00
98.4432 182.00
98.7474 160.00
99.0517 168.00
99.356 175.00
99.6602 178.00
99.9645 150.00
100.095 174.00