File: data/xrd_creation/results/NSC_114.xy
9.903433 2673.00
10.2077 2551.00
10.512 2423.00
10.8162 2382.00
11.1205 2293.00
11.4247 2343.00
11.729 2114.00
12.0333 1923.00
12.3375 1847.00
12.6418 1756.00
12.946 1689.00
13.2503 1779.00
13.5546 1602.00
13.8588 1467.00
14.1631 1422.00
14.4673 1512.00
14.7716 1469.00
15.0759 1426.00
15.3801 1411.00
15.6844 2003.00
15.9886 1378.00
16.2929 1304.00
16.5972 1313.00
16.9014 1263.00
17.2057 1216.00
17.5099 1261.00
17.8142 1185.00
18.1185 1222.00
18.4227 1359.00
18.727 1142.00
19.0312 1081.00
19.3355 1042.00
19.6398 1072.00
19.944 1011.00
20.2483 1075.00
20.5525 1034.00
20.8568 1029.00
21.1611 1040.00
21.4653 888.00
21.7696 927.00
22.0738 961.00
22.3781 956.00
22.6824 920.00
22.9866 923.00
23.2909 866.00
23.5951 861.00
23.8994 872.00
24.2037 867.00
24.5079 785.00
24.8122 825.00
25.1164 848.00
25.4207 839.00
25.725 998.00
26.0292 774.00
26.3335 917.00
26.6378 901.00
26.942 778.00
27.2463 854.00
27.5505 869.00
27.8548 729.00
28.1591 891.00
28.4633 781.00
28.7676 741.00
29.0718 752.00
29.3761 721.00
29.6804 760.00
29.9846 759.00
30.2889 641.00
30.5931 670.00
30.8974 621.00
31.2017 700.00
31.5059 1024.00
31.8102 1009.00
32.1144 644.00
32.4187 566.00
32.723 685.00
33.0272 563.00
33.3315 635.00
33.6357 722.00
33.94 670.00
34.2443 582.00
34.5485 586.00
34.8528 641.00
35.157 566.00
35.4613 520.00
35.7656 476.00
36.0698 546.00
36.3741 474.00
36.6783 459.00
36.9826 488.00
37.2869 432.00
37.5911 494.00
37.8954 472.00
38.1996 498.00
38.5039 474.00
38.8082 476.00
39.1124 420.00
39.4167 414.00
39.7209 423.00
40.0252 412.00
40.3295 438.00
40.6337 448.00
40.938 424.00
41.2422 355.00
41.5465 372.00
41.8508 405.00
42.155 361.00
42.4593 385.00
42.7635 392.00
43.0678 372.00
43.3721 410.00
43.6763 425.00
43.9806 402.00
44.2849 439.00
44.5891 382.00
44.8934 391.00
45.1976 377.00
45.5019 335.00
45.8062 389.00
46.1104 303.00
46.4147 337.00
46.7189 338.00
47.0232 344.00
47.3275 326.00
47.6317 366.00
47.936 312.00
48.2402 364.00
48.5445 376.00
48.8488 321.00
49.153 314.00
49.4573 308.00
49.7615 309.00
50.0658 317.00
50.3701 341.00
50.6743 337.00
50.9786 324.00
51.2828 330.00
51.5871 399.00
51.8914 359.00
52.1956 361.00
52.4999 300.00
52.8041 346.00
53.1084 320.00
53.4127 304.00
53.7169 295.00
54.0212 286.00
54.3254 315.00
54.6297 352.00
54.934 257.00
55.2382 310.00
55.5425 266.00
55.8467 277.00
56.151 307.00
56.4553 258.00
56.7595 282.00
57.0638 322.00
57.368 264.00
57.6723 264.00
57.9766 311.00
58.2808 261.00
58.5851 264.00
58.8893 286.00
59.1936 268.00
59.4979 245.00
59.8021 261.00
60.1064 249.00
60.4106 274.00
60.7149 271.00
61.0192 210.00
61.3234 238.00
61.6277 221.00
61.932 268.00
62.2362 222.00
62.5405 250.00
62.8447 226.00
63.149 219.00
63.4533 211.00
63.7575 229.00
64.0618 237.00
64.366 231.00
64.6703 258.00
64.9745 215.00
65.2788 224.00
65.5831 245.00
65.8873 269.00
66.1916 208.00
66.4959 224.00
66.8001 204.00
67.1044 222.00
67.4086 241.00
67.7129 231.00
68.0172 222.00
68.3214 204.00
68.6257 191.00
68.9299 240.00
69.2342 207.00
69.5385 210.00
69.8427 212.00
70.147 230.00
70.4512 212.00
70.7555 195.00
71.0598 218.00
71.364 221.00
71.6683 206.00
71.9725 226.00
72.2768 235.00
72.5811 219.00
72.8853 200.00
73.1896 242.00
73.4938 203.00
73.7981 186.00
74.1024 247.00
74.4066 220.00
74.7109 216.00
75.0151 219.00
75.3194 212.00
75.6237 260.00
75.9279 222.00
76.2322 206.00
76.5364 270.00
76.8407 211.00
77.145 209.00
77.4492 242.00
77.7535 246.00
78.0577 227.00
78.362 244.00
78.6663 224.00
78.9705 249.00
79.2748 214.00
79.579 222.00
79.8833 221.00
80.1876 215.00
80.4918 247.00
80.7961 247.00
81.1003 261.00
81.4046 243.00
81.7089 245.00
82.0131 276.00
82.3174 238.00
82.6217 248.00
82.9259 245.00
83.2302 284.00
83.5344 270.00
83.8387 277.00
84.143 295.00
84.4472 226.00
84.7515 237.00
85.0557 247.00
85.36 223.00
85.6643 258.00
85.9685 236.00
86.2728 269.00
86.577 236.00
86.8813 251.00
87.1856 211.00
87.4898 224.00
87.7941 257.00
88.0983 206.00
88.4026 269.00
88.7069 221.00
89.0111 228.00
89.3154 207.00
89.6196 218.00
89.9239 213.00
90.2282 195.00
90.5324 230.00
90.8367 235.00
91.1409 229.00
91.4452 185.00
91.7495 211.00
92.0537 230.00
92.358 236.00
92.6622 211.00
92.9665 195.00
93.2708 216.00
93.575 204.00
93.8793 209.00
94.1835 217.00
94.4878 228.00
94.7921 181.00
95.0963 204.00
95.4006 215.00
95.7048 221.00
96.0091 217.00
96.3134 206.00
96.6176 201.00
96.9219 210.00
97.2261 234.00
97.5304 202.00
97.8347 200.00
98.1389 237.00
98.4432 198.00
98.7474 221.00
99.0517 193.00
99.356 218.00
99.6602 179.00
99.9645 199.00
100.095 182.00