File: data/xrd_creation/results/NSC_154.xy
9.903433 2564.00
10.2077 2414.00
10.512 2312.00
10.8162 2207.00
11.1205 2117.00
11.4247 2042.00
11.729 2253.00
12.0333 1874.00
12.3375 1836.00
12.6418 1793.00
12.946 1657.00
13.2503 1561.00
13.5546 1517.00
13.8588 1488.00
14.1631 1512.00
14.4673 1332.00
14.7716 1336.00
15.0759 1248.00
15.3801 1319.00
15.6844 1288.00
15.9886 1242.00
16.2929 1281.00
16.5972 1235.00
16.9014 1183.00
17.2057 1145.00
17.5099 1151.00
17.8142 1105.00
18.1185 1060.00
18.4227 1060.00
18.727 1029.00
19.0312 977.00
19.3355 985.00
19.6398 995.00
19.944 898.00
20.2483 938.00
20.5525 921.00
20.8568 886.00
21.1611 876.00
21.4653 863.00
21.7696 869.00
22.0738 812.00
22.3781 791.00
22.6824 799.00
22.9866 825.00
23.2909 776.00
23.5951 779.00
23.8994 761.00
24.2037 722.00
24.5079 766.00
24.8122 719.00
25.1164 682.00
25.4207 675.00
25.725 687.00
26.0292 708.00
26.3335 645.00
26.6378 662.00
26.942 672.00
27.2463 681.00
27.5505 667.00
27.8548 632.00
28.1591 613.00
28.4633 643.00
28.7676 581.00
29.0718 604.00
29.3761 623.00
29.6804 630.00
29.9846 782.00
30.2889 608.00
30.5931 591.00
30.8974 572.00
31.2017 563.00
31.5059 568.00
31.8102 557.00
32.1144 573.00
32.4187 537.00
32.723 499.00
33.0272 498.00
33.3315 626.00
33.6357 496.00
33.94 506.00
34.2443 495.00
34.5485 420.00
34.8528 429.00
35.157 404.00
35.4613 418.00
35.7656 457.00
36.0698 408.00
36.3741 397.00
36.6783 422.00
36.9826 388.00
37.2869 373.00
37.5911 347.00
37.8954 400.00
38.1996 446.00
38.5039 376.00
38.8082 411.00
39.1124 384.00
39.4167 376.00
39.7209 342.00
40.0252 367.00
40.3295 370.00
40.6337 338.00
40.938 337.00
41.2422 388.00
41.5465 324.00
41.8508 337.00
42.155 349.00
42.4593 314.00
42.7635 312.00
43.0678 307.00
43.3721 379.00
43.6763 345.00
43.9806 331.00
44.2849 357.00
44.5891 340.00
44.8934 308.00
45.1976 294.00
45.5019 296.00
45.8062 288.00
46.1104 334.00
46.4147 293.00
46.7189 330.00
47.0232 276.00
47.3275 257.00
47.6317 298.00
47.936 291.00
48.2402 330.00
48.5445 360.00
48.8488 296.00
49.153 272.00
49.4573 265.00
49.7615 289.00
50.0658 311.00
50.3701 234.00
50.6743 249.00
50.9786 270.00
51.2828 260.00
51.5871 265.00
51.8914 298.00
52.1956 303.00
52.4999 297.00
52.8041 270.00
53.1084 268.00
53.4127 266.00
53.7169 236.00
54.0212 220.00
54.3254 239.00
54.6297 256.00
54.934 268.00
55.2382 224.00
55.5425 237.00
55.8467 242.00
56.151 236.00
56.4553 241.00
56.7595 262.00
57.0638 219.00
57.368 229.00
57.6723 231.00
57.9766 269.00
58.2808 225.00
58.5851 236.00
58.8893 214.00
59.1936 222.00
59.4979 205.00
59.8021 209.00
60.1064 224.00
60.4106 221.00
60.7149 248.00
61.0192 217.00
61.3234 224.00
61.6277 180.00
61.932 195.00
62.2362 209.00
62.5405 241.00
62.8447 184.00
63.149 206.00
63.4533 180.00
63.7575 210.00
64.0618 204.00
64.366 181.00
64.6703 203.00
64.9745 193.00
65.2788 199.00
65.5831 193.00
65.8873 201.00
66.1916 196.00
66.4959 217.00
66.8001 239.00
67.1044 206.00
67.4086 205.00
67.7129 212.00
68.0172 177.00
68.3214 172.00
68.6257 167.00
68.9299 176.00
69.2342 190.00
69.5385 215.00
69.8427 197.00
70.147 206.00
70.4512 198.00
70.7555 177.00
71.0598 205.00
71.364 173.00
71.6683 199.00
71.9725 167.00
72.2768 192.00
72.5811 212.00
72.8853 199.00
73.1896 206.00
73.4938 207.00
73.7981 177.00
74.1024 197.00
74.4066 189.00
74.7109 187.00
75.0151 205.00
75.3194 209.00
75.6237 218.00
75.9279 218.00
76.2322 231.00
76.5364 223.00
76.8407 225.00
77.145 229.00
77.4492 224.00
77.7535 185.00
78.0577 208.00
78.362 220.00
78.6663 196.00
78.9705 230.00
79.2748 232.00
79.579 258.00
79.8833 202.00
80.1876 212.00
80.4918 224.00
80.7961 221.00
81.1003 248.00
81.4046 214.00
81.7089 206.00
82.0131 226.00
82.3174 241.00
82.6217 235.00
82.9259 212.00
83.2302 208.00
83.5344 194.00
83.8387 225.00
84.143 221.00
84.4472 210.00
84.7515 213.00
85.0557 219.00
85.36 196.00
85.6643 183.00
85.9685 203.00
86.2728 192.00
86.577 206.00
86.8813 210.00
87.1856 198.00
87.4898 190.00
87.7941 200.00
88.0983 212.00
88.4026 178.00
88.7069 204.00
89.0111 192.00
89.3154 187.00
89.6196 171.00
89.9239 205.00
90.2282 178.00
90.5324 188.00
90.8367 171.00
91.1409 191.00
91.4452 190.00
91.7495 177.00
92.0537 192.00
92.358 185.00
92.6622 172.00
92.9665 193.00
93.2708 168.00
93.575 191.00
93.8793 200.00
94.1835 167.00
94.4878 194.00
94.7921 224.00
95.0963 173.00
95.4006 185.00
95.7048 155.00
96.0091 167.00
96.3134 173.00
96.6176 174.00
96.9219 170.00
97.2261 191.00
97.5304 190.00
97.8347 182.00
98.1389 178.00
98.4432 170.00
98.7474 187.00
99.0517 177.00
99.356 162.00
99.6602 175.00
99.9645 197.00
100.095 190.00