File: data/xrd_creation/results/NSC_24.xy
9.903433 2962.00
10.2077 2896.00
10.512 2670.00
10.8162 2637.00
11.1205 2560.00
11.4247 2454.00
11.729 2568.00
12.0333 2464.00
12.3375 2367.00
12.6418 2343.00
12.946 2246.00
13.2503 2241.00
13.5546 2338.00
13.8588 2231.00
14.1631 2209.00
14.4673 2316.00
14.7716 2321.00
15.0759 2125.00
15.3801 2004.00
15.6844 2112.00
15.9886 2029.00
16.2929 2026.00
16.5972 2050.00
16.9014 2205.00
17.2057 2038.00
17.5099 2030.00
17.8142 1920.00
18.1185 1845.00
18.4227 1810.00
18.727 1867.00
19.0312 1988.00
19.3355 4051.00
19.6398 2605.00
19.944 1796.00
20.2483 1658.00
20.5525 1764.00
20.8568 1832.00
21.1611 2026.00
21.4653 1916.00
21.7696 1762.00
22.0738 1791.00
22.3781 2312.00
22.6824 2349.00
22.9866 1789.00
23.2909 1669.00
23.5951 1562.00
23.8994 1878.00
24.2037 2048.00
24.5079 1983.00
24.8122 1631.00
25.1164 1612.00
25.4207 1522.00
25.725 1592.00
26.0292 1439.00
26.3335 1451.00
26.6378 1718.00
26.942 1723.00
27.2463 1720.00
27.5505 2351.00
27.8548 1914.00
28.1591 4617.00
28.4633 2532.00
28.7676 1469.00
29.0718 1462.00
29.3761 2159.00
29.6804 1589.00
29.9846 1867.00
30.2889 1571.00
30.5931 1994.00
30.8974 3409.00
31.2017 2720.00
31.5059 3861.00
31.8102 1767.00
32.1144 1462.00
32.4187 1446.00
32.723 1462.00
33.0272 1910.00
33.3315 1582.00
33.6357 1926.00
33.94 3960.00
34.2443 3129.00
34.5485 1912.00
34.8528 1917.00
35.157 1632.00
35.4613 1620.00
35.7656 1263.00
36.0698 1215.00
36.3741 1129.00
36.6783 1203.00
36.9826 1251.00
37.2869 1520.00
37.5911 1117.00
37.8954 1093.00
38.1996 1138.00
38.5039 1217.00
38.8082 1236.00
39.1124 1158.00
39.4167 1337.00
39.7209 1188.00
40.0252 1134.00
40.3295 1085.00
40.6337 1448.00
40.938 1602.00
41.2422 1644.00
41.5465 1328.00
41.8508 1162.00
42.155 1137.00
42.4593 1110.00
42.7635 1176.00
43.0678 1057.00
43.3721 1133.00
43.6763 1075.00
43.9806 1207.00
44.2849 1586.00
44.5891 1394.00
44.8934 1363.00
45.1976 1133.00
45.5019 1316.00
45.8062 1205.00
46.1104 1198.00
46.4147 1680.00
46.7189 1641.00
47.0232 1150.00
47.3275 1006.00
47.6317 1017.00
47.936 1087.00
48.2402 1204.00
48.5445 1093.00
48.8488 1226.00
49.153 1453.00
49.4573 1920.00
49.7615 1139.00
50.0658 1598.00
50.3701 1876.00
50.6743 1490.00
50.9786 1395.00
51.2828 1401.00
51.5871 1170.00
51.8914 1080.00
52.1956 1179.00
52.4999 1169.00
52.8041 1646.00
53.1084 1266.00
53.4127 1086.00
53.7169 1136.00
54.0212 1311.00
54.3254 1176.00
54.6297 958.00
54.934 1010.00
55.2382 1279.00
55.5425 1470.00
55.8467 1207.00
56.151 1189.00
56.4553 990.00
56.7595 1029.00
57.0638 1195.00
57.368 1267.00
57.6723 1007.00
57.9766 1139.00
58.2808 1238.00
58.5851 1275.00
58.8893 1605.00
59.1936 1166.00
59.4979 1062.00
59.8021 1280.00
60.1064 1356.00
60.4106 1305.00
60.7149 1301.00
61.0192 1225.00
61.3234 1143.00
61.6277 1048.00
61.932 1156.00
62.2362 1128.00
62.5405 1058.00
62.8447 1329.00
63.149 1012.00
63.4533 869.00
63.7575 890.00
64.0618 993.00
64.366 1035.00
64.6703 905.00
64.9745 844.00
65.2788 957.00
65.5831 1306.00
65.8873 1406.00
66.1916 1043.00
66.4959 933.00
66.8001 866.00
67.1044 824.00
67.4086 842.00
67.7129 909.00
68.0172 877.00
68.3214 854.00
68.6257 836.00
68.9299 894.00
69.2342 881.00
69.5385 840.00
69.8427 798.00
70.147 765.00
70.4512 840.00
70.7555 817.00
71.0598 1111.00
71.364 1056.00
71.6683 946.00
71.9725 959.00
72.2768 894.00
72.5811 909.00
72.8853 783.00
73.1896 770.00
73.4938 868.00
73.7981 806.00
74.1024 790.00
74.4066 867.00
74.7109 910.00
75.0151 856.00
75.3194 938.00
75.6237 856.00
75.9279 808.00
76.2322 889.00
76.5364 924.00
76.8407 836.00
77.145 790.00
77.4492 822.00
77.7535 793.00
78.0577 747.00
78.362 747.00
78.6663 748.00
78.9705 835.00
79.2748 892.00
79.579 1026.00
79.8833 867.00
80.1876 823.00
80.4918 794.00
80.7961 762.00
81.1003 792.00
81.4046 916.00
81.7089 907.00
82.0131 801.00
82.3174 752.00
82.6217 822.00
82.9259 840.00
83.2302 876.00
83.5344 846.00
83.8387 849.00
84.143 834.00
84.4472 782.00
84.7515 761.00
85.0557 732.00
85.36 753.00
85.6643 713.00
85.9685 800.00
86.2728 866.00
86.577 842.00
86.8813 798.00
87.1856 826.00
87.4898 861.00
87.7941 858.00
88.0983 914.00
88.4026 851.00
88.7069 852.00
89.0111 820.00
89.3154 831.00
89.6196 844.00
89.9239 821.00
90.2282 828.00
90.5324 722.00
90.8367 822.00
91.1409 798.00
91.4452 732.00
91.7495 709.00
92.0537 702.00
92.358 714.00
92.6622 716.00
92.9665 771.00
93.2708 766.00
93.575 741.00
93.8793 764.00
94.1835 784.00
94.4878 735.00
94.7921 784.00
95.0963 757.00
95.4006 805.00
95.7048 797.00
96.0091 795.00
96.3134 820.00
96.6176 849.00
96.9219 846.00
97.2261 778.00
97.5304 701.00
97.8347 640.00
98.1389 719.00
98.4432 725.00
98.7474 761.00
99.0517 973.00
99.356 929.00
99.6602 782.00
99.9645 770.00
100.095 798.00