File: data/xrd_creation/results/NSC_214.xy
9.903433 2688.00
10.2077 2556.00
10.512 2571.00
10.8162 2362.00
11.1205 2331.00
11.4247 2191.00
11.729 2026.00
12.0333 1993.00
12.3375 1969.00
12.6418 1913.00
12.946 1774.00
13.2503 1725.00
13.5546 1626.00
13.8588 1743.00
14.1631 1715.00
14.4673 1593.00
14.7716 1609.00
15.0759 1596.00
15.3801 1524.00
15.6844 1485.00
15.9886 1494.00
16.2929 1498.00
16.5972 1412.00
16.9014 1513.00
17.2057 1495.00
17.5099 1769.00
17.8142 1396.00
18.1185 1352.00
18.4227 1417.00
18.727 1257.00
19.0312 1304.00
19.3355 1265.00
19.6398 1279.00
19.944 1650.00
20.2483 1401.00
20.5525 1340.00
20.8568 1275.00
21.1611 1217.00
21.4653 1220.00
21.7696 1222.00
22.0738 1258.00
22.3781 1185.00
22.6824 1104.00
22.9866 1122.00
23.2909 1096.00
23.5951 1160.00
23.8994 1334.00
24.2037 1761.00
24.5079 1783.00
24.8122 1156.00
25.1164 1497.00
25.4207 1463.00
25.725 1060.00
26.0292 1007.00
26.3335 1127.00
26.6378 989.00
26.942 986.00
27.2463 978.00
27.5505 1084.00
27.8548 1275.00
28.1591 4086.00
28.4633 2672.00
28.7676 1118.00
29.0718 966.00
29.3761 927.00
29.6804 920.00
29.9846 975.00
30.2889 952.00
30.5931 933.00
30.8974 1017.00
31.2017 1428.00
31.5059 3498.00
31.8102 1921.00
32.1144 926.00
32.4187 859.00
32.723 986.00
33.0272 1063.00
33.3315 924.00
33.6357 850.00
33.94 1005.00
34.2443 1951.00
34.5485 1745.00
34.8528 915.00
35.157 1032.00
35.4613 1617.00
35.7656 878.00
36.0698 914.00
36.3741 663.00
36.6783 664.00
36.9826 718.00
37.2869 665.00
37.5911 724.00
37.8954 725.00
38.1996 688.00
38.5039 820.00
38.8082 918.00
39.1124 581.00
39.4167 620.00
39.7209 576.00
40.0252 631.00
40.3295 590.00
40.6337 728.00
40.938 1019.00
41.2422 796.00
41.5465 761.00
41.8508 568.00
42.155 536.00
42.4593 491.00
42.7635 573.00
43.0678 540.00
43.3721 551.00
43.6763 503.00
43.9806 514.00
44.2849 450.00
44.5891 564.00
44.8934 609.00
45.1976 654.00
45.5019 596.00
45.8062 665.00
46.1104 532.00
46.4147 558.00
46.7189 498.00
47.0232 541.00
47.3275 537.00
47.6317 493.00
47.936 707.00
48.2402 567.00
48.5445 484.00
48.8488 485.00
49.153 714.00
49.4573 890.00
49.7615 656.00
50.0658 736.00
50.3701 1130.00
50.6743 819.00
50.9786 671.00
51.2828 566.00
51.5871 630.00
51.8914 462.00
52.1956 451.00
52.4999 547.00
52.8041 483.00
53.1084 455.00
53.4127 433.00
53.7169 523.00
54.0212 620.00
54.3254 702.00
54.6297 601.00
54.934 592.00
55.2382 571.00
55.5425 775.00
55.8467 891.00
56.151 634.00
56.4553 547.00
56.7595 444.00
57.0638 458.00
57.368 561.00
57.6723 527.00
57.9766 459.00
58.2808 574.00
58.5851 571.00
58.8893 438.00
59.1936 417.00
59.4979 436.00
59.8021 500.00
60.1064 616.00
60.4106 647.00
60.7149 405.00
61.0192 422.00
61.3234 446.00
61.6277 504.00
61.932 542.00
62.2362 598.00
62.5405 638.00
62.8447 532.00
63.149 540.00
63.4533 496.00
63.7575 377.00
64.0618 408.00
64.366 374.00
64.6703 405.00
64.9745 376.00
65.2788 397.00
65.5831 457.00
65.8873 506.00
66.1916 526.00
66.4959 382.00
66.8001 362.00
67.1044 354.00
67.4086 344.00
67.7129 329.00
68.0172 332.00
68.3214 316.00
68.6257 322.00
68.9299 333.00
69.2342 316.00
69.5385 383.00
69.8427 348.00
70.147 397.00
70.4512 340.00
70.7555 330.00
71.0598 361.00
71.364 359.00
71.6683 466.00
71.9725 368.00
72.2768 323.00
72.5811 376.00
72.8853 380.00
73.1896 353.00
73.4938 346.00
73.7981 315.00
74.1024 337.00
74.4066 357.00
74.7109 378.00
75.0151 441.00
75.3194 409.00
75.6237 411.00
75.9279 374.00
76.2322 394.00
76.5364 330.00
76.8407 370.00
77.145 347.00
77.4492 379.00
77.7535 373.00
78.0577 356.00
78.362 326.00
78.6663 366.00
78.9705 383.00
79.2748 381.00
79.579 377.00
79.8833 359.00
80.1876 327.00
80.4918 394.00
80.7961 386.00
81.1003 334.00
81.4046 364.00
81.7089 372.00
82.0131 417.00
82.3174 405.00
82.6217 372.00
82.9259 392.00
83.2302 406.00
83.5344 401.00
83.8387 399.00
84.143 379.00
84.4472 402.00
84.7515 397.00
85.0557 328.00
85.36 341.00
85.6643 331.00
85.9685 318.00
86.2728 304.00
86.577 349.00
86.8813 321.00
87.1856 330.00
87.4898 316.00
87.7941 301.00
88.0983 376.00
88.4026 357.00
88.7069 345.00
89.0111 356.00
89.3154 368.00
89.6196 359.00
89.9239 323.00
90.2282 346.00
90.5324 393.00
90.8367 332.00
91.1409 310.00
91.4452 336.00
91.7495 347.00
92.0537 310.00
92.358 311.00
92.6622 323.00
92.9665 306.00
93.2708 294.00
93.575 307.00
93.8793 296.00
94.1835 328.00
94.4878 311.00
94.7921 316.00
95.0963 309.00
95.4006 359.00
95.7048 323.00
96.0091 336.00
96.3134 340.00
96.6176 333.00
96.9219 367.00
97.2261 332.00
97.5304 359.00
97.8347 352.00
98.1389 349.00
98.4432 304.00
98.7474 338.00
99.0517 296.00
99.356 345.00
99.6602 314.00
99.9645 364.00
100.095 356.00