File: data/xrd_creation/results/NSC_148.xy
9.903433 2655.00
10.2077 2605.00
10.512 2433.00
10.8162 2415.00
11.1205 2366.00
11.4247 2193.00
11.729 2163.00
12.0333 2127.00
12.3375 1991.00
12.6418 1934.00
12.946 1902.00
13.2503 1920.00
13.5546 2363.00
13.8588 2626.00
14.1631 1764.00
14.4673 1779.00
14.7716 2168.00
15.0759 1794.00
15.3801 1579.00
15.6844 1729.00
15.9886 1562.00
16.2929 1552.00
16.5972 1535.00
16.9014 1516.00
17.2057 1468.00
17.5099 1554.00
17.8142 1416.00
18.1185 1389.00
18.4227 1412.00
18.727 1448.00
19.0312 2084.00
19.3355 11795.00
19.6398 8816.00
19.944 1619.00
20.2483 1303.00
20.5525 1405.00
20.8568 1938.00
21.1611 1279.00
21.4653 1278.00
21.7696 1293.00
22.0738 1510.00
22.3781 1235.00
22.6824 1569.00
22.9866 1598.00
23.2909 1131.00
23.5951 1145.00
23.8994 1291.00
24.2037 1323.00
24.5079 1165.00
24.8122 1162.00
25.1164 1079.00
25.4207 1320.00
25.725 1381.00
26.0292 1055.00
26.3335 1031.00
26.6378 1013.00
26.942 1016.00
27.2463 1133.00
27.5505 4121.00
27.8548 2098.00
28.1591 1525.00
28.4633 2081.00
28.7676 1061.00
29.0718 989.00
29.3761 1048.00
29.6804 987.00
29.9846 1618.00
30.2889 1313.00
30.5931 1239.00
30.8974 3892.00
31.2017 7327.00
31.5059 1828.00
31.8102 1832.00
32.1144 990.00
32.4187 1081.00
32.723 1388.00
33.0272 1030.00
33.3315 964.00
33.6357 1578.00
33.94 11781.00
34.2443 2667.00
34.5485 1446.00
34.8528 1102.00
35.157 911.00
35.4613 1146.00
35.7656 952.00
36.0698 1011.00
36.3741 781.00
36.6783 791.00
36.9826 794.00
37.2869 883.00
37.5911 742.00
37.8954 774.00
38.1996 772.00
38.5039 856.00
38.8082 826.00
39.1124 911.00
39.4167 1737.00
39.7209 1640.00
40.0252 796.00
40.3295 775.00
40.6337 738.00
40.938 933.00
41.2422 1509.00
41.5465 942.00
41.8508 1330.00
42.155 1729.00
42.4593 1202.00
42.7635 795.00
43.0678 775.00
43.3721 831.00
43.6763 704.00
43.9806 830.00
44.2849 3713.00
44.5891 2495.00
44.8934 919.00
45.1976 892.00
45.5019 795.00
45.8062 876.00
46.1104 1009.00
46.4147 1370.00
46.7189 4645.00
47.0232 1926.00
47.3275 786.00
47.6317 700.00
47.936 709.00
48.2402 899.00
48.5445 926.00
48.8488 1330.00
49.153 948.00
49.4573 1006.00
49.7615 857.00
50.0658 816.00
50.3701 1202.00
50.6743 1159.00
50.9786 1470.00
51.2828 3097.00
51.5871 874.00
51.8914 823.00
52.1956 792.00
52.4999 890.00
52.8041 3531.00
53.1084 3303.00
53.4127 856.00
53.7169 640.00
54.0212 778.00
54.3254 935.00
54.6297 808.00
54.934 656.00
55.2382 678.00
55.5425 857.00
55.8467 873.00
56.151 755.00
56.4553 770.00
56.7595 800.00
57.0638 1089.00
57.368 836.00
57.6723 838.00
57.9766 831.00
58.2808 842.00
58.5851 1043.00
58.8893 4068.00
59.1936 2941.00
59.4979 1484.00
59.8021 878.00
60.1064 792.00
60.4106 939.00
60.7149 2341.00
61.0192 1271.00
61.3234 898.00
61.6277 742.00
61.932 776.00
62.2362 856.00
62.5405 906.00
62.8447 1529.00
63.149 1459.00
63.4533 958.00
63.7575 718.00
64.0618 757.00
64.366 1405.00
64.6703 854.00
64.9745 711.00
65.2788 642.00
65.5831 853.00
65.8873 1045.00
66.1916 1349.00
66.4959 1836.00
66.8001 1618.00
67.1044 814.00
67.4086 651.00
67.7129 818.00
68.0172 1378.00
68.3214 765.00
68.6257 774.00
68.9299 742.00
69.2342 742.00
69.5385 735.00
69.8427 676.00
70.147 651.00
70.4512 637.00
70.7555 662.00
71.0598 779.00
71.364 1679.00
71.6683 1087.00
71.9725 747.00
72.2768 723.00
72.5811 672.00
72.8853 759.00
73.1896 793.00
73.4938 987.00
73.7981 1049.00
74.1024 673.00
74.4066 685.00
74.7109 1489.00
75.0151 1041.00
75.3194 806.00
75.6237 844.00
75.9279 719.00
76.2322 640.00
76.5364 1045.00
76.8407 1096.00
77.145 862.00
77.4492 742.00
77.7535 743.00
78.0577 727.00
78.362 643.00
78.6663 660.00
78.9705 645.00
79.2748 658.00
79.579 839.00
79.8833 1519.00
80.1876 1294.00
80.4918 1036.00
80.7961 779.00
81.1003 753.00
81.4046 1062.00
81.7089 951.00
82.0131 741.00
82.3174 724.00
82.6217 667.00
82.9259 733.00
83.2302 670.00
83.5344 747.00
83.8387 684.00
84.143 604.00
84.4472 704.00
84.7515 766.00
85.0557 701.00
85.36 702.00
85.6643 631.00
85.9685 693.00
86.2728 761.00
86.577 1221.00
86.8813 1127.00
87.1856 878.00
87.4898 813.00
87.7941 885.00
88.0983 912.00
88.4026 831.00
88.7069 775.00
89.0111 811.00
89.3154 840.00
89.6196 990.00
89.9239 971.00
90.2282 913.00
90.5324 756.00
90.8367 719.00
91.1409 939.00
91.4452 917.00
91.7495 701.00
92.0537 690.00
92.358 727.00
92.6622 740.00
92.9665 954.00
93.2708 1122.00
93.575 945.00
93.8793 649.00
94.1835 799.00
94.4878 1034.00
94.7921 912.00
95.0963 808.00
95.4006 816.00
95.7048 896.00
96.0091 798.00
96.3134 658.00
96.6176 642.00
96.9219 678.00
97.2261 703.00
97.5304 668.00
97.8347 766.00
98.1389 680.00
98.4432 723.00
98.7474 743.00
99.0517 723.00
99.356 1269.00
99.6602 1341.00
99.9645 1188.00
100.095 1011.00