File: data/xrd_creation/results/NSC_62.xy
9.903433 2688.00
10.2077 2737.00
10.512 2599.00
10.8162 2537.00
11.1205 2376.00
11.4247 2315.00
11.729 2163.00
12.0333 2131.00
12.3375 2128.00
12.6418 2046.00
12.946 1984.00
13.2503 1911.00
13.5546 1973.00
13.8588 2209.00
14.1631 2531.00
14.4673 1836.00
14.7716 1790.00
15.0759 1801.00
15.3801 1781.00
15.6844 2155.00
15.9886 1976.00
16.2929 1643.00
16.5972 1623.00
16.9014 1621.00
17.2057 1612.00
17.5099 1549.00
17.8142 1575.00
18.1185 1424.00
18.4227 1523.00
18.727 1485.00
19.0312 1531.00
19.3355 1691.00
19.6398 2593.00
19.944 2994.00
20.2483 1869.00
20.5525 1564.00
20.8568 1460.00
21.1611 1362.00
21.4653 1486.00
21.7696 1584.00
22.0738 1424.00
22.3781 1544.00
22.6824 1831.00
22.9866 1782.00
23.2909 2010.00
23.5951 1387.00
23.8994 1282.00
24.2037 1321.00
24.5079 1485.00
24.8122 1347.00
25.1164 1182.00
25.4207 1218.00
25.725 1226.00
26.0292 1108.00
26.3335 1081.00
26.6378 1173.00
26.942 1224.00
27.2463 1117.00
27.5505 1147.00
27.8548 1296.00
28.1591 2003.00
28.4633 1465.00
28.7676 1249.00
29.0718 1101.00
29.3761 1042.00
29.6804 1093.00
29.9846 1294.00
30.2889 1469.00
30.5931 2421.00
30.8974 2916.00
31.2017 2236.00
31.5059 4055.00
31.8102 1550.00
32.1144 1662.00
32.4187 1441.00
32.723 1294.00
33.0272 1294.00
33.3315 1072.00
33.6357 1037.00
33.94 1054.00
34.2443 1030.00
34.5485 1546.00
34.8528 3052.00
35.157 1737.00
35.4613 1317.00
35.7656 1439.00
36.0698 908.00
36.3741 846.00
36.6783 963.00
36.9826 809.00
37.2869 836.00
37.5911 723.00
37.8954 847.00
38.1996 905.00
38.5039 760.00
38.8082 796.00
39.1124 733.00
39.4167 762.00
39.7209 756.00
40.0252 821.00
40.3295 782.00
40.6337 921.00
40.938 732.00
41.2422 684.00
41.5465 690.00
41.8508 860.00
42.155 1108.00
42.4593 1216.00
42.7635 1180.00
43.0678 968.00
43.3721 762.00
43.6763 689.00
43.9806 662.00
44.2849 657.00
44.5891 720.00
44.8934 887.00
45.1976 985.00
45.5019 1230.00
45.8062 1001.00
46.1104 806.00
46.4147 691.00
46.7189 775.00
47.0232 931.00
47.3275 1177.00
47.6317 1962.00
47.936 914.00
48.2402 624.00
48.5445 611.00
48.8488 727.00
49.153 879.00
49.4573 761.00
49.7615 633.00
50.0658 807.00
50.3701 658.00
50.6743 613.00
50.9786 1127.00
51.2828 1690.00
51.5871 1341.00
51.8914 823.00
52.1956 617.00
52.4999 638.00
52.8041 613.00
53.1084 623.00
53.4127 650.00
53.7169 646.00
54.0212 858.00
54.3254 1392.00
54.6297 1251.00
54.934 596.00
55.2382 590.00
55.5425 596.00
55.8467 686.00
56.151 771.00
56.4553 642.00
56.7595 750.00
57.0638 822.00
57.368 680.00
57.6723 591.00
57.9766 606.00
58.2808 544.00
58.5851 554.00
58.8893 661.00
59.1936 785.00
59.4979 809.00
59.8021 907.00
60.1064 1114.00
60.4106 1270.00
60.7149 1127.00
61.0192 1015.00
61.3234 745.00
61.6277 811.00
61.932 669.00
62.2362 877.00
62.5405 1013.00
62.8447 727.00
63.149 738.00
63.4533 615.00
63.7575 794.00
64.0618 699.00
64.366 508.00
64.6703 586.00
64.9745 550.00
65.2788 595.00
65.5831 508.00
65.8873 518.00
66.1916 738.00
66.4959 600.00
66.8001 601.00
67.1044 593.00
67.4086 676.00
67.7129 702.00
68.0172 601.00
68.3214 619.00
68.6257 460.00
68.9299 514.00
69.2342 457.00
69.5385 568.00
69.8427 691.00
70.147 557.00
70.4512 482.00
70.7555 492.00
71.0598 474.00
71.364 475.00
71.6683 481.00
71.9725 446.00
72.2768 430.00
72.5811 422.00
72.8853 467.00
73.1896 425.00
73.4938 621.00
73.7981 569.00
74.1024 539.00
74.4066 514.00
74.7109 477.00
75.0151 525.00
75.3194 596.00
75.6237 526.00
75.9279 485.00
76.2322 480.00
76.5364 526.00
76.8407 528.00
77.145 627.00
77.4492 462.00
77.7535 486.00
78.0577 503.00
78.362 487.00
78.6663 495.00
78.9705 406.00
79.2748 503.00
79.579 435.00
79.8833 418.00
80.1876 418.00
80.4918 444.00
80.7961 500.00
81.1003 504.00
81.4046 511.00
81.7089 504.00
82.0131 687.00
82.3174 604.00
82.6217 492.00
82.9259 442.00
83.2302 535.00
83.5344 522.00
83.8387 463.00
84.143 459.00
84.4472 368.00
84.7515 428.00
85.0557 391.00
85.36 420.00
85.6643 425.00
85.9685 477.00
86.2728 455.00
86.577 399.00
86.8813 451.00
87.1856 493.00
87.4898 478.00
87.7941 428.00
88.0983 476.00
88.4026 524.00
88.7069 505.00
89.0111 478.00
89.3154 469.00
89.6196 451.00
89.9239 457.00
90.2282 426.00
90.5324 439.00
90.8367 441.00
91.1409 483.00
91.4452 423.00
91.7495 479.00
92.0537 447.00
92.358 471.00
92.6622 470.00
92.9665 443.00
93.2708 432.00
93.575 466.00
93.8793 453.00
94.1835 474.00
94.4878 432.00
94.7921 447.00
95.0963 489.00
95.4006 569.00
95.7048 513.00
96.0091 464.00
96.3134 405.00
96.6176 460.00
96.9219 436.00
97.2261 488.00
97.5304 503.00
97.8347 523.00
98.1389 488.00
98.4432 483.00
98.7474 396.00
99.0517 434.00
99.356 401.00
99.6602 461.00
99.9645 397.00
100.095 406.00