File: data/xrd_creation/results/NSC_19.xy
9.903433 2907.00
10.2077 2722.00
10.512 2588.00
10.8162 2541.00
11.1205 2483.00
11.4247 2422.00
11.729 2273.00
12.0333 2274.00
12.3375 2208.00
12.6418 2091.00
12.946 2029.00
13.2503 1969.00
13.5546 1939.00
13.8588 2043.00
14.1631 2369.00
14.4673 3321.00
14.7716 2072.00
15.0759 2089.00
15.3801 2447.00
15.6844 1844.00
15.9886 1915.00
16.2929 1856.00
16.5972 1791.00
16.9014 1696.00
17.2057 1805.00
17.5099 1812.00
17.8142 1691.00
18.1185 1760.00
18.4227 1668.00
18.727 1736.00
19.0312 1733.00
19.3355 1754.00
19.6398 2677.00
19.944 6077.00
20.2483 2178.00
20.5525 6302.00
20.8568 4438.00
21.1611 2651.00
21.4653 1772.00
21.7696 2147.00
22.0738 3693.00
22.3781 1896.00
22.6824 1576.00
22.9866 1650.00
23.2909 1769.00
23.5951 2929.00
23.8994 6949.00
24.2037 1830.00
24.5079 1635.00
24.8122 1596.00
25.1164 2025.00
25.4207 4175.00
25.725 1605.00
26.0292 1462.00
26.3335 2072.00
26.6378 1448.00
26.942 1467.00
27.2463 1296.00
27.5505 1321.00
27.8548 1374.00
28.1591 1484.00
28.4633 2960.00
28.7676 4010.00
29.0718 1472.00
29.3761 1259.00
29.6804 1326.00
29.9846 1313.00
30.2889 1661.00
30.5931 2747.00
30.8974 1632.00
31.2017 1747.00
31.5059 6238.00
31.8102 4386.00
32.1144 1703.00
32.4187 1298.00
32.723 1302.00
33.0272 1503.00
33.3315 2459.00
33.6357 2805.00
33.94 1625.00
34.2443 1577.00
34.5485 1312.00
34.8528 1247.00
35.157 1530.00
35.4613 2752.00
35.7656 3392.00
36.0698 2578.00
36.3741 1489.00
36.6783 1123.00
36.9826 1122.00
37.2869 1075.00
37.5911 1161.00
37.8954 1406.00
38.1996 1424.00
38.5039 1884.00
38.8082 1433.00
39.1124 1075.00
39.4167 1081.00
39.7209 1311.00
40.0252 1402.00
40.3295 1173.00
40.6337 1143.00
40.938 1149.00
41.2422 1126.00
41.5465 1546.00
41.8508 1533.00
42.155 1342.00
42.4593 1266.00
42.7635 1073.00
43.0678 1148.00
43.3721 1724.00
43.6763 1387.00
43.9806 1265.00
44.2849 1238.00
44.5891 1167.00
44.8934 1280.00
45.1976 2184.00
45.5019 1713.00
45.8062 1252.00
46.1104 1454.00
46.4147 1930.00
46.7189 1528.00
47.0232 1505.00
47.3275 1171.00
47.6317 1150.00
47.936 1421.00
48.2402 2859.00
48.5445 2251.00
48.8488 1475.00
49.153 1294.00
49.4573 1296.00
49.7615 1545.00
50.0658 1217.00
50.3701 1064.00
50.6743 1150.00
50.9786 1301.00
51.2828 1468.00
51.5871 2510.00
51.8914 2385.00
52.1956 1459.00
52.4999 1198.00
52.8041 1175.00
53.1084 1049.00
53.4127 1028.00
53.7169 1063.00
54.0212 1013.00
54.3254 1254.00
54.6297 1653.00
54.934 1685.00
55.2382 1456.00
55.5425 2105.00
55.8467 2557.00
56.151 1885.00
56.4553 1273.00
56.7595 1112.00
57.0638 1208.00
57.368 1209.00
57.6723 1095.00
57.9766 1163.00
58.2808 1373.00
58.5851 1586.00
58.8893 1340.00
59.1936 1301.00
59.4979 1141.00
59.8021 1384.00
60.1064 1909.00
60.4106 1940.00
60.7149 1511.00
61.0192 1219.00
61.3234 1665.00
61.6277 1744.00
61.932 1509.00
62.2362 1363.00
62.5405 1379.00
62.8447 1373.00
63.149 1315.00
63.4533 1259.00
63.7575 1365.00
64.0618 1614.00
64.366 1650.00
64.6703 1401.00
64.9745 1120.00
65.2788 1243.00
65.5831 1302.00
65.8873 1311.00
66.1916 1676.00
66.4959 1644.00
66.8001 1221.00
67.1044 1132.00
67.4086 1215.00
67.7129 1332.00
68.0172 1245.00
68.3214 1244.00
68.6257 1165.00
68.9299 1230.00
69.2342 1355.00
69.5385 1231.00
69.8427 1069.00
70.147 1110.00
70.4512 1163.00
70.7555 1181.00
71.0598 1206.00
71.364 1338.00
71.6683 1213.00
71.9725 1120.00
72.2768 1039.00
72.5811 1000.00
72.8853 1069.00
73.1896 1018.00
73.4938 1111.00
73.7981 1160.00
74.1024 1220.00
74.4066 1130.00
74.7109 1162.00
75.0151 1145.00
75.3194 1332.00
75.6237 1356.00
75.9279 1214.00
76.2322 1127.00
76.5364 1035.00
76.8407 1037.00
77.145 1188.00
77.4492 1114.00
77.7535 1152.00
78.0577 1062.00
78.362 1034.00
78.6663 1050.00
78.9705 1252.00
79.2748 1333.00
79.579 1207.00
79.8833 1090.00
80.1876 1072.00
80.4918 1024.00
80.7961 1056.00
81.1003 1122.00
81.4046 1132.00
81.7089 1124.00
82.0131 1106.00
82.3174 1051.00
82.6217 966.00
82.9259 968.00
83.2302 970.00
83.5344 1154.00
83.8387 1171.00
84.143 1090.00
84.4472 1105.00
84.7515 1158.00
85.0557 1117.00
85.36 1111.00
85.6643 1144.00
85.9685 1169.00
86.2728 1172.00
86.577 1135.00
86.8813 1135.00
87.1856 1081.00
87.4898 1083.00
87.7941 1047.00
88.0983 1069.00
88.4026 1085.00
88.7069 1052.00
89.0111 1042.00
89.3154 1084.00
89.6196 1242.00
89.9239 1136.00
90.2282 1133.00
90.5324 1111.00
90.8367 1003.00
91.1409 1082.00
91.4452 1102.00
91.7495 1162.00
92.0537 1181.00
92.358 1209.00
92.6622 1145.00
92.9665 1198.00
93.2708 1084.00
93.575 1085.00
93.8793 1088.00
94.1835 1172.00
94.4878 1046.00
94.7921 1099.00
95.0963 1167.00
95.4006 1158.00
95.7048 1162.00
96.0091 1104.00
96.3134 1173.00
96.6176 1233.00
96.9219 1111.00
97.2261 1083.00
97.5304 1064.00
97.8347 1067.00
98.1389 1065.00
98.4432 1099.00
98.7474 1055.00
99.0517 1037.00
99.356 1033.00
99.6602 1133.00
99.9645 1050.00
100.095 1158.00