File: data/xrd_creation/results/NSC_123.xy
9.903433 2662.00
10.2077 2628.00
10.512 2517.00
10.8162 2395.00
11.1205 2253.00
11.4247 2195.00
11.729 2094.00
12.0333 2028.00
12.3375 1950.00
12.6418 1899.00
12.946 1922.00
13.2503 1785.00
13.5546 1713.00
13.8588 1719.00
14.1631 1890.00
14.4673 2394.00
14.7716 1953.00
15.0759 1630.00
15.3801 1633.00
15.6844 1534.00
15.9886 1619.00
16.2929 1562.00
16.5972 1479.00
16.9014 1506.00
17.2057 1515.00
17.5099 1478.00
17.8142 1406.00
18.1185 1481.00
18.4227 1409.00
18.727 1367.00
19.0312 1389.00
19.3355 1383.00
19.6398 1791.00
19.944 3743.00
20.2483 4050.00
20.5525 1589.00
20.8568 2845.00
21.1611 13426.00
21.4653 1539.00
21.7696 1365.00
22.0738 1394.00
22.3781 1312.00
22.6824 1371.00
22.9866 1134.00
23.2909 1118.00
23.5951 1155.00
23.8994 1465.00
24.2037 3511.00
24.5079 1524.00
24.8122 1064.00
25.1164 1035.00
25.4207 1060.00
25.725 988.00
26.0292 1005.00
26.3335 1000.00
26.6378 933.00
26.942 911.00
27.2463 934.00
27.5505 904.00
27.8548 887.00
28.1591 860.00
28.4633 892.00
28.7676 1020.00
29.0718 2362.00
29.3761 2776.00
29.6804 874.00
29.9846 909.00
30.2889 859.00
30.5931 840.00
30.8974 810.00
31.2017 863.00
31.5059 965.00
31.8102 1754.00
32.1144 13143.00
32.4187 1132.00
32.723 1598.00
33.0272 770.00
33.3315 791.00
33.6357 725.00
33.94 748.00
34.2443 864.00
34.5485 853.00
34.8528 729.00
35.157 655.00
35.4613 737.00
35.7656 720.00
36.0698 1404.00
36.3741 2390.00
36.6783 1752.00
36.9826 2765.00
37.2869 770.00
37.5911 665.00
37.8954 655.00
38.1996 618.00
38.5039 651.00
38.8082 954.00
39.1124 597.00
39.4167 569.00
39.7209 555.00
40.0252 590.00
40.3295 635.00
40.6337 1444.00
40.938 613.00
41.2422 595.00
41.5465 556.00
41.8508 622.00
42.155 1524.00
42.4593 824.00
42.7635 1639.00
43.0678 615.00
43.3721 626.00
43.6763 589.00
43.9806 644.00
44.2849 2304.00
44.5891 751.00
44.8934 571.00
45.1976 586.00
45.5019 714.00
45.8062 661.00
46.1104 3150.00
46.4147 676.00
46.7189 547.00
47.0232 575.00
47.3275 784.00
47.6317 3604.00
47.936 638.00
48.2402 539.00
48.5445 553.00
48.8488 786.00
49.153 758.00
49.4573 4200.00
49.7615 779.00
50.0658 497.00
50.3701 872.00
50.6743 569.00
50.9786 464.00
51.2828 447.00
51.5871 481.00
51.8914 529.00
52.1956 625.00
52.4999 4238.00
52.8041 680.00
53.1084 488.00
53.4127 715.00
53.7169 466.00
54.0212 459.00
54.3254 419.00
54.6297 514.00
54.934 451.00
55.2382 466.00
55.5425 504.00
55.8467 1500.00
56.151 522.00
56.4553 465.00
56.7595 561.00
57.0638 2157.00
57.368 1511.00
57.6723 2092.00
57.9766 521.00
58.2808 484.00
58.5851 600.00
58.8893 907.00
59.1936 872.00
59.4979 439.00
59.8021 456.00
60.1064 513.00
60.4106 675.00
60.7149 491.00
61.0192 451.00
61.3234 747.00
61.6277 1574.00
61.932 478.00
62.2362 589.00
62.5405 714.00
62.8447 691.00
63.149 2434.00
63.4533 1311.00
63.7575 499.00
64.0618 451.00
64.366 503.00
64.6703 624.00
64.9745 441.00
65.2788 441.00
65.5831 1065.00
65.8873 1248.00
66.1916 1190.00
66.4959 551.00
66.8001 446.00
67.1044 452.00
67.4086 1291.00
67.7129 826.00
68.0172 459.00
68.3214 428.00
68.6257 414.00
68.9299 384.00
69.2342 417.00
69.5385 651.00
69.8427 1218.00
70.147 463.00
70.4512 368.00
70.7555 362.00
71.0598 470.00
71.364 633.00
71.6683 457.00
71.9725 475.00
72.2768 410.00
72.5811 391.00
72.8853 406.00
73.1896 364.00
73.4938 513.00
73.7981 1025.00
74.1024 485.00
74.4066 413.00
74.7109 427.00
75.0151 427.00
75.3194 845.00
75.6237 821.00
75.9279 528.00
76.2322 570.00
76.5364 594.00
76.8407 389.00
77.145 357.00
77.4492 430.00
77.7535 549.00
78.0577 817.00
78.362 501.00
78.6663 366.00
78.9705 370.00
79.2748 502.00
79.579 411.00
79.8833 458.00
80.1876 438.00
80.4918 424.00
80.7961 402.00
81.1003 408.00
81.4046 879.00
81.7089 839.00
82.0131 559.00
82.3174 372.00
82.6217 374.00
82.9259 870.00
83.2302 783.00
83.5344 450.00
83.8387 372.00
84.143 356.00
84.4472 335.00
84.7515 339.00
85.0557 411.00
85.36 447.00
85.6643 300.00
85.9685 373.00
86.2728 437.00
86.577 896.00
86.8813 654.00
87.1856 360.00
87.4898 481.00
87.7941 951.00
88.0983 783.00
88.4026 397.00
88.7069 439.00
89.0111 499.00
89.3154 421.00
89.6196 359.00
89.9239 340.00
90.2282 359.00
90.5324 572.00
90.8367 516.00
91.1409 503.00
91.4452 488.00
91.7495 450.00
92.0537 383.00
92.358 356.00
92.6622 880.00
92.9665 773.00
93.2708 473.00
93.575 345.00
93.8793 351.00
94.1835 529.00
94.4878 541.00
94.7921 431.00
95.0963 375.00
95.4006 622.00
95.7048 540.00
96.0091 394.00
96.3134 525.00
96.6176 494.00
96.9219 394.00
97.2261 373.00
97.5304 361.00
97.8347 546.00
98.1389 824.00
98.4432 596.00
98.7474 418.00
99.0517 342.00
99.356 356.00
99.6602 350.00
99.9645 454.00
100.095 619.00