File: data/xrd_creation/results/NSC_206.xy
9.903433 2709.00
10.2077 2585.00
10.512 2538.00
10.8162 2358.00
11.1205 2327.00
11.4247 2249.00
11.729 2215.00
12.0333 2200.00
12.3375 2055.00
12.6418 1993.00
12.946 1969.00
13.2503 1966.00
13.5546 1981.00
13.8588 2239.00
14.1631 1894.00
14.4673 1927.00
14.7716 2058.00
15.0759 1727.00
15.3801 1686.00
15.6844 1619.00
15.9886 1646.00
16.2929 1642.00
16.5972 1606.00
16.9014 1662.00
17.2057 1576.00
17.5099 1618.00
17.8142 1549.00
18.1185 1527.00
18.4227 1487.00
18.727 1525.00
19.0312 1531.00
19.3355 2747.00
19.6398 4259.00
19.944 1580.00
20.2483 1436.00
20.5525 1530.00
20.8568 1770.00
21.1611 1677.00
21.4653 1839.00
21.7696 1407.00
22.0738 1295.00
22.3781 2096.00
22.6824 1546.00
22.9866 2077.00
23.2909 1332.00
23.5951 1212.00
23.8994 1448.00
24.2037 1524.00
24.5079 1386.00
24.8122 1337.00
25.1164 1202.00
25.4207 1134.00
25.725 1218.00
26.0292 1201.00
26.3335 1190.00
26.6378 1086.00
26.942 1120.00
27.2463 1213.00
27.5505 1601.00
27.8548 2543.00
28.1591 1900.00
28.4633 2687.00
28.7676 1290.00
29.0718 1056.00
29.3761 1076.00
29.6804 1077.00
29.9846 1158.00
30.2889 1277.00
30.5931 1675.00
30.8974 3068.00
31.2017 3329.00
31.5059 2110.00
31.8102 2086.00
32.1144 1091.00
32.4187 1144.00
32.723 1066.00
33.0272 1305.00
33.3315 1438.00
33.6357 1397.00
33.94 1537.00
34.2443 4978.00
34.5485 2097.00
34.8528 1261.00
35.157 990.00
35.4613 1255.00
35.7656 1097.00
36.0698 1213.00
36.3741 924.00
36.6783 867.00
36.9826 910.00
37.2869 858.00
37.5911 875.00
37.8954 856.00
38.1996 843.00
38.5039 910.00
38.8082 998.00
39.1124 922.00
39.4167 940.00
39.7209 1015.00
40.0252 939.00
40.3295 869.00
40.6337 901.00
40.938 1086.00
41.2422 1265.00
41.5465 1138.00
41.8508 1354.00
42.155 963.00
42.4593 880.00
42.7635 775.00
43.0678 897.00
43.3721 997.00
43.6763 923.00
43.9806 794.00
44.2849 990.00
44.5891 1498.00
44.8934 1255.00
45.1976 991.00
45.5019 865.00
45.8062 1015.00
46.1104 862.00
46.4147 983.00
46.7189 1267.00
47.0232 2194.00
47.3275 1043.00
47.6317 891.00
47.936 839.00
48.2402 836.00
48.5445 894.00
48.8488 875.00
49.153 1244.00
49.4573 1088.00
49.7615 976.00
50.0658 834.00
50.3701 1068.00
50.6743 1331.00
50.9786 1459.00
51.2828 1344.00
51.5871 962.00
51.8914 873.00
52.1956 776.00
52.4999 925.00
52.8041 842.00
53.1084 953.00
53.4127 1433.00
53.7169 1511.00
54.0212 1052.00
54.3254 1151.00
54.6297 920.00
54.934 918.00
55.2382 926.00
55.5425 953.00
55.8467 1056.00
56.151 913.00
56.4553 997.00
56.7595 862.00
57.0638 745.00
57.368 950.00
57.6723 1033.00
57.9766 930.00
58.2808 966.00
58.5851 900.00
58.8893 965.00
59.1936 1304.00
59.4979 1647.00
59.8021 954.00
60.1064 933.00
60.4106 1073.00
60.7149 940.00
61.0192 993.00
61.3234 1351.00
61.6277 1128.00
61.932 933.00
62.2362 893.00
62.5405 1005.00
62.8447 1085.00
63.149 1028.00
63.4533 859.00
63.7575 726.00
64.0618 694.00
64.366 749.00
64.6703 800.00
64.9745 813.00
65.2788 885.00
65.5831 807.00
65.8873 947.00
66.1916 1066.00
66.4959 1119.00
66.8001 1023.00
67.1044 771.00
67.4086 695.00
67.7129 681.00
68.0172 717.00
68.3214 718.00
68.6257 827.00
68.9299 857.00
69.2342 740.00
69.5385 753.00
69.8427 724.00
70.147 727.00
70.4512 732.00
70.7555 721.00
71.0598 772.00
71.364 751.00
71.6683 863.00
71.9725 934.00
72.2768 964.00
72.5811 897.00
72.8853 730.00
73.1896 751.00
73.4938 822.00
73.7981 727.00
74.1024 738.00
74.4066 667.00
74.7109 681.00
75.0151 711.00
75.3194 787.00
75.6237 811.00
75.9279 849.00
76.2322 757.00
76.5364 718.00
76.8407 734.00
77.145 722.00
77.4492 743.00
77.7535 724.00
78.0577 659.00
78.362 613.00
78.6663 679.00
78.9705 619.00
79.2748 659.00
79.579 729.00
79.8833 694.00
80.1876 812.00
80.4918 832.00
80.7961 871.00
81.1003 761.00
81.4046 701.00
81.7089 723.00
82.0131 744.00
82.3174 800.00
82.6217 823.00
82.9259 672.00
83.2302 743.00
83.5344 700.00
83.8387 815.00
84.143 720.00
84.4472 753.00
84.7515 688.00
85.0557 708.00
85.36 662.00
85.6643 713.00
85.9685 668.00
86.2728 736.00
86.577 656.00
86.8813 799.00
87.1856 783.00
87.4898 833.00
87.7941 758.00
88.0983 736.00
88.4026 750.00
88.7069 736.00
89.0111 761.00
89.3154 724.00
89.6196 754.00
89.9239 738.00
90.2282 776.00
90.5324 796.00
90.8367 780.00
91.1409 688.00
91.4452 721.00
91.7495 729.00
92.0537 735.00
92.358 766.00
92.6622 686.00
92.9665 611.00
93.2708 641.00
93.575 699.00
93.8793 759.00
94.1835 711.00
94.4878 694.00
94.7921 697.00
95.0963 729.00
95.4006 738.00
95.7048 746.00
96.0091 821.00
96.3134 724.00
96.6176 699.00
96.9219 693.00
97.2261 743.00
97.5304 718.00
97.8347 717.00
98.1389 714.00
98.4432 675.00
98.7474 674.00
99.0517 671.00
99.356 719.00
99.6602 766.00
99.9645 751.00
100.095 761.00