File: data/xrd_creation/results/NSC_188.xy
9.903433 2815.00
10.2077 2687.00
10.512 2678.00
10.8162 2500.00
11.1205 2472.00
11.4247 2349.00
11.729 2399.00
12.0333 2330.00
12.3375 2354.00
12.6418 2292.00
12.946 2275.00
13.2503 2176.00
13.5546 2206.00
13.8588 2214.00
14.1631 2178.00
14.4673 2183.00
14.7716 2196.00
15.0759 2108.00
15.3801 2277.00
15.6844 2198.00
15.9886 2182.00
16.2929 2339.00
16.5972 2313.00
16.9014 2276.00
17.2057 2279.00
17.5099 2344.00
17.8142 2390.00
18.1185 2275.00
18.4227 2299.00
18.727 2277.00
19.0312 2211.00
19.3355 2297.00
19.6398 2305.00
19.944 2294.00
20.2483 2337.00
20.5525 2369.00
20.8568 2320.00
21.1611 2279.00
21.4653 2419.00
21.7696 2443.00
22.0738 2390.00
22.3781 2294.00
22.6824 2356.00
22.9866 2320.00
23.2909 2287.00
23.5951 2427.00
23.8994 2394.00
24.2037 2411.00
24.5079 2291.00
24.8122 2472.00
25.1164 2328.00
25.4207 2291.00
25.725 2288.00
26.0292 2331.00
26.3335 2261.00
26.6378 2284.00
26.942 2267.00
27.2463 2395.00
27.5505 2301.00
27.8548 2355.00
28.1591 2354.00
28.4633 2396.00
28.7676 2401.00
29.0718 2297.00
29.3761 2461.00
29.6804 2456.00
29.9846 2532.00
30.2889 2546.00
30.5931 2493.00
30.8974 2529.00
31.2017 2625.00
31.5059 2529.00
31.8102 2574.00
32.1144 2517.00
32.4187 2578.00
32.723 2573.00
33.0272 2542.00
33.3315 2497.00
33.6357 2533.00
33.94 2524.00
34.2443 2377.00
34.5485 2370.00
34.8528 2291.00
35.157 2170.00
35.4613 2158.00
35.7656 2103.00
36.0698 2039.00
36.3741 2061.00
36.6783 1878.00
36.9826 1883.00
37.2869 1969.00
37.5911 1750.00
37.8954 1789.00
38.1996 1726.00
38.5039 1674.00
38.8082 1629.00
39.1124 1668.00
39.4167 1562.00
39.7209 1541.00
40.0252 1497.00
40.3295 1550.00
40.6337 1486.00
40.938 1507.00
41.2422 1484.00
41.5465 1451.00
41.8508 1458.00
42.155 1407.00
42.4593 1479.00
42.7635 1386.00
43.0678 1436.00
43.3721 1397.00
43.6763 1381.00
43.9806 1387.00
44.2849 1354.00
44.5891 1408.00
44.8934 1368.00
45.1976 1314.00
45.5019 1366.00
45.8062 1312.00
46.1104 1293.00
46.4147 1234.00
46.7189 1351.00
47.0232 1263.00
47.3275 1384.00
47.6317 1293.00
47.936 1279.00
48.2402 1297.00
48.5445 1300.00
48.8488 1263.00
49.153 1246.00
49.4573 1267.00
49.7615 1307.00
50.0658 1239.00
50.3701 1254.00
50.6743 1236.00
50.9786 1261.00
51.2828 1223.00
51.5871 1269.00
51.8914 1277.00
52.1956 1224.00
52.4999 1228.00
52.8041 1207.00
53.1084 1257.00
53.4127 1275.00
53.7169 1328.00
54.0212 1292.00
54.3254 1252.00
54.6297 1272.00
54.934 1319.00
55.2382 1337.00
55.5425 1314.00
55.8467 1284.00
56.151 1269.00
56.4553 1406.00
56.7595 1293.00
57.0638 1305.00
57.368 1372.00
57.6723 1352.00
57.9766 1366.00
58.2808 1346.00
58.5851 1316.00
58.8893 1377.00
59.1936 1262.00
59.4979 1295.00
59.8021 1332.00
60.1064 1341.00
60.4106 1341.00
60.7149 1392.00
61.0192 1383.00
61.3234 1359.00
61.6277 1337.00
61.932 1317.00
62.2362 1287.00
62.5405 1325.00
62.8447 1304.00
63.149 1291.00
63.4533 1374.00
63.7575 1329.00
64.0618 1292.00
64.366 1260.00
64.6703 1319.00
64.9745 1216.00
65.2788 1255.00
65.5831 1237.00
65.8873 1231.00
66.1916 1214.00
66.4959 1246.00
66.8001 1248.00
67.1044 1255.00
67.4086 1258.00
67.7129 1238.00
68.0172 1182.00
68.3214 1177.00
68.6257 1176.00
68.9299 1187.00
69.2342 1132.00
69.5385 1112.00
69.8427 1196.00
70.147 1176.00
70.4512 1147.00
70.7555 1120.00
71.0598 1061.00
71.364 1124.00
71.6683 1101.00
71.9725 1070.00
72.2768 1009.00
72.5811 1074.00
72.8853 1057.00
73.1896 1082.00
73.4938 1109.00
73.7981 1033.00
74.1024 1026.00
74.4066 936.00
74.7109 991.00
75.0151 996.00
75.3194 937.00
75.6237 977.00
75.9279 957.00
76.2322 916.00
76.5364 914.00
76.8407 934.00
77.145 967.00
77.4492 928.00
77.7535 931.00
78.0577 923.00
78.362 892.00
78.6663 923.00
78.9705 896.00
79.2748 950.00
79.579 917.00
79.8833 856.00
80.1876 847.00
80.4918 880.00
80.7961 900.00
81.1003 819.00
81.4046 851.00
81.7089 809.00
82.0131 872.00
82.3174 868.00
82.6217 790.00
82.9259 843.00
83.2302 843.00
83.5344 865.00
83.8387 795.00
84.143 826.00
84.4472 782.00
84.7515 866.00
85.0557 768.00
85.36 849.00
85.6643 823.00
85.9685 791.00
86.2728 809.00
86.577 828.00
86.8813 815.00
87.1856 741.00
87.4898 813.00
87.7941 805.00
88.0983 827.00
88.4026 762.00
88.7069 789.00
89.0111 825.00
89.3154 766.00
89.6196 758.00
89.9239 775.00
90.2282 806.00
90.5324 843.00
90.8367 823.00
91.1409 800.00
91.4452 821.00
91.7495 833.00
92.0537 815.00
92.358 809.00
92.6622 778.00
92.9665 797.00
93.2708 783.00
93.575 796.00
93.8793 782.00
94.1835 785.00
94.4878 791.00
94.7921 770.00
95.0963 750.00
95.4006 825.00
95.7048 782.00
96.0091 743.00
96.3134 757.00
96.6176 787.00
96.9219 790.00
97.2261 750.00
97.5304 750.00
97.8347 777.00
98.1389 767.00
98.4432 784.00
98.7474 736.00
99.0517 786.00
99.356 746.00
99.6602 759.00
99.9645 727.00
100.095 742.00