File: data/xrd_creation/results/NSC_189.xy
9.903433 2498.00
10.2077 2477.00
10.512 2366.00
10.8162 2315.00
11.1205 2178.00
11.4247 2124.00
11.729 1999.00
12.0333 1900.00
12.3375 1869.00
12.6418 1827.00
12.946 1687.00
13.2503 1567.00
13.5546 1550.00
13.8588 1558.00
14.1631 1514.00
14.4673 1490.00
14.7716 1442.00
15.0759 1427.00
15.3801 1410.00
15.6844 1332.00
15.9886 1323.00
16.2929 1239.00
16.5972 1247.00
16.9014 1184.00
17.2057 1197.00
17.5099 1167.00
17.8142 1207.00
18.1185 1208.00
18.4227 1093.00
18.727 1062.00
19.0312 1069.00
19.3355 995.00
19.6398 1018.00
19.944 951.00
20.2483 1020.00
20.5525 982.00
20.8568 974.00
21.1611 895.00
21.4653 966.00
21.7696 906.00
22.0738 885.00
22.3781 924.00
22.6824 856.00
22.9866 840.00
23.2909 815.00
23.5951 835.00
23.8994 827.00
24.2037 834.00
24.5079 772.00
24.8122 736.00
25.1164 819.00
25.4207 851.00
25.725 803.00
26.0292 725.00
26.3335 879.00
26.6378 727.00
26.942 675.00
27.2463 686.00
27.5505 775.00
27.8548 765.00
28.1591 805.00
28.4633 718.00
28.7676 702.00
29.0718 692.00
29.3761 600.00
29.6804 658.00
29.9846 635.00
30.2889 624.00
30.5931 614.00
30.8974 596.00
31.2017 633.00
31.5059 626.00
31.8102 562.00
32.1144 539.00
32.4187 544.00
32.723 577.00
33.0272 546.00
33.3315 615.00
33.6357 613.00
33.94 548.00
34.2443 538.00
34.5485 499.00
34.8528 523.00
35.157 488.00
35.4613 458.00
35.7656 483.00
36.0698 450.00
36.3741 474.00
36.6783 494.00
36.9826 425.00
37.2869 410.00
37.5911 457.00
37.8954 424.00
38.1996 423.00
38.5039 442.00
38.8082 446.00
39.1124 382.00
39.4167 430.00
39.7209 408.00
40.0252 389.00
40.3295 366.00
40.6337 388.00
40.938 365.00
41.2422 371.00
41.5465 375.00
41.8508 418.00
42.155 383.00
42.4593 346.00
42.7635 432.00
43.0678 372.00
43.3721 356.00
43.6763 357.00
43.9806 344.00
44.2849 382.00
44.5891 336.00
44.8934 305.00
45.1976 360.00
45.5019 351.00
45.8062 317.00
46.1104 375.00
46.4147 324.00
46.7189 306.00
47.0232 345.00
47.3275 314.00
47.6317 320.00
47.936 320.00
48.2402 303.00
48.5445 331.00
48.8488 349.00
49.153 327.00
49.4573 333.00
49.7615 340.00
50.0658 323.00
50.3701 292.00
50.6743 293.00
50.9786 335.00
51.2828 356.00
51.5871 341.00
51.8914 301.00
52.1956 287.00
52.4999 304.00
52.8041 296.00
53.1084 284.00
53.4127 275.00
53.7169 315.00
54.0212 326.00
54.3254 267.00
54.6297 295.00
54.934 272.00
55.2382 292.00
55.5425 260.00
55.8467 270.00
56.151 260.00
56.4553 278.00
56.7595 243.00
57.0638 238.00
57.368 278.00
57.6723 271.00
57.9766 245.00
58.2808 231.00
58.5851 243.00
58.8893 258.00
59.1936 229.00
59.4979 272.00
59.8021 220.00
60.1064 211.00
60.4106 243.00
60.7149 259.00
61.0192 228.00
61.3234 264.00
61.6277 226.00
61.932 232.00
62.2362 263.00
62.5405 259.00
62.8447 229.00
63.149 217.00
63.4533 234.00
63.7575 228.00
64.0618 249.00
64.366 233.00
64.6703 202.00
64.9745 196.00
65.2788 232.00
65.5831 239.00
65.8873 206.00
66.1916 207.00
66.4959 205.00
66.8001 198.00
67.1044 192.00
67.4086 216.00
67.7129 226.00
68.0172 221.00
68.3214 191.00
68.6257 190.00
68.9299 185.00
69.2342 224.00
69.5385 213.00
69.8427 198.00
70.147 212.00
70.4512 223.00
70.7555 207.00
71.0598 211.00
71.364 247.00
71.6683 199.00
71.9725 219.00
72.2768 206.00
72.5811 194.00
72.8853 177.00
73.1896 210.00
73.4938 237.00
73.7981 237.00
74.1024 227.00
74.4066 256.00
74.7109 233.00
75.0151 218.00
75.3194 223.00
75.6237 236.00
75.9279 215.00
76.2322 289.00
76.5364 222.00
76.8407 202.00
77.145 256.00
77.4492 214.00
77.7535 235.00
78.0577 245.00
78.362 257.00
78.6663 248.00
78.9705 225.00
79.2748 203.00
79.579 246.00
79.8833 294.00
80.1876 248.00
80.4918 243.00
80.7961 243.00
81.1003 237.00
81.4046 235.00
81.7089 247.00
82.0131 234.00
82.3174 224.00
82.6217 223.00
82.9259 209.00
83.2302 249.00
83.5344 262.00
83.8387 226.00
84.143 225.00
84.4472 227.00
84.7515 223.00
85.0557 208.00
85.36 197.00
85.6643 231.00
85.9685 228.00
86.2728 228.00
86.577 233.00
86.8813 192.00
87.1856 199.00
87.4898 194.00
87.7941 200.00
88.0983 196.00
88.4026 211.00
88.7069 182.00
89.0111 184.00
89.3154 182.00
89.6196 221.00
89.9239 205.00
90.2282 196.00
90.5324 199.00
90.8367 215.00
91.1409 195.00
91.4452 223.00
91.7495 233.00
92.0537 185.00
92.358 219.00
92.6622 166.00
92.9665 191.00
93.2708 166.00
93.575 185.00
93.8793 227.00
94.1835 164.00
94.4878 176.00
94.7921 198.00
95.0963 177.00
95.4006 202.00
95.7048 170.00
96.0091 172.00
96.3134 183.00
96.6176 191.00
96.9219 210.00
97.2261 207.00
97.5304 206.00
97.8347 186.00
98.1389 196.00
98.4432 179.00
98.7474 191.00
99.0517 180.00
99.356 176.00
99.6602 202.00
99.9645 192.00
100.095 180.00