File: data/xrd_creation/results/NSC_180.xy
9.903433 2989.00
10.2077 2981.00
10.512 2941.00
10.8162 2840.00
11.1205 2710.00
11.4247 2635.00
11.729 2720.00
12.0333 2625.00
12.3375 2560.00
12.6418 2400.00
12.946 2473.00
13.2503 2409.00
13.5546 2461.00
13.8588 3680.00
14.1631 3190.00
14.4673 2327.00
14.7716 2360.00
15.0759 2306.00
15.3801 2356.00
15.6844 2378.00
15.9886 2348.00
16.2929 2230.00
16.5972 2284.00
16.9014 2372.00
17.2057 2263.00
17.5099 2292.00
17.8142 2372.00
18.1185 2298.00
18.4227 2121.00
18.727 2245.00
19.0312 2302.00
19.3355 4319.00
19.6398 7479.00
19.944 10590.00
20.2483 2677.00
20.5525 2167.00
20.8568 2208.00
21.1611 2169.00
21.4653 2204.00
21.7696 2155.00
22.0738 2066.00
22.3781 2044.00
22.6824 2133.00
22.9866 3356.00
23.2909 12350.00
23.5951 2290.00
23.8994 2037.00
24.2037 2117.00
24.5079 2133.00
24.8122 2331.00
25.1164 1998.00
25.4207 2011.00
25.725 1934.00
26.0292 2291.00
26.3335 2034.00
26.6378 2022.00
26.942 1958.00
27.2463 1932.00
27.5505 2128.00
27.8548 5261.00
28.1591 2874.00
28.4633 3964.00
28.7676 2090.00
29.0718 1934.00
29.3761 1827.00
29.6804 1952.00
29.9846 2016.00
30.2889 2044.00
30.5931 2433.00
30.8974 12456.00
31.2017 3972.00
31.5059 2251.00
31.8102 3511.00
32.1144 1831.00
32.4187 1780.00
32.723 1833.00
33.0272 1837.00
33.3315 1795.00
33.6357 2005.00
33.94 1717.00
34.2443 2186.00
34.5485 6397.00
34.8528 8019.00
35.157 2118.00
35.4613 2115.00
35.7656 1759.00
36.0698 1714.00
36.3741 1617.00
36.6783 1603.00
36.9826 1652.00
37.2869 1684.00
37.5911 1641.00
37.8954 1708.00
38.1996 1713.00
38.5039 1623.00
38.8082 1684.00
39.1124 1631.00
39.4167 1982.00
39.7209 1682.00
40.0252 1717.00
40.3295 1897.00
40.6337 1689.00
40.938 2114.00
41.2422 2113.00
41.5465 2419.00
41.8508 1812.00
42.155 2435.00
42.4593 2643.00
42.7635 2154.00
43.0678 1701.00
43.3721 1641.00
43.6763 1597.00
43.9806 1651.00
44.2849 2104.00
44.5891 1815.00
44.8934 2369.00
45.1976 2765.00
45.5019 1708.00
45.8062 1763.00
46.1104 2285.00
46.4147 2351.00
46.7189 1869.00
47.0232 5490.00
47.3275 3300.00
47.6317 2246.00
47.936 2323.00
48.2402 1841.00
48.5445 1629.00
48.8488 1563.00
49.153 1626.00
49.4573 1925.00
49.7615 1940.00
50.0658 1628.00
50.3701 2280.00
50.6743 4442.00
50.9786 2917.00
51.2828 1726.00
51.5871 1708.00
51.8914 1685.00
52.1956 1879.00
52.4999 1609.00
52.8041 1577.00
53.1084 1583.00
53.4127 2128.00
53.7169 2180.00
54.0212 4195.00
54.3254 2924.00
54.6297 1838.00
54.934 1530.00
55.2382 1628.00
55.5425 2041.00
55.8467 1802.00
56.151 1638.00
56.4553 1638.00
56.7595 1590.00
57.0638 1586.00
57.368 1854.00
57.6723 1820.00
57.9766 1818.00
58.2808 1628.00
58.5851 1693.00
58.8893 2755.00
59.1936 2346.00
59.4979 2334.00
59.8021 3172.00
60.1064 2115.00
60.4106 2620.00
60.7149 1738.00
61.0192 1566.00
61.3234 1660.00
61.6277 2239.00
61.932 2680.00
62.2362 2162.00
62.5405 1670.00
62.8447 2028.00
63.149 1732.00
63.4533 1600.00
63.7575 1439.00
64.0618 1446.00
64.366 1480.00
64.6703 1705.00
64.9745 1719.00
65.2788 1720.00
65.5831 2429.00
65.8873 1820.00
66.1916 1697.00
66.4959 2342.00
66.8001 1932.00
67.1044 1797.00
67.4086 1588.00
67.7129 1493.00
68.0172 1483.00
68.3214 1459.00
68.6257 1405.00
68.9299 1595.00
69.2342 2108.00
69.5385 1659.00
69.8427 1526.00
70.147 1572.00
70.4512 1727.00
70.7555 1530.00
71.0598 1375.00
71.364 1517.00
71.6683 1426.00
71.9725 1472.00
72.2768 1454.00
72.5811 1693.00
72.8853 2093.00
73.1896 1860.00
73.4938 1496.00
73.7981 1767.00
74.1024 1572.00
74.4066 1602.00
74.7109 1538.00
75.0151 1641.00
75.3194 1438.00
75.6237 1381.00
75.9279 1528.00
76.2322 1729.00
76.5364 1639.00
76.8407 1569.00
77.145 1706.00
77.4492 1525.00
77.7535 1538.00
78.0577 1426.00
78.362 1337.00
78.6663 1384.00
78.9705 1443.00
79.2748 1442.00
79.579 1701.00
79.8833 1509.00
80.1876 1492.00
80.4918 1542.00
80.7961 1684.00
81.1003 1854.00
81.4046 1767.00
81.7089 1603.00
82.0131 1502.00
82.3174 1438.00
82.6217 1545.00
82.9259 1582.00
83.2302 1566.00
83.5344 1533.00
83.8387 1370.00
84.143 1418.00
84.4472 1427.00
84.7515 1495.00
85.0557 1534.00
85.36 1493.00
85.6643 1463.00
85.9685 1559.00
86.2728 1675.00
86.577 1559.00
86.8813 1467.00
87.1856 1825.00
87.4898 2057.00
87.7941 1667.00
88.0983 1477.00
88.4026 1432.00
88.7069 1487.00
89.0111 1497.00
89.3154 1589.00
89.6196 1599.00
89.9239 1615.00
90.2282 1463.00
90.5324 1466.00
90.8367 1423.00
91.1409 1651.00
91.4452 1534.00
91.7495 1577.00
92.0537 1560.00
92.358 1485.00
92.6622 1552.00
92.9665 1932.00
93.2708 1696.00
93.575 1512.00
93.8793 1604.00
94.1835 1796.00
94.4878 1471.00
94.7921 1423.00
95.0963 1387.00
95.4006 1385.00
95.7048 1424.00
96.0091 1366.00
96.3134 1526.00
96.6176 1524.00
96.9219 1545.00
97.2261 1522.00
97.5304 1514.00
97.8347 1480.00
98.1389 1409.00
98.4432 1381.00
98.7474 1371.00
99.0517 1402.00
99.356 1531.00
99.6602 1555.00
99.9645 1546.00
100.095 1565.00