File: data/xrd_creation/results/NSC_21.xy
9.903433 3258.00
10.2077 3146.00
10.512 2962.00
10.8162 3066.00
11.1205 2961.00
11.4247 2971.00
11.729 2922.00
12.0333 2812.00
12.3375 2917.00
12.6418 2626.00
12.946 2530.00
13.2503 2605.00
13.5546 2549.00
13.8588 2694.00
14.1631 4930.00
14.4673 2690.00
14.7716 2444.00
15.0759 2449.00
15.3801 2497.00
15.6844 2496.00
15.9886 2330.00
16.2929 2452.00
16.5972 2300.00
16.9014 2376.00
17.2057 2255.00
17.5099 2337.00
17.8142 2318.00
18.1185 2298.00
18.4227 2256.00
18.727 2190.00
19.0312 2300.00
19.3355 2646.00
19.6398 10126.00
19.944 3022.00
20.2483 5521.00
20.5525 7550.00
20.8568 2322.00
21.1611 2268.00
21.4653 2156.00
21.7696 2159.00
22.0738 2498.00
22.3781 2367.00
22.6824 2138.00
22.9866 2526.00
23.2909 2811.00
23.5951 19383.00
23.8994 2418.00
24.2037 2311.00
24.5079 2053.00
24.8122 2122.00
25.1164 1950.00
25.4207 1876.00
25.725 1881.00
26.0292 1852.00
26.3335 1789.00
26.6378 1827.00
26.942 1829.00
27.2463 1836.00
27.5505 1852.00
27.8548 1894.00
28.1591 2405.00
28.4633 15110.00
28.7676 2191.00
29.0718 1857.00
29.3761 1764.00
29.6804 1831.00
29.9846 1990.00
30.2889 1829.00
30.5931 1974.00
30.8974 2191.00
31.2017 5265.00
31.5059 10005.00
31.8102 3183.00
32.1144 1838.00
32.4187 1715.00
32.723 1717.00
33.0272 1621.00
33.3315 1672.00
33.6357 1735.00
33.94 2225.00
34.2443 2542.00
34.5485 1946.00
34.8528 1996.00
35.157 6303.00
35.4613 5418.00
35.7656 2541.00
36.0698 1759.00
36.3741 1684.00
36.6783 1453.00
36.9826 1576.00
37.2869 1501.00
37.5911 1525.00
37.8954 1475.00
38.1996 1451.00
38.5039 1465.00
38.8082 1618.00
39.1124 1481.00
39.4167 1509.00
39.7209 2440.00
40.0252 1529.00
40.3295 1393.00
40.6337 1503.00
40.938 1824.00
41.2422 2542.00
41.5465 2299.00
41.8508 1751.00
42.155 1941.00
42.4593 1506.00
42.7635 1610.00
43.0678 3896.00
43.3721 1567.00
43.6763 1689.00
43.9806 1483.00
44.2849 1393.00
44.5891 1529.00
44.8934 3285.00
45.1976 2201.00
45.5019 1585.00
45.8062 1752.00
46.1104 3012.00
46.4147 1603.00
46.7189 2907.00
47.0232 1798.00
47.3275 1461.00
47.6317 1812.00
47.936 5610.00
48.2402 2382.00
48.5445 1908.00
48.8488 1656.00
49.153 1476.00
49.4573 1714.00
49.7615 1564.00
50.0658 1515.00
50.3701 1845.00
50.6743 1850.00
50.9786 1785.00
51.2828 4168.00
51.5871 2248.00
51.8914 1934.00
52.1956 1435.00
52.4999 1396.00
52.8041 1466.00
53.1084 1400.00
53.4127 1491.00
53.7169 1413.00
54.0212 1702.00
54.3254 2619.00
54.6297 1475.00
54.934 1872.00
55.2382 3734.00
55.5425 4365.00
55.8467 1718.00
56.151 1525.00
56.4553 1536.00
56.7595 1824.00
57.0638 1518.00
57.368 1501.00
57.6723 1424.00
57.9766 1586.00
58.2808 2295.00
58.5851 1936.00
58.8893 1423.00
59.1936 1469.00
59.4979 1481.00
59.8021 2946.00
60.1064 2274.00
60.4106 1592.00
60.7149 1676.00
61.0192 3587.00
61.3234 1733.00
61.6277 1427.00
61.932 1616.00
62.2362 2581.00
62.5405 1970.00
62.8447 1492.00
63.149 1942.00
63.4533 2261.00
63.7575 2080.00
64.0618 1686.00
64.366 1379.00
64.6703 1388.00
64.9745 1498.00
65.2788 1636.00
65.5831 1466.00
65.8873 1655.00
66.1916 2552.00
66.4959 1437.00
66.8001 1375.00
67.1044 1948.00
67.4086 1738.00
67.7129 2055.00
68.0172 1455.00
68.3214 1340.00
68.6257 1519.00
68.9299 1632.00
69.2342 1332.00
69.5385 1344.00
69.8427 1418.00
70.147 1396.00
70.4512 1371.00
70.7555 1743.00
71.0598 2081.00
71.364 1416.00
71.6683 1403.00
71.9725 1356.00
72.2768 1425.00
72.5811 1366.00
72.8853 1253.00
73.1896 1199.00
73.4938 1595.00
73.7981 1935.00
74.1024 1419.00
74.4066 1422.00
74.7109 1843.00
75.0151 1982.00
75.3194 1824.00
75.6237 1562.00
75.9279 1254.00
76.2322 1282.00
76.5364 1467.00
76.8407 1268.00
77.145 1404.00
77.4492 1410.00
77.7535 1305.00
78.0577 1403.00
78.362 1831.00
78.6663 2081.00
78.9705 1669.00
79.2748 1329.00
79.579 1320.00
79.8833 1311.00
80.1876 1265.00
80.4918 1364.00
80.7961 2056.00
81.1003 1562.00
81.4046 1356.00
81.7089 1353.00
82.0131 1278.00
82.3174 1340.00
82.6217 1337.00
82.9259 1403.00
83.2302 2022.00
83.5344 1570.00
83.8387 1354.00
84.143 1259.00
84.4472 1536.00
84.7515 1556.00
85.0557 1466.00
85.36 1475.00
85.6643 1323.00
85.9685 1566.00
86.2728 1392.00
86.577 1499.00
86.8813 1474.00
87.1856 1287.00
87.4898 1303.00
87.7941 1593.00
88.0983 1457.00
88.4026 1351.00
88.7069 1490.00
89.0111 1622.00
89.3154 2033.00
89.6196 1610.00
89.9239 1362.00
90.2282 1312.00
90.5324 1389.00
90.8367 1309.00
91.1409 1417.00
91.4452 1604.00
91.7495 1437.00
92.0537 1305.00
92.358 1347.00
92.6622 1178.00
92.9665 1261.00
93.2708 1316.00
93.575 1530.00
93.8793 1510.00
94.1835 1503.00
94.4878 1396.00
94.7921 1747.00
95.0963 1593.00
95.4006 1372.00
95.7048 1691.00
96.0091 1584.00
96.3134 1580.00
96.6176 1419.00
96.9219 1386.00
97.2261 1303.00
97.5304 1262.00
97.8347 1205.00
98.1389 1166.00
98.4432 1415.00
98.7474 1383.00
99.0517 1375.00
99.356 1473.00
99.6602 1486.00
99.9645 1683.00
100.095 1532.00