File: data/xrd_creation/results/NSC_90.xy
9.903433 2808.00
10.2077 2660.00
10.512 2592.00
10.8162 2447.00
11.1205 2366.00
11.4247 2300.00
11.729 2296.00
12.0333 2142.00
12.3375 2122.00
12.6418 1954.00
12.946 1920.00
13.2503 1927.00
13.5546 1849.00
13.8588 1930.00
14.1631 2256.00
14.4673 1807.00
14.7716 1683.00
15.0759 1612.00
15.3801 1618.00
15.6844 1577.00
15.9886 1462.00
16.2929 1495.00
16.5972 1476.00
16.9014 1465.00
17.2057 1488.00
17.5099 1429.00
17.8142 1385.00
18.1185 1371.00
18.4227 1335.00
18.727 1312.00
19.0312 1383.00
19.3355 1407.00
19.6398 2995.00
19.944 2307.00
20.2483 1575.00
20.5525 2042.00
20.8568 6236.00
21.1611 1319.00
21.4653 1459.00
21.7696 1173.00
22.0738 1069.00
22.3781 1116.00
22.6824 1098.00
22.9866 1167.00
23.2909 1143.00
23.5951 1181.00
23.8994 3524.00
24.2037 1196.00
24.5079 942.00
24.8122 874.00
25.1164 934.00
25.4207 939.00
25.725 899.00
26.0292 959.00
26.3335 1250.00
26.6378 2068.00
26.942 895.00
27.2463 818.00
27.5505 796.00
27.8548 802.00
28.1591 832.00
28.4633 815.00
28.7676 2169.00
29.0718 1353.00
29.3761 791.00
29.6804 761.00
29.9846 731.00
30.2889 705.00
30.5931 740.00
30.8974 705.00
31.2017 760.00
31.5059 1209.00
31.8102 5068.00
32.1144 868.00
32.4187 905.00
32.723 656.00
33.0272 650.00
33.3315 639.00
33.6357 887.00
33.94 1698.00
34.2443 683.00
34.5485 598.00
34.8528 561.00
35.157 574.00
35.4613 599.00
35.7656 1187.00
36.0698 1038.00
36.3741 1611.00
36.6783 1110.00
36.9826 602.00
37.2869 550.00
37.5911 531.00
37.8954 1091.00
38.1996 559.00
38.5039 649.00
38.8082 548.00
39.1124 444.00
39.4167 441.00
39.7209 443.00
40.0252 439.00
40.3295 851.00
40.6337 409.00
40.938 429.00
41.2422 446.00
41.5465 449.00
41.8508 955.00
42.155 565.00
42.4593 930.00
42.7635 477.00
43.0678 456.00
43.3721 406.00
43.6763 455.00
43.9806 1384.00
44.2849 525.00
44.5891 427.00
44.8934 477.00
45.1976 448.00
45.5019 485.00
45.8062 1414.00
46.1104 439.00
46.4147 440.00
46.7189 372.00
47.0232 597.00
47.3275 1766.00
47.6317 429.00
47.936 388.00
48.2402 383.00
48.5445 489.00
48.8488 484.00
49.153 2234.00
49.4573 522.00
49.7615 370.00
50.0658 549.00
50.3701 358.00
50.6743 366.00
50.9786 362.00
51.2828 400.00
51.5871 798.00
51.8914 1267.00
52.1956 2153.00
52.4999 486.00
52.8041 357.00
53.1084 458.00
53.4127 344.00
53.7169 343.00
54.0212 331.00
54.3254 363.00
54.6297 583.00
54.934 459.00
55.2382 359.00
55.5425 786.00
55.8467 364.00
56.151 325.00
56.4553 450.00
56.7595 1301.00
57.0638 1088.00
57.368 996.00
57.6723 461.00
57.9766 439.00
58.2808 377.00
58.5851 512.00
58.8893 577.00
59.1936 346.00
59.4979 322.00
59.8021 345.00
60.1064 407.00
60.4106 300.00
60.7149 306.00
61.0192 496.00
61.3234 964.00
61.6277 365.00
61.932 601.00
62.2362 449.00
62.5405 448.00
62.8447 1220.00
63.149 779.00
63.4533 335.00
63.7575 291.00
64.0618 328.00
64.366 420.00
64.6703 664.00
64.9745 413.00
65.2788 744.00
65.5831 766.00
65.8873 1041.00
66.1916 498.00
66.4959 287.00
66.8001 308.00
67.1044 757.00
67.4086 550.00
67.7129 360.00
68.0172 284.00
68.3214 258.00
68.6257 258.00
68.9299 268.00
69.2342 386.00
69.5385 730.00
69.8427 293.00
70.147 289.00
70.4512 248.00
70.7555 325.00
71.0598 398.00
71.364 393.00
71.6683 289.00
71.9725 285.00
72.2768 262.00
72.5811 233.00
72.8853 263.00
73.1896 375.00
73.4938 518.00
73.7981 294.00
74.1024 271.00
74.4066 260.00
74.7109 288.00
75.0151 495.00
75.3194 467.00
75.6237 376.00
75.9279 374.00
76.2322 390.00
76.5364 284.00
76.8407 226.00
77.145 268.00
77.4492 333.00
77.7535 404.00
78.0577 308.00
78.362 251.00
78.6663 514.00
78.9705 389.00
79.2748 283.00
79.579 275.00
79.8833 282.00
80.1876 305.00
80.4918 240.00
80.7961 276.00
81.1003 620.00
81.4046 568.00
81.7089 383.00
82.0131 240.00
82.3174 257.00
82.6217 408.00
82.9259 453.00
83.2302 286.00
83.5344 308.00
83.8387 291.00
84.143 242.00
84.4472 210.00
84.7515 250.00
85.0557 249.00
85.36 236.00
85.6643 234.00
85.9685 278.00
86.2728 498.00
86.577 454.00
86.8813 266.00
87.1856 357.00
87.4898 551.00
87.7941 517.00
88.0983 334.00
88.4026 250.00
88.7069 307.00
89.0111 256.00
89.3154 224.00
89.6196 330.00
89.9239 324.00
90.2282 380.00
90.5324 346.00
90.8367 524.00
91.1409 390.00
91.4452 257.00
91.7495 276.00
92.0537 228.00
92.358 509.00
92.6622 473.00
92.9665 311.00
93.2708 371.00
93.575 283.00
93.8793 245.00
94.1835 342.00
94.4878 316.00
94.7921 240.00
95.0963 381.00
95.4006 329.00
95.7048 310.00
96.0091 348.00
96.3134 330.00
96.6176 269.00
96.9219 232.00
97.2261 231.00
97.5304 284.00
97.8347 527.00
98.1389 395.00
98.4432 287.00
98.7474 271.00
99.0517 220.00
99.356 224.00
99.6602 240.00
99.9645 503.00
100.095 490.00