File: data/xrd_creation/results/NSC_201.xy
9.903433 2821.00
10.2077 2699.00
10.512 2686.00
10.8162 2659.00
11.1205 2588.00
11.4247 2336.00
11.729 2370.00
12.0333 2273.00
12.3375 2258.00
12.6418 2153.00
12.946 2182.00
13.2503 2053.00
13.5546 2121.00
13.8588 2287.00
14.1631 2431.00
14.4673 2060.00
14.7716 2161.00
15.0759 2479.00
15.3801 2042.00
15.6844 2054.00
15.9886 1847.00
16.2929 1952.00
16.5972 1809.00
16.9014 1895.00
17.2057 1753.00
17.5099 1834.00
17.8142 2236.00
18.1185 1840.00
18.4227 1773.00
18.727 1754.00
19.0312 1797.00
19.3355 2048.00
19.6398 4353.00
19.944 3825.00
20.2483 1944.00
20.5525 1898.00
20.8568 1929.00
21.1611 1992.00
21.4653 2478.00
21.7696 2459.00
22.0738 1770.00
22.3781 1921.00
22.6824 2730.00
22.9866 1784.00
23.2909 2215.00
23.5951 1683.00
23.8994 1615.00
24.2037 2147.00
24.5079 2947.00
24.8122 2347.00
25.1164 1914.00
25.4207 1440.00
25.725 1531.00
26.0292 1582.00
26.3335 1548.00
26.6378 1552.00
26.942 1505.00
27.2463 1534.00
27.5505 1521.00
27.8548 2544.00
28.1591 2133.00
28.4633 4775.00
28.7676 9070.00
29.0718 2070.00
29.3761 1568.00
29.6804 1582.00
29.9846 1576.00
30.2889 1488.00
30.5931 1786.00
30.8974 2857.00
31.2017 4062.00
31.5059 2271.00
31.8102 5148.00
32.1144 5794.00
32.4187 1929.00
32.723 1635.00
33.0272 1553.00
33.3315 1904.00
33.6357 1805.00
33.94 2052.00
34.2443 3147.00
34.5485 5623.00
34.8528 3231.00
35.157 2075.00
35.4613 1523.00
35.7656 2597.00
36.0698 1801.00
36.3741 1774.00
36.6783 1289.00
36.9826 1254.00
37.2869 1243.00
37.5911 1168.00
37.8954 1182.00
38.1996 1127.00
38.5039 1144.00
38.8082 1195.00
39.1124 1722.00
39.4167 1268.00
39.7209 1314.00
40.0252 1309.00
40.3295 1212.00
40.6337 1249.00
40.938 1399.00
41.2422 2336.00
41.5465 1962.00
41.8508 1787.00
42.155 1527.00
42.4593 1302.00
42.7635 1118.00
43.0678 1103.00
43.3721 1141.00
43.6763 1305.00
43.9806 1073.00
44.2849 1170.00
44.5891 1499.00
44.8934 1580.00
45.1976 1457.00
45.5019 1498.00
45.8062 1542.00
46.1104 1645.00
46.4147 1391.00
46.7189 1388.00
47.0232 1876.00
47.3275 1458.00
47.6317 1245.00
47.936 1129.00
48.2402 1133.00
48.5445 1192.00
48.8488 1185.00
49.153 1304.00
49.4573 1657.00
49.7615 2058.00
50.0658 1991.00
50.3701 1495.00
50.6743 2496.00
50.9786 2747.00
51.2828 2023.00
51.5871 1391.00
51.8914 1497.00
52.1956 1220.00
52.4999 1152.00
52.8041 1135.00
53.1084 1193.00
53.4127 1383.00
53.7169 1647.00
54.0212 1416.00
54.3254 1471.00
54.6297 1758.00
54.934 1562.00
55.2382 1262.00
55.5425 1433.00
55.8467 1859.00
56.151 2065.00
56.4553 1634.00
56.7595 1540.00
57.0638 1115.00
57.368 1286.00
57.6723 1451.00
57.9766 1588.00
58.2808 1377.00
58.5851 1574.00
58.8893 1605.00
59.1936 1627.00
59.4979 1509.00
59.8021 1241.00
60.1064 1375.00
60.4106 1743.00
60.7149 1995.00
61.0192 1409.00
61.3234 1460.00
61.6277 1405.00
61.932 1468.00
62.2362 1534.00
62.5405 1608.00
62.8447 1434.00
63.149 1369.00
63.4533 1397.00
63.7575 1388.00
64.0618 950.00
64.366 1082.00
64.6703 1149.00
64.9745 1242.00
65.2788 1219.00
65.5831 1142.00
65.8873 1272.00
66.1916 1473.00
66.4959 1697.00
66.8001 1163.00
67.1044 1016.00
67.4086 1006.00
67.7129 983.00
68.0172 946.00
68.3214 917.00
68.6257 961.00
68.9299 958.00
69.2342 1020.00
69.5385 982.00
69.8427 1069.00
70.147 945.00
70.4512 980.00
70.7555 944.00
71.0598 919.00
71.364 1038.00
71.6683 1136.00
71.9725 1410.00
72.2768 1200.00
72.5811 1114.00
72.8853 1161.00
73.1896 1107.00
73.4938 1090.00
73.7981 846.00
74.1024 957.00
74.4066 937.00
74.7109 901.00
75.0151 932.00
75.3194 1068.00
75.6237 1119.00
75.9279 1201.00
76.2322 1051.00
76.5364 970.00
76.8407 1011.00
77.145 1034.00
77.4492 991.00
77.7535 926.00
78.0577 956.00
78.362 1028.00
78.6663 970.00
78.9705 841.00
79.2748 965.00
79.579 937.00
79.8833 1030.00
80.1876 1012.00
80.4918 836.00
80.7961 897.00
81.1003 923.00
81.4046 843.00
81.7089 886.00
82.0131 980.00
82.3174 1034.00
82.6217 949.00
82.9259 969.00
83.2302 997.00
83.5344 1036.00
83.8387 1046.00
84.143 1086.00
84.4472 988.00
84.7515 1015.00
85.0557 1082.00
85.36 891.00
85.6643 963.00
85.9685 962.00
86.2728 969.00
86.577 923.00
86.8813 1032.00
87.1856 937.00
87.4898 928.00
87.7941 969.00
88.0983 961.00
88.4026 1134.00
88.7069 1028.00
89.0111 1102.00
89.3154 1160.00
89.6196 1037.00
89.9239 1001.00
90.2282 1030.00
90.5324 1025.00
90.8367 1028.00
91.1409 940.00
91.4452 946.00
91.7495 864.00
92.0537 868.00
92.358 877.00
92.6622 936.00
92.9665 834.00
93.2708 913.00
93.575 822.00
93.8793 939.00
94.1835 933.00
94.4878 894.00
94.7921 933.00
95.0963 927.00
95.4006 971.00
95.7048 980.00
96.0091 1060.00
96.3134 1059.00
96.6176 910.00
96.9219 1060.00
97.2261 1103.00
97.5304 1114.00
97.8347 1132.00
98.1389 1019.00
98.4432 923.00
98.7474 877.00
99.0517 1049.00
99.356 1046.00
99.6602 1020.00
99.9645 1167.00
100.095 1164.00