File: data/xrd_creation/results/NSC_58.xy
9.903433 2844.00
10.2077 2604.00
10.512 2597.00
10.8162 2553.00
11.1205 2507.00
11.4247 2349.00
11.729 2307.00
12.0333 2262.00
12.3375 2213.00
12.6418 2098.00
12.946 2153.00
13.2503 2043.00
13.5546 2030.00
13.8588 2330.00
14.1631 3031.00
14.4673 2140.00
14.7716 1968.00
15.0759 1968.00
15.3801 1892.00
15.6844 1866.00
15.9886 1811.00
16.2929 1908.00
16.5972 1813.00
16.9014 1785.00
17.2057 1888.00
17.5099 1786.00
17.8142 1792.00
18.1185 1679.00
18.4227 1807.00
18.727 1734.00
19.0312 1880.00
19.3355 2702.00
19.6398 6549.00
19.944 2600.00
20.2483 4498.00
20.5525 7332.00
20.8568 1925.00
21.1611 1711.00
21.4653 1772.00
21.7696 1793.00
22.0738 1700.00
22.3781 1672.00
22.6824 1704.00
22.9866 1859.00
23.2909 3128.00
23.5951 9160.00
23.8994 2518.00
24.2037 1897.00
24.5079 1722.00
24.8122 1708.00
25.1164 1574.00
25.4207 1560.00
25.725 1541.00
26.0292 1545.00
26.3335 1568.00
26.6378 1595.00
26.942 1515.00
27.2463 1526.00
27.5505 1700.00
27.8548 1663.00
28.1591 2655.00
28.4633 7164.00
28.7676 1934.00
29.0718 1529.00
29.3761 1453.00
29.6804 1537.00
29.9846 1528.00
30.2889 1498.00
30.5931 1609.00
30.8974 1973.00
31.2017 5853.00
31.5059 7351.00
31.8102 2291.00
32.1144 1510.00
32.4187 1562.00
32.723 1456.00
33.0272 1415.00
33.3315 1493.00
33.6357 1623.00
33.94 1630.00
34.2443 1565.00
34.5485 1515.00
34.8528 1758.00
35.157 3498.00
35.4613 3276.00
35.7656 4255.00
36.0698 1697.00
36.3741 1384.00
36.6783 1401.00
36.9826 1423.00
37.2869 1387.00
37.5911 1221.00
37.8954 1394.00
38.1996 1376.00
38.5039 1328.00
38.8082 1340.00
39.1124 1299.00
39.4167 1328.00
39.7209 1908.00
40.0252 1501.00
40.3295 1289.00
40.6337 1301.00
40.938 1419.00
41.2422 1914.00
41.5465 2126.00
41.8508 1457.00
42.155 1539.00
42.4593 1258.00
42.7635 1341.00
43.0678 2334.00
43.3721 1719.00
43.6763 1415.00
43.9806 1512.00
44.2849 1317.00
44.5891 1465.00
44.8934 2512.00
45.1976 2476.00
45.5019 1486.00
45.8062 1497.00
46.1104 2575.00
46.4147 1876.00
46.7189 1981.00
47.0232 1373.00
47.3275 1357.00
47.6317 1461.00
47.936 2993.00
48.2402 3416.00
48.5445 1550.00
48.8488 1691.00
49.153 1390.00
49.4573 1378.00
49.7615 1386.00
50.0658 1318.00
50.3701 1434.00
50.6743 1417.00
50.9786 1652.00
51.2828 3030.00
51.5871 2460.00
51.8914 1727.00
52.1956 1407.00
52.4999 1251.00
52.8041 1247.00
53.1084 1224.00
53.4127 1222.00
53.7169 1328.00
54.0212 1438.00
54.3254 2059.00
54.6297 1627.00
54.934 1496.00
55.2382 2540.00
55.5425 3965.00
55.8467 2547.00
56.151 1366.00
56.4553 1348.00
56.7595 1392.00
57.0638 1608.00
57.368 1379.00
57.6723 1298.00
57.9766 1531.00
58.2808 1708.00
58.5851 1685.00
58.8893 1385.00
59.1936 1228.00
59.4979 1335.00
59.8021 2049.00
60.1064 2152.00
60.4106 1487.00
60.7149 1393.00
61.0192 2187.00
61.3234 2426.00
61.6277 1477.00
61.932 1539.00
62.2362 1796.00
62.5405 1723.00
62.8447 1450.00
63.149 1478.00
63.4533 1717.00
63.7575 2072.00
64.0618 1838.00
64.366 1395.00
64.6703 1216.00
64.9745 1438.00
65.2788 1402.00
65.5831 1313.00
65.8873 1545.00
66.1916 1815.00
66.4959 1474.00
66.8001 1241.00
67.1044 1329.00
67.4086 1559.00
67.7129 1689.00
68.0172 1503.00
68.3214 1308.00
68.6257 1228.00
68.9299 1467.00
69.2342 1387.00
69.5385 1196.00
69.8427 1228.00
70.147 1205.00
70.4512 1157.00
70.7555 1314.00
71.0598 1722.00
71.364 1678.00
71.6683 1342.00
71.9725 1167.00
72.2768 1222.00
72.5811 1132.00
72.8853 1148.00
73.1896 1211.00
73.4938 1450.00
73.7981 1584.00
74.1024 1413.00
74.4066 1342.00
74.7109 1386.00
75.0151 1706.00
75.3194 1765.00
75.6237 1556.00
75.9279 1311.00
76.2322 1206.00
76.5364 1203.00
76.8407 1246.00
77.145 1249.00
77.4492 1200.00
77.7535 1145.00
78.0577 1187.00
78.362 1396.00
78.6663 1618.00
78.9705 1704.00
79.2748 1326.00
79.579 1176.00
79.8833 1197.00
80.1876 1198.00
80.4918 1275.00
80.7961 1490.00
81.1003 1524.00
81.4046 1211.00
81.7089 1234.00
82.0131 1142.00
82.3174 1116.00
82.6217 1171.00
82.9259 1229.00
83.2302 1382.00
83.5344 1433.00
83.8387 1419.00
84.143 1205.00
84.4472 1230.00
84.7515 1325.00
85.0557 1463.00
85.36 1348.00
85.6643 1449.00
85.9685 1486.00
86.2728 1373.00
86.577 1308.00
86.8813 1240.00
87.1856 1261.00
87.4898 1212.00
87.7941 1224.00
88.0983 1275.00
88.4026 1253.00
88.7069 1328.00
89.0111 1238.00
89.3154 1423.00
89.6196 1629.00
89.9239 1505.00
90.2282 1300.00
90.5324 1198.00
90.8367 1208.00
91.1409 1305.00
91.4452 1271.00
91.7495 1339.00
92.0537 1296.00
92.358 1263.00
92.6622 1191.00
92.9665 1224.00
93.2708 1253.00
93.575 1241.00
93.8793 1337.00
94.1835 1332.00
94.4878 1246.00
94.7921 1340.00
95.0963 1407.00
95.4006 1329.00
95.7048 1306.00
96.0091 1369.00
96.3134 1331.00
96.6176 1355.00
96.9219 1315.00
97.2261 1232.00
97.5304 1081.00
97.8347 1159.00
98.1389 1111.00
98.4432 1189.00
98.7474 1222.00
99.0517 1267.00
99.356 1316.00
99.6602 1307.00
99.9645 1442.00
100.095 1493.00