File: data/xrd_creation/results/NSC_2.xy
9.903433 2710.00
10.2077 2557.00
10.512 2505.00
10.8162 2441.00
11.1205 2321.00
11.4247 2217.00
11.729 2184.00
12.0333 2156.00
12.3375 2105.00
12.6418 2119.00
12.946 1975.00
13.2503 1882.00
13.5546 1930.00
13.8588 1922.00
14.1631 1920.00
14.4673 2157.00
14.7716 1842.00
15.0759 2127.00
15.3801 3636.00
15.6844 1808.00
15.9886 1818.00
16.2929 1689.00
16.5972 1710.00
16.9014 1661.00
17.2057 1614.00
17.5099 1605.00
17.8142 1790.00
18.1185 1634.00
18.4227 1625.00
18.727 1923.00
19.0312 3169.00
19.3355 1556.00
19.6398 1829.00
19.944 2821.00
20.2483 1651.00
20.5525 2598.00
20.8568 4971.00
21.1611 3766.00
21.4653 1992.00
21.7696 5843.00
22.0738 7742.00
22.3781 2419.00
22.6824 1559.00
22.9866 1546.00
23.2909 1502.00
23.5951 1622.00
23.8994 3347.00
24.2037 1901.00
24.5079 4019.00
24.8122 1848.00
25.1164 2141.00
25.4207 10499.00
25.725 2289.00
26.0292 2568.00
26.3335 8767.00
26.6378 2472.00
26.942 2328.00
27.2463 1394.00
27.5505 1510.00
27.8548 1412.00
28.1591 1453.00
28.4633 2842.00
28.7676 2580.00
29.0718 1448.00
29.3761 1379.00
29.6804 1606.00
29.9846 1409.00
30.2889 1959.00
30.5931 6078.00
30.8974 3090.00
31.2017 1617.00
31.5059 2246.00
31.8102 3238.00
32.1144 1404.00
32.4187 1294.00
32.723 1456.00
33.0272 1543.00
33.3315 3373.00
33.6357 5407.00
33.94 1739.00
34.2443 2305.00
34.5485 1584.00
34.8528 1456.00
35.157 1231.00
35.4613 2586.00
35.7656 1674.00
36.0698 2076.00
36.3741 4153.00
36.6783 1603.00
36.9826 1127.00
37.2869 1112.00
37.5911 1125.00
37.8954 2191.00
38.1996 2249.00
38.5039 3950.00
38.8082 1746.00
39.1124 1288.00
39.4167 1066.00
39.7209 2008.00
40.0252 1210.00
40.3295 1141.00
40.6337 1472.00
40.938 1220.00
41.2422 1194.00
41.5465 1137.00
41.8508 1413.00
42.155 2162.00
42.4593 1457.00
42.7635 1058.00
43.0678 1051.00
43.3721 1102.00
43.6763 2505.00
43.9806 1407.00
44.2849 1413.00
44.5891 1088.00
44.8934 1249.00
45.1976 1504.00
45.5019 1455.00
45.8062 1315.00
46.1104 1138.00
46.4147 1801.00
46.7189 1301.00
47.0232 1369.00
47.3275 1119.00
47.6317 1151.00
47.936 1245.00
48.2402 2691.00
48.5445 2208.00
48.8488 1547.00
49.153 1585.00
49.4573 1559.00
49.7615 3607.00
50.0658 1588.00
50.3701 1267.00
50.6743 1206.00
50.9786 1537.00
51.2828 1228.00
51.5871 1728.00
51.8914 2843.00
52.1956 1424.00
52.4999 1130.00
52.8041 1712.00
53.1084 1119.00
53.4127 1181.00
53.7169 1355.00
54.0212 1059.00
54.3254 1197.00
54.6297 1564.00
54.934 2848.00
55.2382 1388.00
55.5425 1266.00
55.8467 1721.00
56.151 1495.00
56.4553 1106.00
56.7595 996.00
57.0638 1015.00
57.368 1115.00
57.6723 1329.00
57.9766 1426.00
58.2808 2157.00
58.5851 2431.00
58.8893 1437.00
59.1936 1670.00
59.4979 1189.00
59.8021 1630.00
60.1064 1898.00
60.4106 2274.00
60.7149 1479.00
61.0192 1078.00
61.3234 1138.00
61.6277 1643.00
61.932 1528.00
62.2362 1245.00
62.5405 1010.00
62.8447 1091.00
63.149 1342.00
63.4533 1062.00
63.7575 1067.00
64.0618 1516.00
64.366 1857.00
64.6703 1577.00
64.9745 1134.00
65.2788 1241.00
65.5831 1236.00
65.8873 1496.00
66.1916 2672.00
66.4959 2284.00
66.8001 1885.00
67.1044 1230.00
67.4086 1695.00
67.7129 1292.00
68.0172 978.00
68.3214 1262.00
68.6257 1631.00
68.9299 1439.00
69.2342 1461.00
69.5385 1428.00
69.8427 1084.00
70.147 962.00
70.4512 1338.00
70.7555 1523.00
71.0598 1079.00
71.364 1014.00
71.6683 914.00
71.9725 982.00
72.2768 919.00
72.5811 979.00
72.8853 1055.00
73.1896 1093.00
73.4938 1023.00
73.7981 1009.00
74.1024 1074.00
74.4066 948.00
74.7109 1035.00
75.0151 1063.00
75.3194 1005.00
75.6237 1084.00
75.9279 1131.00
76.2322 1002.00
76.5364 956.00
76.8407 1055.00
77.145 1355.00
77.4492 1369.00
77.7535 1329.00
78.0577 1165.00
78.362 972.00
78.6663 994.00
78.9705 1098.00
79.2748 1187.00
79.579 1075.00
79.8833 1026.00
80.1876 1102.00
80.4918 1038.00
80.7961 911.00
81.1003 887.00
81.4046 874.00
81.7089 931.00
82.0131 985.00
82.3174 1064.00
82.6217 982.00
82.9259 970.00
83.2302 910.00
83.5344 931.00
83.8387 986.00
84.143 1038.00
84.4472 984.00
84.7515 1029.00
85.0557 1096.00
85.36 1020.00
85.6643 942.00
85.9685 961.00
86.2728 940.00
86.577 994.00
86.8813 974.00
87.1856 1056.00
87.4898 1017.00
87.7941 992.00
88.0983 888.00
88.4026 900.00
88.7069 1048.00
89.0111 1043.00
89.3154 988.00
89.6196 937.00
89.9239 1003.00
90.2282 934.00
90.5324 892.00
90.8367 967.00
91.1409 1017.00
91.4452 1151.00
91.7495 1146.00
92.0537 1223.00
92.358 1190.00
92.6622 1335.00
92.9665 1220.00
93.2708 1027.00
93.575 1001.00
93.8793 913.00
94.1835 917.00
94.4878 861.00
94.7921 920.00
95.0963 852.00
95.4006 1100.00
95.7048 1076.00
96.0091 998.00
96.3134 994.00
96.6176 991.00
96.9219 939.00
97.2261 996.00
97.5304 927.00
97.8347 978.00
98.1389 1018.00
98.4432 1001.00
98.7474 983.00
99.0517 937.00
99.356 1010.00
99.6602 1137.00
99.9645 1138.00
100.095 1108.00