File: data/xrd_creation/results/NSC_143.xy
9.903433 3130.00
10.2077 3033.00
10.512 3132.00
10.8162 2789.00
11.1205 2819.00
11.4247 2760.00
11.729 2745.00
12.0333 2811.00
12.3375 2779.00
12.6418 2720.00
12.946 2671.00
13.2503 2518.00
13.5546 2809.00
13.8588 4614.00
14.1631 3148.00
14.4673 2977.00
14.7716 3074.00
15.0759 2500.00
15.3801 2554.00
15.6844 2404.00
15.9886 2468.00
16.2929 2511.00
16.5972 2435.00
16.9014 2466.00
17.2057 2450.00
17.5099 2444.00
17.8142 2480.00
18.1185 2419.00
18.4227 2389.00
18.727 2346.00
19.0312 2582.00
19.3355 2912.00
19.6398 10260.00
19.944 3067.00
20.2483 2384.00
20.5525 2395.00
20.8568 3066.00
21.1611 2193.00
21.4653 2278.00
21.7696 2246.00
22.0738 2116.00
22.3781 2452.00
22.6824 2526.00
22.9866 5109.00
23.2909 3078.00
23.5951 2806.00
23.8994 2379.00
24.2037 2695.00
24.5079 2187.00
24.8122 2259.00
25.1164 2232.00
25.4207 2164.00
25.725 2116.00
26.0292 2108.00
26.3335 2169.00
26.6378 2318.00
26.942 2213.00
27.2463 2320.00
27.5505 2295.00
27.8548 4827.00
28.1591 2095.00
28.4633 2085.00
28.7676 2226.00
29.0718 2302.00
29.3761 6279.00
29.6804 2946.00
29.9846 2281.00
30.2889 2845.00
30.5931 2457.00
30.8974 2844.00
31.2017 12221.00
31.5059 3686.00
31.8102 2188.00
32.1144 2220.00
32.4187 2737.00
32.723 2541.00
33.0272 2359.00
33.3315 2036.00
33.6357 2105.00
33.94 3150.00
34.2443 18041.00
34.5485 2629.00
34.8528 2036.00
35.157 1877.00
35.4613 1847.00
35.7656 1793.00
36.0698 1898.00
36.3741 1939.00
36.6783 1778.00
36.9826 1835.00
37.2869 1799.00
37.5911 1754.00
37.8954 1800.00
38.1996 1766.00
38.5039 1748.00
38.8082 1707.00
39.1124 1781.00
39.4167 1804.00
39.7209 1969.00
40.0252 1836.00
40.3295 1982.00
40.6337 1821.00
40.938 1781.00
41.2422 1856.00
41.5465 3370.00
41.8508 2205.00
42.155 3400.00
42.4593 2291.00
42.7635 1935.00
43.0678 2004.00
43.3721 1823.00
43.6763 2146.00
43.9806 1999.00
44.2849 2005.00
44.5891 3153.00
44.8934 1790.00
45.1976 1912.00
45.5019 2144.00
45.8062 2049.00
46.1104 1944.00
46.4147 2191.00
46.7189 3717.00
47.0232 6203.00
47.3275 2322.00
47.6317 2033.00
47.936 2106.00
48.2402 2045.00
48.5445 2133.00
48.8488 4474.00
49.153 2649.00
49.4573 2367.00
49.7615 1844.00
50.0658 1783.00
50.3701 1856.00
50.6743 2144.00
50.9786 2030.00
51.2828 2946.00
51.5871 2048.00
51.8914 1706.00
52.1956 1695.00
52.4999 1775.00
52.8041 1877.00
53.1084 3465.00
53.4127 2838.00
53.7169 2073.00
54.0212 1805.00
54.3254 1832.00
54.6297 1961.00
54.934 1829.00
55.2382 1687.00
55.5425 1663.00
55.8467 1716.00
56.151 1774.00
56.4553 2003.00
56.7595 1741.00
57.0638 1678.00
57.368 1616.00
57.6723 1888.00
57.9766 2790.00
58.2808 1825.00
58.5851 1790.00
58.8893 2113.00
59.1936 4358.00
59.4979 2442.00
59.8021 1820.00
60.1064 1697.00
60.4106 1769.00
60.7149 2209.00
61.0192 3224.00
61.3234 2794.00
61.6277 1752.00
61.932 1686.00
62.2362 1763.00
62.5405 1713.00
62.8447 1751.00
63.149 1708.00
63.4533 1642.00
63.7575 1637.00
64.0618 1523.00
64.366 1625.00
64.6703 1912.00
64.9745 1889.00
65.2788 1590.00
65.5831 1517.00
65.8873 1783.00
66.1916 1773.00
66.4959 1870.00
66.8001 1767.00
67.1044 1583.00
67.4086 1521.00
67.7129 1553.00
68.0172 1685.00
68.3214 1745.00
68.6257 1589.00
68.9299 1584.00
69.2342 1447.00
69.5385 1629.00
69.8427 1572.00
70.147 1506.00
70.4512 1510.00
70.7555 1446.00
71.0598 1469.00
71.364 1709.00
71.6683 2148.00
71.9725 1749.00
72.2768 1520.00
72.5811 1659.00
72.8853 1678.00
73.1896 1559.00
73.4938 1552.00
73.7981 1528.00
74.1024 1456.00
74.4066 1463.00
74.7109 1500.00
75.0151 1890.00
75.3194 1866.00
75.6237 1704.00
75.9279 1454.00
76.2322 1599.00
76.5364 1567.00
76.8407 1663.00
77.145 1463.00
77.4492 1569.00
77.7535 1660.00
78.0577 1473.00
78.362 1548.00
78.6663 1585.00
78.9705 1684.00
79.2748 1509.00
79.579 1492.00
79.8833 1898.00
80.1876 1962.00
80.4918 1633.00
80.7961 1550.00
81.1003 1513.00
81.4046 1617.00
81.7089 1734.00
82.0131 1778.00
82.3174 1511.00
82.6217 1433.00
82.9259 1502.00
83.2302 1479.00
83.5344 1412.00
83.8387 1511.00
84.143 1513.00
84.4472 1479.00
84.7515 1492.00
85.0557 1513.00
85.36 1478.00
85.6643 1442.00
85.9685 1517.00
86.2728 1581.00
86.577 1772.00
86.8813 1690.00
87.1856 1530.00
87.4898 1480.00
87.7941 1504.00
88.0983 1533.00
88.4026 1480.00
88.7069 1551.00
89.0111 1559.00
89.3154 1450.00
89.6196 1588.00
89.9239 1612.00
90.2282 1554.00
90.5324 1499.00
90.8367 1553.00
91.1409 1664.00
91.4452 1664.00
91.7495 1682.00
92.0537 1545.00
92.358 1503.00
92.6622 1447.00
92.9665 1466.00
93.2708 1583.00
93.575 1571.00
93.8793 1431.00
94.1835 1433.00
94.4878 1494.00
94.7921 1544.00
95.0963 1609.00
95.4006 1526.00
95.7048 1573.00
96.0091 1559.00
96.3134 1482.00
96.6176 1459.00
96.9219 1397.00
97.2261 1512.00
97.5304 1550.00
97.8347 1491.00
98.1389 1592.00
98.4432 1614.00
98.7474 1514.00
99.0517 1557.00
99.356 1587.00
99.6602 1753.00
99.9645 1674.00
100.095 1645.00