File: data/xrd_creation/results/NSC_128.xy
9.903433 2901.00
10.2077 2826.00
10.512 2747.00
10.8162 2675.00
11.1205 2677.00
11.4247 2496.00
11.729 2440.00
12.0333 2390.00
12.3375 2279.00
12.6418 2343.00
12.946 2262.00
13.2503 2152.00
13.5546 2166.00
13.8588 2421.00
14.1631 3641.00
14.4673 4063.00
14.7716 2274.00
15.0759 2132.00
15.3801 2151.00
15.6844 2050.00
15.9886 2083.00
16.2929 2142.00
16.5972 2028.00
16.9014 2063.00
17.2057 2069.00
17.5099 2048.00
17.8142 2039.00
18.1185 1881.00
18.4227 1971.00
18.727 2330.00
19.0312 2857.00
19.3355 2161.00
19.6398 4449.00
19.944 13474.00
20.2483 3061.00
20.5525 15522.00
20.8568 2347.00
21.1611 2090.00
21.4653 2279.00
21.7696 6776.00
22.0738 2268.00
22.3781 1894.00
22.6824 1808.00
22.9866 1911.00
23.2909 1954.00
23.5951 3594.00
23.8994 7364.00
24.2037 2234.00
24.5079 3486.00
24.8122 1962.00
25.1164 1801.00
25.4207 1671.00
25.725 1756.00
26.0292 1696.00
26.3335 1691.00
26.6378 2405.00
26.942 1875.00
27.2463 1692.00
27.5505 1610.00
27.8548 1695.00
28.1591 1764.00
28.4633 3860.00
28.7676 6291.00
29.0718 1742.00
29.3761 1649.00
29.6804 1651.00
29.9846 1662.00
30.2889 1563.00
30.5931 1799.00
30.8974 3259.00
31.2017 1868.00
31.5059 8066.00
31.8102 4965.00
32.1144 1603.00
32.4187 1649.00
32.723 1587.00
33.0272 1599.00
33.3315 1639.00
33.6357 1456.00
33.94 2130.00
34.2443 1867.00
34.5485 1610.00
34.8528 1629.00
35.157 1820.00
35.4613 6272.00
35.7656 6406.00
36.0698 2759.00
36.3741 4397.00
36.6783 1539.00
36.9826 1456.00
37.2869 1467.00
37.5911 1861.00
37.8954 1469.00
38.1996 1637.00
38.5039 1375.00
38.8082 1447.00
39.1124 1366.00
39.4167 1506.00
39.7209 1737.00
40.0252 2143.00
40.3295 1463.00
40.6337 1366.00
40.938 1355.00
41.2422 1462.00
41.5465 2481.00
41.8508 2229.00
42.155 1660.00
42.4593 1584.00
42.7635 1289.00
43.0678 1492.00
43.3721 2851.00
43.6763 2072.00
43.9806 1672.00
44.2849 1673.00
44.5891 1383.00
44.8934 1408.00
45.1976 2742.00
45.5019 2659.00
45.8062 1561.00
46.1104 1529.00
46.4147 3792.00
46.7189 1640.00
47.0232 2561.00
47.3275 1683.00
47.6317 1401.00
47.936 1531.00
48.2402 3414.00
48.5445 2973.00
48.8488 1590.00
49.153 1620.00
49.4573 1486.00
49.7615 2730.00
50.0658 1306.00
50.3701 1337.00
50.6743 1340.00
50.9786 1638.00
51.2828 1539.00
51.5871 3016.00
51.8914 3066.00
52.1956 1995.00
52.4999 1436.00
52.8041 1399.00
53.1084 1534.00
53.4127 1396.00
53.7169 1341.00
54.0212 1389.00
54.3254 1429.00
54.6297 2576.00
54.934 2340.00
55.2382 1612.00
55.5425 3514.00
55.8467 4587.00
56.151 1958.00
56.4553 1319.00
56.7595 1361.00
57.0638 1342.00
57.368 1440.00
57.6723 1373.00
57.9766 1420.00
58.2808 2012.00
58.5851 2335.00
58.8893 2025.00
59.1936 1521.00
59.4979 1333.00
59.8021 1300.00
60.1064 1809.00
60.4106 2633.00
60.7149 1725.00
61.0192 1385.00
61.3234 2102.00
61.6277 2048.00
61.932 1460.00
62.2362 1378.00
62.5405 1742.00
62.8447 1841.00
63.149 1839.00
63.4533 1641.00
63.7575 2080.00
64.0618 2607.00
64.366 2172.00
64.6703 1531.00
64.9745 1256.00
65.2788 1446.00
65.5831 1558.00
65.8873 1413.00
66.1916 1288.00
66.4959 1701.00
66.8001 1728.00
67.1044 1526.00
67.4086 1787.00
67.7129 1873.00
68.0172 1714.00
68.3214 1825.00
68.6257 1595.00
68.9299 1299.00
69.2342 1544.00
69.5385 1509.00
69.8427 1229.00
70.147 1186.00
70.4512 1283.00
70.7555 1392.00
71.0598 1294.00
71.364 1901.00
71.6683 1938.00
71.9725 1362.00
72.2768 1256.00
72.5811 1282.00
72.8853 1337.00
73.1896 1162.00
73.4938 1180.00
73.7981 1320.00
74.1024 1561.00
74.4066 1721.00
74.7109 1405.00
75.0151 1322.00
75.3194 1705.00
75.6237 1898.00
75.9279 1798.00
76.2322 1441.00
76.5364 1240.00
76.8407 1421.00
77.145 1347.00
77.4492 1283.00
77.7535 1316.00
78.0577 1309.00
78.362 1278.00
78.6663 1366.00
78.9705 1704.00
79.2748 1825.00
79.579 1657.00
79.8833 1371.00
80.1876 1332.00
80.4918 1342.00
80.7961 1263.00
81.1003 1290.00
81.4046 1543.00
81.7089 1528.00
82.0131 1448.00
82.3174 1212.00
82.6217 1193.00
82.9259 1301.00
83.2302 1182.00
83.5344 1182.00
83.8387 1585.00
84.143 1612.00
84.4472 1347.00
84.7515 1220.00
85.0557 1494.00
85.36 1574.00
85.6643 1437.00
85.9685 1589.00
86.2728 1543.00
86.577 1383.00
86.8813 1416.00
87.1856 1344.00
87.4898 1305.00
87.7941 1266.00
88.0983 1257.00
88.4026 1305.00
88.7069 1418.00
89.0111 1434.00
89.3154 1383.00
89.6196 1327.00
89.9239 1700.00
90.2282 1642.00
90.5324 1474.00
90.8367 1394.00
91.1409 1253.00
91.4452 1291.00
91.7495 1362.00
92.0537 1711.00
92.358 1648.00
92.6622 1453.00
92.9665 1368.00
93.2708 1321.00
93.575 1272.00
93.8793 1221.00
94.1835 1269.00
94.4878 1301.00
94.7921 1343.00
95.0963 1314.00
95.4006 1464.00
95.7048 1497.00
96.0091 1470.00
96.3134 1414.00
96.6176 1442.00
96.9219 1491.00
97.2261 1547.00
97.5304 1344.00
97.8347 1292.00
98.1389 1228.00
98.4432 1236.00
98.7474 1264.00
99.0517 1281.00
99.356 1309.00
99.6602 1426.00
99.9645 1367.00
100.095 1368.00