File: data/xrd_creation/results/NSC_106.xy
9.903433 2690.00
10.2077 2605.00
10.512 2585.00
10.8162 2400.00
11.1205 2311.00
11.4247 2271.00
11.729 2164.00
12.0333 2024.00
12.3375 1914.00
12.6418 1902.00
12.946 1981.00
13.2503 1775.00
13.5546 1838.00
13.8588 1845.00
14.1631 1994.00
14.4673 2406.00
14.7716 1638.00
15.0759 1616.00
15.3801 1663.00
15.6844 1618.00
15.9886 1505.00
16.2929 1475.00
16.5972 1458.00
16.9014 1486.00
17.2057 1450.00
17.5099 1360.00
17.8142 1480.00
18.1185 1349.00
18.4227 1359.00
18.727 1293.00
19.0312 1276.00
19.3355 1324.00
19.6398 1963.00
19.944 3878.00
20.2483 1795.00
20.5525 1605.00
20.8568 4308.00
21.1611 4221.00
21.4653 1336.00
21.7696 1261.00
22.0738 1185.00
22.3781 1149.00
22.6824 1093.00
22.9866 1075.00
23.2909 1145.00
23.5951 1176.00
23.8994 1955.00
24.2037 2929.00
24.5079 1199.00
24.8122 971.00
25.1164 944.00
25.4207 924.00
25.725 1010.00
26.0292 958.00
26.3335 1021.00
26.6378 1599.00
26.942 1366.00
27.2463 933.00
27.5505 847.00
27.8548 864.00
28.1591 867.00
28.4633 905.00
28.7676 1288.00
29.0718 2783.00
29.3761 1129.00
29.6804 779.00
29.9846 749.00
30.2889 768.00
30.5931 786.00
30.8974 717.00
31.2017 790.00
31.5059 1103.00
31.8102 3685.00
32.1144 3253.00
32.4187 1049.00
32.723 894.00
33.0272 727.00
33.3315 715.00
33.6357 697.00
33.94 1324.00
34.2443 1235.00
34.5485 685.00
34.8528 668.00
35.157 623.00
35.4613 625.00
35.7656 834.00
36.0698 1680.00
36.3741 1178.00
36.6783 2192.00
36.9826 1052.00
37.2869 627.00
37.5911 548.00
37.8954 696.00
38.1996 788.00
38.5039 617.00
38.8082 637.00
39.1124 606.00
39.4167 530.00
39.7209 521.00
40.0252 560.00
40.3295 694.00
40.6337 668.00
40.938 509.00
41.2422 518.00
41.5465 503.00
41.8508 715.00
42.155 972.00
42.4593 785.00
42.7635 857.00
43.0678 605.00
43.3721 495.00
43.6763 497.00
43.9806 783.00
44.2849 1256.00
44.5891 544.00
44.8934 501.00
45.1976 601.00
45.5019 558.00
45.8062 924.00
46.1104 1147.00
46.4147 479.00
46.7189 483.00
47.0232 543.00
47.3275 1340.00
47.6317 1355.00
47.936 492.00
48.2402 474.00
48.5445 534.00
48.8488 576.00
49.153 966.00
49.4573 1965.00
49.7615 569.00
50.0658 482.00
50.3701 592.00
50.6743 422.00
50.9786 441.00
51.2828 428.00
51.5871 514.00
51.8914 1069.00
52.1956 1410.00
52.4999 1853.00
52.8041 508.00
53.1084 501.00
53.4127 460.00
53.7169 428.00
54.0212 384.00
54.3254 411.00
54.6297 478.00
54.934 602.00
55.2382 459.00
55.5425 662.00
55.8467 729.00
56.151 416.00
56.4553 442.00
56.7595 738.00
57.0638 1402.00
57.368 1623.00
57.6723 895.00
57.9766 543.00
58.2808 481.00
58.5851 467.00
58.8893 777.00
59.1936 524.00
59.4979 389.00
59.8021 400.00
60.1064 524.00
60.4106 451.00
60.7149 394.00
61.0192 429.00
61.3234 1070.00
61.6277 751.00
61.932 560.00
62.2362 612.00
62.5405 511.00
62.8447 996.00
63.149 1524.00
63.4533 683.00
63.7575 405.00
64.0618 356.00
64.366 467.00
64.6703 453.00
64.9745 585.00
65.2788 545.00
65.5831 1002.00
65.8873 967.00
66.1916 962.00
66.4959 440.00
66.8001 404.00
67.1044 540.00
67.4086 940.00
67.7129 462.00
68.0172 413.00
68.3214 342.00
68.6257 314.00
68.9299 326.00
69.2342 375.00
69.5385 771.00
69.8427 693.00
70.147 358.00
70.4512 313.00
70.7555 343.00
71.0598 456.00
71.364 527.00
71.6683 394.00
71.9725 390.00
72.2768 310.00
72.5811 346.00
72.8853 361.00
73.1896 332.00
73.4938 577.00
73.7981 590.00
74.1024 374.00
74.4066 370.00
74.7109 356.00
75.0151 397.00
75.3194 722.00
75.6237 440.00
75.9279 419.00
76.2322 480.00
76.5364 389.00
76.8407 349.00
77.145 326.00
77.4492 371.00
77.7535 532.00
78.0577 494.00
78.362 387.00
78.6663 354.00
78.9705 467.00
79.2748 416.00
79.579 354.00
79.8833 381.00
80.1876 356.00
80.4918 311.00
80.7961 338.00
81.1003 453.00
81.4046 651.00
81.7089 573.00
82.0131 392.00
82.3174 324.00
82.6217 447.00
82.9259 709.00
83.2302 538.00
83.5344 358.00
83.8387 357.00
84.143 338.00
84.4472 297.00
84.7515 303.00
85.0557 380.00
85.36 373.00
85.6643 309.00
85.9685 339.00
86.2728 405.00
86.577 634.00
86.8813 443.00
87.1856 388.00
87.4898 527.00
87.7941 725.00
88.0983 451.00
88.4026 322.00
88.7069 375.00
89.0111 334.00
89.3154 331.00
89.6196 336.00
89.9239 398.00
90.2282 411.00
90.5324 420.00
90.8367 472.00
91.1409 471.00
91.4452 415.00
91.7495 402.00
92.0537 308.00
92.358 378.00
92.6622 589.00
92.9665 562.00
93.2708 374.00
93.575 350.00
93.8793 353.00
94.1835 487.00
94.4878 437.00
94.7921 328.00
95.0963 359.00
95.4006 474.00
95.7048 425.00
96.0091 359.00
96.3134 427.00
96.6176 369.00
96.9219 312.00
97.2261 332.00
97.5304 330.00
97.8347 555.00
98.1389 556.00
98.4432 403.00
98.7474 335.00
99.0517 299.00
99.356 284.00
99.6602 311.00
99.9645 463.00
100.095 544.00