File: data/xrd_creation/results/NSC_171.xy
9.903433 2497.00
10.2077 2518.00
10.512 2427.00
10.8162 2328.00
11.1205 2214.00
11.4247 2137.00
11.729 2003.00
12.0333 2021.00
12.3375 1986.00
12.6418 1957.00
12.946 1810.00
13.2503 1809.00
13.5546 1838.00
13.8588 1715.00
14.1631 1656.00
14.4673 1725.00
14.7716 2328.00
15.0759 2476.00
15.3801 1720.00
15.6844 1587.00
15.9886 1620.00
16.2929 1522.00
16.5972 1497.00
16.9014 1435.00
17.2057 1450.00
17.5099 1422.00
17.8142 1398.00
18.1185 1400.00
18.4227 1333.00
18.727 1285.00
19.0312 1290.00
19.3355 1265.00
19.6398 1280.00
19.944 1386.00
20.2483 2602.00
20.5525 5245.00
20.8568 2426.00
21.1611 1739.00
21.4653 5069.00
21.7696 4034.00
22.0738 1779.00
22.3781 1134.00
22.6824 1177.00
22.9866 1078.00
23.2909 1103.00
23.5951 1027.00
23.8994 1082.00
24.2037 1176.00
24.5079 1829.00
24.8122 4439.00
25.1164 2414.00
25.4207 1338.00
25.725 971.00
26.0292 1110.00
26.3335 1693.00
26.6378 1050.00
26.942 970.00
27.2463 896.00
27.5505 868.00
27.8548 909.00
28.1591 858.00
28.4633 855.00
28.7676 826.00
29.0718 883.00
29.3761 1090.00
29.6804 3073.00
29.9846 2405.00
30.2889 1486.00
30.5931 948.00
30.8974 749.00
31.2017 777.00
31.5059 743.00
31.8102 810.00
32.1144 964.00
32.4187 2653.00
32.723 4566.00
33.0272 2337.00
33.3315 1651.00
33.6357 1114.00
33.94 820.00
34.2443 740.00
34.5485 682.00
34.8528 824.00
35.157 794.00
35.4613 696.00
35.7656 670.00
36.0698 663.00
36.3741 753.00
36.6783 1105.00
36.9826 1639.00
37.2869 1553.00
37.5911 2258.00
37.8954 1451.00
38.1996 1063.00
38.5039 900.00
38.8082 643.00
39.1124 615.00
39.4167 696.00
39.7209 848.00
40.0252 649.00
40.3295 570.00
40.6337 542.00
40.938 608.00
41.2422 831.00
41.5465 722.00
41.8508 658.00
42.155 704.00
42.4593 581.00
42.7635 836.00
43.0678 830.00
43.3721 800.00
43.6763 875.00
43.9806 770.00
44.2849 647.00
44.5891 572.00
44.8934 750.00
45.1976 1053.00
45.5019 842.00
45.8062 714.00
46.1104 734.00
46.4147 675.00
46.7189 940.00
47.0232 1102.00
47.3275 790.00
47.6317 677.00
47.936 672.00
48.2402 1165.00
48.5445 1361.00
48.8488 1021.00
49.153 819.00
49.4573 702.00
49.7615 676.00
50.0658 840.00
50.3701 1494.00
50.6743 1226.00
50.9786 937.00
51.2828 834.00
51.5871 704.00
51.8914 594.00
52.1956 550.00
52.4999 506.00
52.8041 511.00
53.1084 824.00
53.4127 1329.00
53.7169 1079.00
54.0212 790.00
54.3254 761.00
54.6297 606.00
54.934 556.00
55.2382 513.00
55.5425 548.00
55.8467 464.00
56.151 461.00
56.4553 503.00
56.7595 735.00
57.0638 690.00
57.368 620.00
57.6723 619.00
57.9766 823.00
58.2808 1123.00
58.5851 1325.00
58.8893 1203.00
59.1936 1000.00
59.4979 757.00
59.8021 820.00
60.1064 816.00
60.4106 680.00
60.7149 526.00
61.0192 538.00
61.3234 643.00
61.6277 540.00
61.932 599.00
62.2362 638.00
62.5405 873.00
62.8447 866.00
63.149 753.00
63.4533 704.00
63.7575 693.00
64.0618 910.00
64.366 1208.00
64.6703 1088.00
64.9745 802.00
65.2788 706.00
65.5831 680.00
65.8873 652.00
66.1916 662.00
66.4959 599.00
66.8001 729.00
67.1044 932.00
67.4086 911.00
67.7129 762.00
68.0172 671.00
68.3214 777.00
68.6257 797.00
68.9299 729.00
69.2342 643.00
69.5385 503.00
69.8427 470.00
70.147 461.00
70.4512 505.00
70.7555 520.00
71.0598 665.00
71.364 634.00
71.6683 555.00
71.9725 494.00
72.2768 463.00
72.5811 495.00
72.8853 532.00
73.1896 501.00
73.4938 497.00
73.7981 423.00
74.1024 485.00
74.4066 410.00
74.7109 467.00
75.0151 543.00
75.3194 605.00
75.6237 554.00
75.9279 542.00
76.2322 490.00
76.5364 548.00
76.8407 555.00
77.145 584.00
77.4492 571.00
77.7535 605.00
78.0577 560.00
78.362 480.00
78.6663 448.00
78.9705 476.00
79.2748 513.00
79.579 543.00
79.8833 512.00
80.1876 514.00
80.4918 494.00
80.7961 468.00
81.1003 498.00
81.4046 467.00
81.7089 503.00
82.0131 471.00
82.3174 435.00
82.6217 467.00
82.9259 497.00
83.2302 546.00
83.5344 582.00
83.8387 497.00
84.143 523.00
84.4472 577.00
84.7515 625.00
85.0557 560.00
85.36 511.00
85.6643 498.00
85.9685 488.00
86.2728 468.00
86.577 406.00
86.8813 417.00
87.1856 478.00
87.4898 421.00
87.7941 437.00
88.0983 467.00
88.4026 513.00
88.7069 546.00
89.0111 601.00
89.3154 628.00
89.6196 630.00
89.9239 578.00
90.2282 582.00
90.5324 503.00
90.8367 488.00
91.1409 510.00
91.4452 486.00
91.7495 449.00
92.0537 473.00
92.358 481.00
92.6622 517.00
92.9665 501.00
93.2708 504.00
93.575 467.00
93.8793 467.00
94.1835 458.00
94.4878 456.00
94.7921 551.00
95.0963 574.00
95.4006 523.00
95.7048 527.00
96.0091 488.00
96.3134 525.00
96.6176 475.00
96.9219 489.00
97.2261 547.00
97.5304 528.00
97.8347 476.00
98.1389 493.00
98.4432 459.00
98.7474 473.00
99.0517 487.00
99.356 500.00
99.6602 469.00
99.9645 581.00
100.095 553.00