File: data/xrd_creation/results/NSC_18.xy
9.903433 2641.00
10.2077 2596.00
10.512 2471.00
10.8162 2482.00
11.1205 2220.00
11.4247 2268.00
11.729 2267.00
12.0333 2146.00
12.3375 2099.00
12.6418 2111.00
12.946 1991.00
13.2503 1921.00
13.5546 2020.00
13.8588 1963.00
14.1631 2287.00
14.4673 2096.00
14.7716 1880.00
15.0759 2429.00
15.3801 2793.00
15.6844 1764.00
15.9886 1745.00
16.2929 1676.00
16.5972 1651.00
16.9014 1663.00
17.2057 1639.00
17.5099 1591.00
17.8142 1650.00
18.1185 1600.00
18.4227 1555.00
18.727 1666.00
19.0312 1698.00
19.3355 1749.00
19.6398 3134.00
19.944 3428.00
20.2483 2220.00
20.5525 7094.00
20.8568 4819.00
21.1611 2558.00
21.4653 1686.00
21.7696 3648.00
22.0738 8278.00
22.3781 1915.00
22.6824 1476.00
22.9866 1474.00
23.2909 1564.00
23.5951 3834.00
23.8994 3826.00
24.2037 1605.00
24.5079 1760.00
24.8122 1543.00
25.1164 2224.00
25.4207 10201.00
25.725 1792.00
26.0292 1906.00
26.3335 2614.00
26.6378 1680.00
26.942 1443.00
27.2463 1275.00
27.5505 1232.00
27.8548 1227.00
28.1591 1407.00
28.4633 3292.00
28.7676 2407.00
29.0718 1220.00
29.3761 1208.00
29.6804 1192.00
29.9846 1252.00
30.2889 1898.00
30.5931 5648.00
30.8974 1848.00
31.2017 1772.00
31.5059 6227.00
31.8102 2416.00
32.1144 1179.00
32.4187 1205.00
32.723 1263.00
33.0272 1343.00
33.3315 4338.00
33.6357 4057.00
33.94 1683.00
34.2443 2214.00
34.5485 1188.00
34.8528 1251.00
35.157 1627.00
35.4613 2571.00
35.7656 3202.00
36.0698 1783.00
36.3741 1857.00
36.6783 1049.00
36.9826 1021.00
37.2869 1065.00
37.5911 1087.00
37.8954 2073.00
38.1996 1388.00
38.5039 3287.00
38.8082 1611.00
39.1124 1073.00
39.4167 924.00
39.7209 1420.00
40.0252 1316.00
40.3295 1062.00
40.6337 1417.00
40.938 1108.00
41.2422 1041.00
41.5465 1351.00
41.8508 1335.00
42.155 1269.00
42.4593 1346.00
42.7635 996.00
43.0678 1112.00
43.3721 1490.00
43.6763 1338.00
43.9806 1488.00
44.2849 1060.00
44.5891 1053.00
44.8934 1352.00
45.1976 2033.00
45.5019 1294.00
45.8062 1045.00
46.1104 1351.00
46.4147 2130.00
46.7189 1449.00
47.0232 1241.00
47.3275 1025.00
47.6317 1106.00
47.936 1385.00
48.2402 3561.00
48.5445 1843.00
48.8488 1406.00
49.153 1193.00
49.4573 1256.00
49.7615 2199.00
50.0658 1211.00
50.3701 947.00
50.6743 987.00
50.9786 1244.00
51.2828 1294.00
51.5871 2346.00
51.8914 3093.00
52.1956 1344.00
52.4999 1043.00
52.8041 1352.00
53.1084 961.00
53.4127 958.00
53.7169 1005.00
54.0212 857.00
54.3254 1180.00
54.6297 1540.00
54.934 2325.00
55.2382 1536.00
55.5425 1908.00
55.8467 2115.00
56.151 1389.00
56.4553 1042.00
56.7595 916.00
57.0638 1051.00
57.368 1018.00
57.6723 1165.00
57.9766 1032.00
58.2808 1562.00
58.5851 1788.00
58.8893 1304.00
59.1936 1060.00
59.4979 1013.00
59.8021 1618.00
60.1064 2037.00
60.4106 2331.00
60.7149 1383.00
61.0192 1193.00
61.3234 1689.00
61.6277 1679.00
61.932 1351.00
62.2362 1153.00
62.5405 1232.00
62.8447 1052.00
63.149 1286.00
63.4533 1140.00
63.7575 1242.00
64.0618 1485.00
64.366 1742.00
64.6703 1441.00
64.9745 979.00
65.2788 1072.00
65.5831 1162.00
65.8873 1246.00
66.1916 2434.00
66.4959 2058.00
66.8001 1232.00
67.1044 1060.00
67.4086 1162.00
67.7129 1107.00
68.0172 1136.00
68.3214 1080.00
68.6257 1017.00
68.9299 1330.00
69.2342 1546.00
69.5385 1463.00
69.8427 1038.00
70.147 896.00
70.4512 1132.00
70.7555 1293.00
71.0598 1103.00
71.364 1093.00
71.6683 954.00
71.9725 868.00
72.2768 767.00
72.5811 811.00
72.8853 880.00
73.1896 1092.00
73.4938 1044.00
73.7981 1097.00
74.1024 1000.00
74.4066 988.00
74.7109 998.00
75.0151 1150.00
75.3194 1169.00
75.6237 1131.00
75.9279 951.00
76.2322 882.00
76.5364 824.00
76.8407 807.00
77.145 1116.00
77.4492 1179.00
77.7535 1224.00
78.0577 937.00
78.362 937.00
78.6663 954.00
78.9705 1169.00
79.2748 1225.00
79.579 1089.00
79.8833 1014.00
80.1876 984.00
80.4918 917.00
80.7961 961.00
81.1003 933.00
81.4046 928.00
81.7089 929.00
82.0131 941.00
82.3174 1067.00
82.6217 924.00
82.9259 878.00
83.2302 821.00
83.5344 949.00
83.8387 949.00
84.143 1035.00
84.4472 1011.00
84.7515 959.00
85.0557 936.00
85.36 903.00
85.6643 968.00
85.9685 964.00
86.2728 1053.00
86.577 1048.00
86.8813 959.00
87.1856 942.00
87.4898 1082.00
87.7941 989.00
88.0983 885.00
88.4026 834.00
88.7069 907.00
89.0111 904.00
89.3154 924.00
89.6196 926.00
89.9239 933.00
90.2282 917.00
90.5324 940.00
90.8367 876.00
91.1409 886.00
91.4452 1087.00
91.7495 1077.00
92.0537 1118.00
92.358 1079.00
92.6622 1163.00
92.9665 1113.00
93.2708 926.00
93.575 871.00
93.8793 864.00
94.1835 923.00
94.4878 873.00
94.7921 821.00
95.0963 888.00
95.4006 991.00
95.7048 986.00
96.0091 961.00
96.3134 935.00
96.6176 964.00
96.9219 953.00
97.2261 870.00
97.5304 835.00
97.8347 904.00
98.1389 963.00
98.4432 930.00
98.7474 911.00
99.0517 912.00
99.356 936.00
99.6602 1061.00
99.9645 1007.00
100.095 1044.00