File: data/xrd_creation/results/NSC_199.xy
9.903433 2849.00
10.2077 2772.00
10.512 2860.00
10.8162 2643.00
11.1205 2621.00
11.4247 2501.00
11.729 2373.00
12.0333 2341.00
12.3375 2290.00
12.6418 2331.00
12.946 2138.00
13.2503 2189.00
13.5546 2124.00
13.8588 2132.00
14.1631 2128.00
14.4673 2008.00
14.7716 2178.00
15.0759 2194.00
15.3801 2111.00
15.6844 2108.00
15.9886 2091.00
16.2929 2046.00
16.5972 2071.00
16.9014 1997.00
17.2057 2082.00
17.5099 2156.00
17.8142 2693.00
18.1185 1997.00
18.4227 1962.00
18.727 1897.00
19.0312 1966.00
19.3355 1876.00
19.6398 1957.00
19.944 2151.00
20.2483 1892.00
20.5525 1968.00
20.8568 2398.00
21.1611 1985.00
21.4653 1941.00
21.7696 1939.00
22.0738 1899.00
22.3781 1862.00
22.6824 1928.00
22.9866 1822.00
23.2909 1793.00
23.5951 1813.00
23.8994 1998.00
24.2037 2874.00
24.5079 4304.00
24.8122 3241.00
25.1164 2080.00
25.4207 1762.00
25.725 1751.00
26.0292 1717.00
26.3335 1749.00
26.6378 1767.00
26.942 1763.00
27.2463 1752.00
27.5505 1829.00
27.8548 1972.00
28.1591 2420.00
28.4633 8597.00
28.7676 11766.00
29.0718 2506.00
29.3761 1909.00
29.6804 1857.00
29.9846 1823.00
30.2889 1801.00
30.5931 1795.00
30.8974 1996.00
31.2017 2140.00
31.5059 2727.00
31.8102 8638.00
32.1144 6733.00
32.4187 2235.00
32.723 1796.00
33.0272 1823.00
33.3315 1841.00
33.6357 1794.00
33.94 2301.00
34.2443 4217.00
34.5485 5407.00
34.8528 4178.00
35.157 2489.00
35.4613 2019.00
35.7656 4280.00
36.0698 2156.00
36.3741 2499.00
36.6783 1585.00
36.9826 1463.00
37.2869 1436.00
37.5911 1338.00
37.8954 1375.00
38.1996 1406.00
38.5039 1356.00
38.8082 1569.00
39.1124 2568.00
39.4167 1535.00
39.7209 1395.00
40.0252 1377.00
40.3295 1424.00
40.6337 1478.00
40.938 1786.00
41.2422 3102.00
41.5465 2255.00
41.8508 2027.00
42.155 1526.00
42.4593 1368.00
42.7635 1330.00
43.0678 1326.00
43.3721 1374.00
43.6763 1348.00
43.9806 1249.00
44.2849 1210.00
44.5891 1341.00
44.8934 1369.00
45.1976 1756.00
45.5019 1818.00
45.8062 1812.00
46.1104 2244.00
46.4147 1429.00
46.7189 1247.00
47.0232 1344.00
47.3275 1376.00
47.6317 1263.00
47.936 1270.00
48.2402 1222.00
48.5445 1301.00
48.8488 1448.00
49.153 1783.00
49.4573 2097.00
49.7615 3098.00
50.0658 2382.00
50.3701 2191.00
50.6743 3624.00
50.9786 3184.00
51.2828 2627.00
51.5871 1694.00
51.8914 1922.00
52.1956 1325.00
52.4999 1263.00
52.8041 1270.00
53.1084 1226.00
53.4127 1326.00
53.7169 1283.00
54.0212 1397.00
54.3254 1920.00
54.6297 2487.00
54.934 1913.00
55.2382 1591.00
55.5425 1999.00
55.8467 2865.00
56.151 3210.00
56.4553 2188.00
56.7595 2105.00
57.0638 1366.00
57.368 1535.00
57.6723 1894.00
57.9766 1987.00
58.2808 1601.00
58.5851 2247.00
58.8893 1850.00
59.1936 1439.00
59.4979 1378.00
59.8021 1335.00
60.1064 1746.00
60.4106 2555.00
60.7149 2583.00
61.0192 1746.00
61.3234 1530.00
61.6277 1535.00
61.932 2054.00
62.2362 1987.00
62.5405 2232.00
62.8447 1705.00
63.149 1719.00
63.4533 2104.00
63.7575 1855.00
64.0618 1236.00
64.366 1301.00
64.6703 1411.00
64.9745 1611.00
65.2788 1252.00
65.5831 1346.00
65.8873 1624.00
66.1916 1933.00
66.4959 2176.00
66.8001 1459.00
67.1044 1161.00
67.4086 1119.00
67.7129 1070.00
68.0172 1169.00
68.3214 1076.00
68.6257 1125.00
68.9299 1079.00
69.2342 1125.00
69.5385 1224.00
69.8427 1365.00
70.147 1174.00
70.4512 1162.00
70.7555 1088.00
71.0598 1128.00
71.364 1321.00
71.6683 1577.00
71.9725 1916.00
72.2768 1266.00
72.5811 1268.00
72.8853 1297.00
73.1896 1326.00
73.4938 1268.00
73.7981 1039.00
74.1024 1162.00
74.4066 1065.00
74.7109 1067.00
75.0151 1057.00
75.3194 1328.00
75.6237 1261.00
75.9279 1609.00
76.2322 1281.00
76.5364 1099.00
76.8407 1066.00
77.145 1274.00
77.4492 1267.00
77.7535 1210.00
78.0577 1223.00
78.362 1270.00
78.6663 1243.00
78.9705 1178.00
79.2748 1151.00
79.579 1282.00
79.8833 1250.00
80.1876 1057.00
80.4918 1049.00
80.7961 1050.00
81.1003 1092.00
81.4046 1128.00
81.7089 1107.00
82.0131 1247.00
82.3174 1331.00
82.6217 1194.00
82.9259 1220.00
83.2302 1259.00
83.5344 1406.00
83.8387 1352.00
84.143 1380.00
84.4472 1327.00
84.7515 1413.00
85.0557 1405.00
85.36 1200.00
85.6643 1265.00
85.9685 1147.00
86.2728 1048.00
86.577 1080.00
86.8813 1186.00
87.1856 1140.00
87.4898 1043.00
87.7941 1154.00
88.0983 1150.00
88.4026 1336.00
88.7069 1395.00
89.0111 1320.00
89.3154 1494.00
89.6196 1301.00
89.9239 1260.00
90.2282 1249.00
90.5324 1405.00
90.8367 1278.00
91.1409 1163.00
91.4452 1187.00
91.7495 1149.00
92.0537 1123.00
92.358 1078.00
92.6622 1064.00
92.9665 1024.00
93.2708 986.00
93.575 1057.00
93.8793 1077.00
94.1835 1064.00
94.4878 1085.00
94.7921 1208.00
95.0963 1146.00
95.4006 1101.00
95.7048 1239.00
96.0091 1271.00
96.3134 1359.00
96.6176 1195.00
96.9219 1333.00
97.2261 1444.00
97.5304 1516.00
97.8347 1582.00
98.1389 1311.00
98.4432 1205.00
98.7474 1095.00
99.0517 1284.00
99.356 1311.00
99.6602 1375.00
99.9645 1367.00
100.095 1415.00