File: data/xrd_creation/results/NSC_115.xy
9.903433 2691.00
10.2077 2627.00
10.512 2502.00
10.8162 2511.00
11.1205 2632.00
11.4247 4541.00
11.729 12419.00
12.0333 2397.00
12.3375 2272.00
12.6418 2176.00
12.946 1990.00
13.2503 1967.00
13.5546 1922.00
13.8588 1860.00
14.1631 1782.00
14.4673 1828.00
14.7716 1905.00
15.0759 1782.00
15.3801 1745.00
15.6844 1657.00
15.9886 1939.00
16.2929 2912.00
16.5972 5009.00
16.9014 1720.00
17.2057 1654.00
17.5099 1501.00
17.8142 1714.00
18.1185 2439.00
18.4227 1582.00
18.727 1508.00
19.0312 1421.00
19.3355 1431.00
19.6398 1392.00
19.944 1423.00
20.2483 1665.00
20.5525 1416.00
20.8568 1331.00
21.1611 1336.00
21.4653 1275.00
21.7696 1244.00
22.0738 1214.00
22.3781 1115.00
22.6824 1184.00
22.9866 1182.00
23.2909 1207.00
23.5951 1180.00
23.8994 1236.00
24.2037 1264.00
24.5079 2044.00
24.8122 1594.00
25.1164 1289.00
25.4207 1380.00
25.725 1607.00
26.0292 7357.00
26.3335 1728.00
26.6378 1691.00
26.942 3964.00
27.2463 1497.00
27.5505 1399.00
27.8548 5214.00
28.1591 3674.00
28.4633 1253.00
28.7676 977.00
29.0718 959.00
29.3761 881.00
29.6804 953.00
29.9846 1117.00
30.2889 1926.00
30.5931 1275.00
30.8974 916.00
31.2017 990.00
31.5059 1898.00
31.8102 1376.00
32.1144 1120.00
32.4187 882.00
32.723 1212.00
33.0272 7408.00
33.3315 1605.00
33.6357 1188.00
33.94 1567.00
34.2443 3617.00
34.5485 9209.00
34.8528 2827.00
35.157 1170.00
35.4613 926.00
35.7656 794.00
36.0698 802.00
36.3741 1284.00
36.6783 1166.00
36.9826 1371.00
37.2869 1291.00
37.5911 802.00
37.8954 1043.00
38.1996 1225.00
38.5039 832.00
38.8082 1048.00
39.1124 906.00
39.4167 797.00
39.7209 781.00
40.0252 659.00
40.3295 627.00
40.6337 748.00
40.938 705.00
41.2422 774.00
41.5465 796.00
41.8508 1367.00
42.155 1278.00
42.4593 1604.00
42.7635 720.00
43.0678 677.00
43.3721 771.00
43.6763 1078.00
43.9806 865.00
44.2849 743.00
44.5891 638.00
44.8934 696.00
45.1976 1153.00
45.5019 986.00
45.8062 726.00
46.1104 628.00
46.4147 684.00
46.7189 665.00
47.0232 1109.00
47.3275 1655.00
47.6317 2473.00
47.936 737.00
48.2402 641.00
48.5445 851.00
48.8488 782.00
49.153 1205.00
49.4573 837.00
49.7615 1753.00
50.0658 1569.00
50.3701 1752.00
50.6743 745.00
50.9786 572.00
51.2828 731.00
51.5871 677.00
51.8914 2020.00
52.1956 1912.00
52.4999 737.00
52.8041 588.00
53.1084 1117.00
53.4127 931.00
53.7169 711.00
54.0212 769.00
54.3254 721.00
54.6297 719.00
54.934 991.00
55.2382 796.00
55.5425 1232.00
55.8467 726.00
56.151 746.00
56.4553 847.00
56.7595 719.00
57.0638 960.00
57.368 1087.00
57.6723 715.00
57.9766 814.00
58.2808 899.00
58.5851 1555.00
58.8893 1128.00
59.1936 1042.00
59.4979 1786.00
59.8021 1889.00
60.1064 1219.00
60.4106 1184.00
60.7149 652.00
61.0192 682.00
61.3234 523.00
61.6277 681.00
61.932 754.00
62.2362 896.00
62.5405 927.00
62.8447 694.00
63.149 1002.00
63.4533 586.00
63.7575 619.00
64.0618 707.00
64.366 710.00
64.6703 655.00
64.9745 1237.00
65.2788 772.00
65.5831 876.00
65.8873 936.00
66.1916 1113.00
66.4959 805.00
66.8001 716.00
67.1044 651.00
67.4086 647.00
67.7129 539.00
68.0172 677.00
68.3214 518.00
68.6257 619.00
68.9299 716.00
69.2342 611.00
69.5385 464.00
69.8427 523.00
70.147 468.00
70.4512 485.00
70.7555 430.00
71.0598 464.00
71.364 471.00
71.6683 545.00
71.9725 456.00
72.2768 675.00
72.5811 530.00
72.8853 432.00
73.1896 509.00
73.4938 658.00
73.7981 483.00
74.1024 507.00
74.4066 564.00
74.7109 511.00
75.0151 481.00
75.3194 614.00
75.6237 480.00
75.9279 435.00
76.2322 504.00
76.5364 467.00
76.8407 577.00
77.145 601.00
77.4492 618.00
77.7535 455.00
78.0577 489.00
78.362 469.00
78.6663 558.00
78.9705 826.00
79.2748 676.00
79.579 525.00
79.8833 400.00
80.1876 579.00
80.4918 540.00
80.7961 498.00
81.1003 457.00
81.4046 517.00
81.7089 488.00
82.0131 451.00
82.3174 416.00
82.6217 473.00
82.9259 485.00
83.2302 442.00
83.5344 440.00
83.8387 632.00
84.143 584.00
84.4472 447.00
84.7515 559.00
85.0557 561.00
85.36 493.00
85.6643 471.00
85.9685 441.00
86.2728 482.00
86.577 540.00
86.8813 530.00
87.1856 566.00
87.4898 574.00
87.7941 428.00
88.0983 448.00
88.4026 513.00
88.7069 596.00
89.0111 511.00
89.3154 441.00
89.6196 534.00
89.9239 564.00
90.2282 604.00
90.5324 632.00
90.8367 504.00
91.1409 631.00
91.4452 593.00
91.7495 585.00
92.0537 584.00
92.358 482.00
92.6622 529.00
92.9665 487.00
93.2708 471.00
93.575 511.00
93.8793 461.00
94.1835 440.00
94.4878 405.00
94.7921 451.00
95.0963 420.00
95.4006 498.00
95.7048 492.00
96.0091 539.00
96.3134 516.00
96.6176 505.00
96.9219 531.00
97.2261 604.00
97.5304 608.00
97.8347 536.00
98.1389 530.00
98.4432 433.00
98.7474 512.00
99.0517 429.00
99.356 460.00
99.6602 531.00
99.9645 546.00
100.095 516.00