File: data/xrd_creation/results/NSC_178.xy
9.903433 2676.00
10.2077 2550.00
10.512 2471.00
10.8162 2380.00
11.1205 2460.00
11.4247 2305.00
11.729 2144.00
12.0333 2021.00
12.3375 2015.00
12.6418 1892.00
12.946 1818.00
13.2503 1805.00
13.5546 1859.00
13.8588 2067.00
14.1631 1919.00
14.4673 1737.00
14.7716 1723.00
15.0759 1519.00
15.3801 1614.00
15.6844 1612.00
15.9886 1569.00
16.2929 1473.00
16.5972 1482.00
16.9014 1456.00
17.2057 1421.00
17.5099 1509.00
17.8142 1396.00
18.1185 1409.00
18.4227 1357.00
18.727 1346.00
19.0312 1295.00
19.3355 1470.00
19.6398 1676.00
19.944 1582.00
20.2483 1683.00
20.5525 2309.00
20.8568 2262.00
21.1611 1408.00
21.4653 1405.00
21.7696 2093.00
22.0738 3885.00
22.3781 2188.00
22.6824 1374.00
22.9866 1562.00
23.2909 2645.00
23.5951 1909.00
23.8994 1215.00
24.2037 1189.00
24.5079 1219.00
24.8122 1125.00
25.1164 1102.00
25.4207 1141.00
25.725 1518.00
26.0292 6222.00
26.3335 3190.00
26.6378 2957.00
26.942 1926.00
27.2463 1050.00
27.5505 1006.00
27.8548 1227.00
28.1591 1594.00
28.4633 1111.00
28.7676 997.00
29.0718 979.00
29.3761 1008.00
29.6804 1088.00
29.9846 957.00
30.2889 959.00
30.5931 1011.00
30.8974 1862.00
31.2017 2106.00
31.5059 1872.00
31.8102 2875.00
32.1144 1398.00
32.4187 957.00
32.723 906.00
33.0272 908.00
33.3315 886.00
33.6357 895.00
33.94 1450.00
34.2443 1076.00
34.5485 922.00
34.8528 1526.00
35.157 1375.00
35.4613 808.00
35.7656 1008.00
36.0698 1684.00
36.3741 1226.00
36.6783 797.00
36.9826 779.00
37.2869 722.00
37.5911 757.00
37.8954 810.00
38.1996 3602.00
38.5039 1017.00
38.8082 676.00
39.1124 808.00
39.4167 914.00
39.7209 1919.00
40.0252 738.00
40.3295 733.00
40.6337 872.00
40.938 773.00
41.2422 798.00
41.5465 764.00
41.8508 1650.00
42.155 1676.00
42.4593 1147.00
42.7635 959.00
43.0678 906.00
43.3721 660.00
43.6763 770.00
43.9806 652.00
44.2849 770.00
44.5891 695.00
44.8934 1023.00
45.1976 916.00
45.5019 832.00
45.8062 708.00
46.1104 629.00
46.4147 614.00
46.7189 696.00
47.0232 637.00
47.3275 1352.00
47.6317 884.00
47.936 891.00
48.2402 846.00
48.5445 1147.00
48.8488 1742.00
49.153 962.00
49.4573 577.00
49.7615 698.00
50.0658 608.00
50.3701 566.00
50.6743 596.00
50.9786 784.00
51.2828 662.00
51.5871 807.00
51.8914 691.00
52.1956 523.00
52.4999 581.00
52.8041 527.00
53.1084 705.00
53.4127 900.00
53.7169 920.00
54.0212 888.00
54.3254 881.00
54.6297 1103.00
54.934 673.00
55.2382 623.00
55.5425 646.00
55.8467 875.00
56.151 658.00
56.4553 760.00
56.7595 690.00
57.0638 684.00
57.368 556.00
57.6723 547.00
57.9766 606.00
58.2808 635.00
58.5851 588.00
58.8893 1215.00
59.1936 1532.00
59.4979 895.00
59.8021 715.00
60.1064 732.00
60.4106 820.00
60.7149 801.00
61.0192 757.00
61.3234 766.00
61.6277 679.00
61.932 975.00
62.2362 564.00
62.5405 753.00
62.8447 707.00
63.149 726.00
63.4533 634.00
63.7575 550.00
64.0618 579.00
64.366 568.00
64.6703 541.00
64.9745 589.00
65.2788 535.00
65.5831 648.00
65.8873 1615.00
66.1916 1722.00
66.4959 981.00
66.8001 681.00
67.1044 1200.00
67.4086 1627.00
67.7129 807.00
68.0172 818.00
68.3214 584.00
68.6257 532.00
68.9299 518.00
69.2342 498.00
69.5385 508.00
69.8427 626.00
70.147 1009.00
70.4512 888.00
70.7555 546.00
71.0598 545.00
71.364 697.00
71.6683 518.00
71.9725 486.00
72.2768 486.00
72.5811 472.00
72.8853 473.00
73.1896 461.00
73.4938 689.00
73.7981 848.00
74.1024 930.00
74.4066 625.00
74.7109 489.00
75.0151 496.00
75.3194 471.00
75.6237 480.00
75.9279 470.00
76.2322 471.00
76.5364 527.00
76.8407 534.00
77.145 516.00
77.4492 675.00
77.7535 655.00
78.0577 546.00
78.362 571.00
78.6663 585.00
78.9705 526.00
79.2748 509.00
79.579 437.00
79.8833 516.00
80.1876 973.00
80.4918 749.00
80.7961 482.00
81.1003 471.00
81.4046 522.00
81.7089 457.00
82.0131 557.00
82.3174 505.00
82.6217 419.00
82.9259 451.00
83.2302 449.00
83.5344 439.00
83.8387 391.00
84.143 430.00
84.4472 407.00
84.7515 408.00
85.0557 535.00
85.36 512.00
85.6643 435.00
85.9685 417.00
86.2728 448.00
86.577 442.00
86.8813 426.00
87.1856 428.00
87.4898 450.00
87.7941 470.00
88.0983 454.00
88.4026 460.00
88.7069 604.00
89.0111 604.00
89.3154 466.00
89.6196 458.00
89.9239 512.00
90.2282 471.00
90.5324 456.00
90.8367 480.00
91.1409 453.00
91.4452 432.00
91.7495 424.00
92.0537 451.00
92.358 550.00
92.6622 551.00
92.9665 416.00
93.2708 577.00
93.575 632.00
93.8793 474.00
94.1835 495.00
94.4878 482.00
94.7921 472.00
95.0963 444.00
95.4006 465.00
95.7048 539.00
96.0091 487.00
96.3134 392.00
96.6176 399.00
96.9219 453.00
97.2261 460.00
97.5304 486.00
97.8347 434.00
98.1389 435.00
98.4432 436.00
98.7474 415.00
99.0517 437.00
99.356 585.00
99.6602 782.00
99.9645 660.00
100.095 567.00