File: data/xrd_creation/results/NSC_136.xy
9.903433 2673.00
10.2077 2515.00
10.512 2451.00
10.8162 2247.00
11.1205 2257.00
11.4247 2056.00
11.729 2057.00
12.0333 1937.00
12.3375 1888.00
12.6418 1871.00
12.946 1778.00
13.2503 1715.00
13.5546 1729.00
13.8588 2355.00
14.1631 2382.00
14.4673 1693.00
14.7716 1599.00
15.0759 1516.00
15.3801 1517.00
15.6844 1482.00
15.9886 1543.00
16.2929 1412.00
16.5972 1469.00
16.9014 1415.00
17.2057 1468.00
17.5099 1428.00
17.8142 1317.00
18.1185 1311.00
18.4227 1329.00
18.727 1412.00
19.0312 1458.00
19.3355 4293.00
19.6398 6163.00
19.944 2500.00
20.2483 8980.00
20.5525 2897.00
20.8568 1326.00
21.1611 1294.00
21.4653 1219.00
21.7696 1229.00
22.0738 1225.00
22.3781 1153.00
22.6824 1222.00
22.9866 1269.00
23.2909 2791.00
23.5951 3418.00
23.8994 1260.00
24.2037 1347.00
24.5079 1254.00
24.8122 1168.00
25.1164 1065.00
25.4207 1067.00
25.725 1024.00
26.0292 1069.00
26.3335 1047.00
26.6378 1094.00
26.942 976.00
27.2463 1079.00
27.5505 978.00
27.8548 1270.00
28.1591 4838.00
28.4633 5211.00
28.7676 1158.00
29.0718 1063.00
29.3761 1002.00
29.6804 961.00
29.9846 911.00
30.2889 996.00
30.5931 1032.00
30.8974 1570.00
31.2017 7682.00
31.5059 3907.00
31.8102 2070.00
32.1144 1135.00
32.4187 993.00
32.723 901.00
33.0272 925.00
33.3315 924.00
33.6357 1329.00
33.94 1205.00
34.2443 1283.00
34.5485 1391.00
34.8528 2398.00
35.157 4347.00
35.4613 5037.00
35.7656 2187.00
36.0698 1021.00
36.3741 956.00
36.6783 765.00
36.9826 803.00
37.2869 806.00
37.5911 784.00
37.8954 808.00
38.1996 838.00
38.5039 812.00
38.8082 883.00
39.1124 873.00
39.4167 913.00
39.7209 1539.00
40.0252 841.00
40.3295 795.00
40.6337 832.00
40.938 1206.00
41.2422 2258.00
41.5465 1944.00
41.8508 1151.00
42.155 901.00
42.4593 775.00
42.7635 1105.00
43.0678 2446.00
43.3721 997.00
43.6763 981.00
43.9806 923.00
44.2849 775.00
44.5891 900.00
44.8934 2383.00
45.1976 1568.00
45.5019 841.00
45.8062 1641.00
46.1104 2503.00
46.4147 1337.00
46.7189 1961.00
47.0232 920.00
47.3275 844.00
47.6317 988.00
47.936 3066.00
48.2402 1968.00
48.5445 1048.00
48.8488 1013.00
49.153 849.00
49.4573 936.00
49.7615 1038.00
50.0658 830.00
50.3701 991.00
50.6743 1417.00
50.9786 1506.00
51.2828 3092.00
51.5871 2028.00
51.8914 1057.00
52.1956 817.00
52.4999 763.00
52.8041 752.00
53.1084 745.00
53.4127 746.00
53.7169 739.00
54.0212 938.00
54.3254 1881.00
54.6297 1139.00
54.934 1247.00
55.2382 2985.00
55.5425 3710.00
55.8467 1563.00
56.151 910.00
56.4553 998.00
56.7595 816.00
57.0638 817.00
57.368 805.00
57.6723 961.00
57.9766 1153.00
58.2808 1555.00
58.5851 1393.00
58.8893 933.00
59.1936 773.00
59.4979 849.00
59.8021 1768.00
60.1064 1925.00
60.4106 1127.00
60.7149 1020.00
61.0192 2335.00
61.3234 1726.00
61.6277 1011.00
61.932 1047.00
62.2362 1550.00
62.5405 1502.00
62.8447 1009.00
63.149 1121.00
63.4533 1649.00
63.7575 1778.00
64.0618 1414.00
64.366 909.00
64.6703 879.00
64.9745 827.00
65.2788 861.00
65.5831 884.00
65.8873 1047.00
66.1916 1834.00
66.4959 1303.00
66.8001 868.00
67.1044 1021.00
67.4086 1376.00
67.7129 1414.00
68.0172 1240.00
68.3214 804.00
68.6257 826.00
68.9299 1139.00
69.2342 935.00
69.5385 783.00
69.8427 777.00
70.147 721.00
70.4512 751.00
70.7555 870.00
71.0598 1529.00
71.364 1231.00
71.6683 901.00
71.9725 781.00
72.2768 754.00
72.5811 768.00
72.8853 740.00
73.1896 774.00
73.4938 982.00
73.7981 1427.00
74.1024 1156.00
74.4066 902.00
74.7109 931.00
75.0151 1326.00
75.3194 1344.00
75.6237 1075.00
75.9279 853.00
76.2322 693.00
76.5364 701.00
76.8407 827.00
77.145 850.00
77.4492 918.00
77.7535 808.00
78.0577 780.00
78.362 1107.00
78.6663 1565.00
78.9705 1601.00
79.2748 1057.00
79.579 827.00
79.8833 959.00
80.1876 820.00
80.4918 761.00
80.7961 965.00
81.1003 1239.00
81.4046 952.00
81.7089 837.00
82.0131 767.00
82.3174 841.00
82.6217 891.00
82.9259 789.00
83.2302 928.00
83.5344 1296.00
83.8387 1087.00
84.143 858.00
84.4472 806.00
84.7515 960.00
85.0557 927.00
85.36 954.00
85.6643 1041.00
85.9685 946.00
86.2728 1010.00
86.577 889.00
86.8813 921.00
87.1856 789.00
87.4898 737.00
87.7941 826.00
88.0983 980.00
88.4026 936.00
88.7069 865.00
89.0111 994.00
89.3154 1103.00
89.6196 1446.00
89.9239 1199.00
90.2282 886.00
90.5324 841.00
90.8367 744.00
91.1409 827.00
91.4452 960.00
91.7495 1139.00
92.0537 965.00
92.358 859.00
92.6622 1032.00
92.9665 887.00
93.2708 814.00
93.575 801.00
93.8793 912.00
94.1835 962.00
94.4878 862.00
94.7921 892.00
95.0963 1043.00
95.4006 1049.00
95.7048 976.00
96.0091 1034.00
96.3134 1111.00
96.6176 1157.00
96.9219 1034.00
97.2261 939.00
97.5304 862.00
97.8347 820.00
98.1389 761.00
98.4432 744.00
98.7474 825.00
99.0517 929.00
99.356 945.00
99.6602 962.00
99.9645 1166.00
100.095 1183.00