File: data/xrd_creation/results/NSC_28.xy
9.903433 3001.00
10.2077 2838.00
10.512 2828.00
10.8162 2833.00
11.1205 2576.00
11.4247 2532.00
11.729 2511.00
12.0333 2493.00
12.3375 2349.00
12.6418 2381.00
12.946 2330.00
13.2503 2242.00
13.5546 2217.00
13.8588 2367.00
14.1631 3428.00
14.4673 2564.00
14.7716 2128.00
15.0759 2192.00
15.3801 2148.00
15.6844 2126.00
15.9886 2068.00
16.2929 2030.00
16.5972 2096.00
16.9014 1996.00
17.2057 1986.00
17.5099 1916.00
17.8142 2031.00
18.1185 1929.00
18.4227 1916.00
18.727 1856.00
19.0312 1911.00
19.3355 2189.00
19.6398 5678.00
19.944 3761.00
20.2483 3296.00
20.5525 12907.00
20.8568 2361.00
21.1611 1934.00
21.4653 1875.00
21.7696 1896.00
22.0738 2123.00
22.3781 1786.00
22.6824 1686.00
22.9866 1813.00
23.2909 2082.00
23.5951 8896.00
23.8994 3370.00
24.2037 1790.00
24.5079 1775.00
24.8122 1791.00
25.1164 1794.00
25.4207 2128.00
25.725 1745.00
26.0292 1658.00
26.3335 1815.00
26.6378 1607.00
26.942 1569.00
27.2463 1604.00
27.5505 1620.00
27.8548 1558.00
28.1591 1848.00
28.4633 8073.00
28.7676 2203.00
29.0718 1592.00
29.3761 1493.00
29.6804 1547.00
29.9846 1554.00
30.2889 1679.00
30.5931 1780.00
30.8974 1602.00
31.2017 2595.00
31.5059 12596.00
31.8102 2583.00
32.1144 1596.00
32.4187 1436.00
32.723 1441.00
33.0272 1510.00
33.3315 1660.00
33.6357 1533.00
33.94 1927.00
34.2443 1508.00
34.5485 1493.00
34.8528 1486.00
35.157 3174.00
35.4613 2936.00
35.7656 5259.00
36.0698 1569.00
36.3741 1436.00
36.6783 1315.00
36.9826 1283.00
37.2869 1342.00
37.5911 1343.00
37.8954 1346.00
38.1996 1323.00
38.5039 1385.00
38.8082 1326.00
39.1124 1286.00
39.4167 1239.00
39.7209 1649.00
40.0252 1519.00
40.3295 1309.00
40.6337 1322.00
40.938 1282.00
41.2422 1546.00
41.5465 2181.00
41.8508 1574.00
42.155 1464.00
42.4593 1372.00
42.7635 1333.00
43.0678 2130.00
43.3721 1821.00
43.6763 1283.00
43.9806 1528.00
44.2849 1229.00
44.5891 1386.00
44.8934 1748.00
45.1976 3333.00
45.5019 1402.00
45.8062 1301.00
46.1104 2691.00
46.4147 1695.00
46.7189 1964.00
47.0232 1518.00
47.3275 1249.00
47.6317 1349.00
47.936 2113.00
48.2402 4303.00
48.5445 1699.00
48.8488 1813.00
49.153 1272.00
49.4573 1330.00
49.7615 1304.00
50.0658 1182.00
50.3701 1251.00
50.6743 1325.00
50.9786 1392.00
51.2828 2095.00
51.5871 3474.00
51.8914 2019.00
52.1956 1288.00
52.4999 1283.00
52.8041 1334.00
53.1084 1200.00
53.4127 1176.00
53.7169 1192.00
54.0212 1284.00
54.3254 2147.00
54.6297 1700.00
54.934 1475.00
55.2382 2634.00
55.5425 4197.00
55.8467 2455.00
56.151 1334.00
56.4553 1267.00
56.7595 1381.00
57.0638 1517.00
57.368 1327.00
57.6723 1266.00
57.9766 1224.00
58.2808 1823.00
58.5851 1792.00
58.8893 1350.00
59.1936 1240.00
59.4979 1241.00
59.8021 1588.00
60.1064 2482.00
60.4106 1515.00
60.7149 1312.00
61.0192 2029.00
61.3234 2415.00
61.6277 1479.00
61.932 1322.00
62.2362 1640.00
62.5405 1948.00
62.8447 1429.00
63.149 1360.00
63.4533 1671.00
63.7575 1955.00
64.0618 1878.00
64.366 1416.00
64.6703 1219.00
64.9745 1286.00
65.2788 1453.00
65.5831 1336.00
65.8873 1306.00
66.1916 1872.00
66.4959 1782.00
66.8001 1215.00
67.1044 1206.00
67.4086 1582.00
67.7129 1522.00
68.0172 1570.00
68.3214 1241.00
68.6257 1263.00
68.9299 1460.00
69.2342 1397.00
69.5385 1172.00
69.8427 1104.00
70.147 1090.00
70.4512 1103.00
70.7555 1234.00
71.0598 1771.00
71.364 1705.00
71.6683 1209.00
71.9725 1183.00
72.2768 1202.00
72.5811 1197.00
72.8853 1111.00
73.1896 1131.00
73.4938 1263.00
73.7981 1509.00
74.1024 1379.00
74.4066 1242.00
74.7109 1258.00
75.0151 1710.00
75.3194 1654.00
75.6237 1534.00
75.9279 1321.00
76.2322 1207.00
76.5364 1102.00
76.8407 1187.00
77.145 1155.00
77.4492 1204.00
77.7535 1137.00
78.0577 1109.00
78.362 1167.00
78.6663 1442.00
78.9705 1567.00
79.2748 1378.00
79.579 1242.00
79.8833 1148.00
80.1876 1138.00
80.4918 1153.00
80.7961 1242.00
81.1003 1491.00
81.4046 1292.00
81.7089 1201.00
82.0131 1134.00
82.3174 1115.00
82.6217 1091.00
82.9259 1098.00
83.2302 1205.00
83.5344 1501.00
83.8387 1432.00
84.143 1169.00
84.4472 1154.00
84.7515 1409.00
85.0557 1365.00
85.36 1308.00
85.6643 1269.00
85.9685 1235.00
86.2728 1245.00
86.577 1254.00
86.8813 1255.00
87.1856 1211.00
87.4898 1165.00
87.7941 1151.00
88.0983 1246.00
88.4026 1301.00
88.7069 1167.00
89.0111 1258.00
89.3154 1376.00
89.6196 1637.00
89.9239 1384.00
90.2282 1227.00
90.5324 1178.00
90.8367 1135.00
91.1409 1085.00
91.4452 1287.00
91.7495 1406.00
92.0537 1272.00
92.358 1230.00
92.6622 1269.00
92.9665 1149.00
93.2708 1131.00
93.575 1183.00
93.8793 1353.00
94.1835 1324.00
94.4878 1299.00
94.7921 1211.00
95.0963 1414.00
95.4006 1326.00
95.7048 1235.00
96.0091 1331.00
96.3134 1348.00
96.6176 1405.00
96.9219 1221.00
97.2261 1116.00
97.5304 1126.00
97.8347 1134.00
98.1389 1139.00
98.4432 1042.00
98.7474 1173.00
99.0517 1211.00
99.356 1185.00
99.6602 1310.00
99.9645 1306.00
100.095 1428.00