File: data/xrd_creation/results/NSC_95.xy
9.903433 2817.00
10.2077 2588.00
10.512 2498.00
10.8162 2465.00
11.1205 2420.00
11.4247 2148.00
11.729 2178.00
12.0333 2129.00
12.3375 1995.00
12.6418 1966.00
12.946 1819.00
13.2503 1786.00
13.5546 1845.00
13.8588 1770.00
14.1631 1852.00
14.4673 2233.00
14.7716 1775.00
15.0759 1618.00
15.3801 1585.00
15.6844 1493.00
15.9886 1436.00
16.2929 1508.00
16.5972 1481.00
16.9014 1455.00
17.2057 1467.00
17.5099 1447.00
17.8142 1363.00
18.1185 1368.00
18.4227 1377.00
18.727 1352.00
19.0312 1320.00
19.3355 1315.00
19.6398 1864.00
19.944 3409.00
20.2483 2674.00
20.5525 1794.00
20.8568 3517.00
21.1611 5703.00
21.4653 1381.00
21.7696 1244.00
22.0738 1166.00
22.3781 1187.00
22.6824 1103.00
22.9866 1176.00
23.2909 1152.00
23.5951 1129.00
23.8994 1842.00
24.2037 2620.00
24.5079 1242.00
24.8122 1042.00
25.1164 979.00
25.4207 929.00
25.725 965.00
26.0292 935.00
26.3335 1093.00
26.6378 1920.00
26.942 2367.00
27.2463 839.00
27.5505 912.00
27.8548 833.00
28.1591 847.00
28.4633 891.00
28.7676 1231.00
29.0718 2426.00
29.3761 1422.00
29.6804 846.00
29.9846 808.00
30.2889 790.00
30.5931 735.00
30.8974 749.00
31.2017 791.00
31.5059 974.00
31.8102 2904.00
32.1144 5233.00
32.4187 1113.00
32.723 1020.00
33.0272 749.00
33.3315 670.00
33.6357 825.00
33.94 1623.00
34.2443 1956.00
34.5485 735.00
34.8528 654.00
35.157 679.00
35.4613 656.00
35.7656 846.00
36.0698 1514.00
36.3741 1426.00
36.6783 1966.00
36.9826 1151.00
37.2869 640.00
37.5911 669.00
37.8954 765.00
38.1996 1017.00
38.5039 698.00
38.8082 745.00
39.1124 613.00
39.4167 571.00
39.7209 546.00
40.0252 550.00
40.3295 666.00
40.6337 912.00
40.938 527.00
41.2422 534.00
41.5465 571.00
41.8508 620.00
42.155 961.00
42.4593 845.00
42.7635 935.00
43.0678 519.00
43.3721 553.00
43.6763 472.00
43.9806 769.00
44.2849 1340.00
44.5891 605.00
44.8934 479.00
45.1976 646.00
45.5019 505.00
45.8062 812.00
46.1104 1454.00
46.4147 479.00
46.7189 486.00
47.0232 494.00
47.3275 1166.00
47.6317 1625.00
47.936 548.00
48.2402 476.00
48.5445 468.00
48.8488 608.00
49.153 1074.00
49.4573 2296.00
49.7615 545.00
50.0658 502.00
50.3701 703.00
50.6743 457.00
50.9786 467.00
51.2828 460.00
51.5871 555.00
51.8914 1392.00
52.1956 1803.00
52.4999 2157.00
52.8041 565.00
53.1084 451.00
53.4127 510.00
53.7169 421.00
54.0212 394.00
54.3254 490.00
54.6297 457.00
54.934 616.00
55.2382 537.00
55.5425 609.00
55.8467 788.00
56.151 468.00
56.4553 455.00
56.7595 744.00
57.0638 1462.00
57.368 1539.00
57.6723 848.00
57.9766 533.00
58.2808 510.00
58.5851 499.00
58.8893 648.00
59.1936 604.00
59.4979 405.00
59.8021 399.00
60.1064 536.00
60.4106 437.00
60.7149 402.00
61.0192 436.00
61.3234 912.00
61.6277 905.00
61.932 608.00
62.2362 652.00
62.5405 571.00
62.8447 958.00
63.149 1382.00
63.4533 731.00
63.7575 436.00
64.0618 429.00
64.366 458.00
64.6703 556.00
64.9745 792.00
65.2788 553.00
65.5831 995.00
65.8873 1028.00
66.1916 1067.00
66.4959 513.00
66.8001 349.00
67.1044 446.00
67.4086 861.00
67.7129 602.00
68.0172 380.00
68.3214 373.00
68.6257 362.00
68.9299 345.00
69.2342 377.00
69.5385 775.00
69.8427 680.00
70.147 337.00
70.4512 313.00
70.7555 380.00
71.0598 447.00
71.364 576.00
71.6683 427.00
71.9725 396.00
72.2768 349.00
72.5811 373.00
72.8853 339.00
73.1896 342.00
73.4938 655.00
73.7981 558.00
74.1024 348.00
74.4066 328.00
74.7109 321.00
75.0151 386.00
75.3194 609.00
75.6237 527.00
75.9279 454.00
76.2322 459.00
76.5364 461.00
76.8407 349.00
77.145 345.00
77.4492 394.00
77.7535 565.00
78.0577 543.00
78.362 330.00
78.6663 396.00
78.9705 605.00
79.2748 459.00
79.579 420.00
79.8833 356.00
80.1876 376.00
80.4918 350.00
80.7961 365.00
81.1003 488.00
81.4046 785.00
81.7089 571.00
82.0131 361.00
82.3174 307.00
82.6217 431.00
82.9259 675.00
83.2302 507.00
83.5344 390.00
83.8387 449.00
84.143 399.00
84.4472 327.00
84.7515 266.00
85.0557 384.00
85.36 329.00
85.6643 288.00
85.9685 361.00
86.2728 465.00
86.577 590.00
86.8813 401.00
87.1856 392.00
87.4898 519.00
87.7941 718.00
88.0983 523.00
88.4026 372.00
88.7069 399.00
89.0111 401.00
89.3154 319.00
89.6196 345.00
89.9239 505.00
90.2282 439.00
90.5324 494.00
90.8367 462.00
91.1409 580.00
91.4452 477.00
91.7495 358.00
92.0537 363.00
92.358 460.00
92.6622 673.00
92.9665 542.00
93.2708 373.00
93.575 378.00
93.8793 311.00
94.1835 432.00
94.4878 392.00
94.7921 331.00
95.0963 401.00
95.4006 422.00
95.7048 427.00
96.0091 429.00
96.3134 482.00
96.6176 394.00
96.9219 297.00
97.2261 317.00
97.5304 399.00
97.8347 507.00
98.1389 565.00
98.4432 392.00
98.7474 292.00
99.0517 304.00
99.356 325.00
99.6602 333.00
99.9645 535.00
100.095 643.00