File: data/xrd_creation/results/NSC_8.xy
9.903433 2861.00
10.2077 2789.00
10.512 2649.00
10.8162 2702.00
11.1205 2574.00
11.4247 2425.00
11.729 2426.00
12.0333 2323.00
12.3375 2317.00
12.6418 2188.00
12.946 2281.00
13.2503 2090.00
13.5546 2028.00
13.8588 2058.00
14.1631 2025.00
14.4673 2132.00
14.7716 2153.00
15.0759 1965.00
15.3801 1955.00
15.6844 1924.00
15.9886 1899.00
16.2929 1923.00
16.5972 1896.00
16.9014 1931.00
17.2057 1942.00
17.5099 1907.00
17.8142 1914.00
18.1185 1828.00
18.4227 1696.00
18.727 1671.00
19.0312 1631.00
19.3355 1663.00
19.6398 1639.00
19.944 1603.00
20.2483 1629.00
20.5525 1729.00
20.8568 1643.00
21.1611 1625.00
21.4653 1749.00
21.7696 1626.00
22.0738 1572.00
22.3781 2068.00
22.6824 1558.00
22.9866 1522.00
23.2909 1576.00
23.5951 1752.00
23.8994 2279.00
24.2037 2097.00
24.5079 2131.00
24.8122 1558.00
25.1164 1518.00
25.4207 1895.00
25.725 1497.00
26.0292 1429.00
26.3335 1378.00
26.6378 1440.00
26.942 1466.00
27.2463 1431.00
27.5505 1607.00
27.8548 2318.00
28.1591 8702.00
28.4633 2112.00
28.7676 1583.00
29.0718 1607.00
29.3761 1622.00
29.6804 1564.00
29.9846 1870.00
30.2889 1480.00
30.5931 1440.00
30.8974 1480.00
31.2017 2430.00
31.5059 5481.00
31.8102 1528.00
32.1144 1240.00
32.4187 1301.00
32.723 1369.00
33.0272 1333.00
33.3315 1242.00
33.6357 1412.00
33.94 2005.00
34.2443 2667.00
34.5485 1905.00
34.8528 1448.00
35.157 3887.00
35.4613 1546.00
35.7656 1327.00
36.0698 1097.00
36.3741 1111.00
36.6783 1113.00
36.9826 1557.00
37.2869 1156.00
37.5911 1266.00
37.8954 1514.00
38.1996 1099.00
38.5039 1506.00
38.8082 1104.00
39.1124 963.00
39.4167 1032.00
39.7209 1034.00
40.0252 1127.00
40.3295 1069.00
40.6337 1843.00
40.938 1370.00
41.2422 1509.00
41.5465 1464.00
41.8508 972.00
42.155 913.00
42.4593 916.00
42.7635 844.00
43.0678 1064.00
43.3721 1799.00
43.6763 966.00
43.9806 911.00
44.2849 910.00
44.5891 1048.00
44.8934 1379.00
45.1976 960.00
45.5019 1396.00
45.8062 962.00
46.1104 923.00
46.4147 960.00
46.7189 911.00
47.0232 854.00
47.3275 815.00
47.6317 948.00
47.936 912.00
48.2402 1004.00
48.5445 920.00
48.8488 1128.00
49.153 2059.00
49.4573 1497.00
49.7615 1147.00
50.0658 2700.00
50.3701 1716.00
50.6743 1697.00
50.9786 945.00
51.2828 1169.00
51.5871 918.00
51.8914 866.00
52.1956 915.00
52.4999 1300.00
52.8041 832.00
53.1084 851.00
53.4127 881.00
53.7169 960.00
54.0212 1634.00
54.3254 1028.00
54.6297 988.00
54.934 854.00
55.2382 1707.00
55.5425 1737.00
55.8467 1478.00
56.151 1015.00
56.4553 873.00
56.7595 861.00
57.0638 1403.00
57.368 2140.00
57.6723 1380.00
57.9766 1198.00
58.2808 1165.00
58.5851 856.00
58.8893 815.00
59.1936 871.00
59.4979 982.00
59.8021 1553.00
60.1064 1291.00
60.4106 881.00
60.7149 819.00
61.0192 880.00
61.3234 1454.00
61.6277 979.00
61.932 1231.00
62.2362 898.00
62.5405 965.00
62.8447 1418.00
63.149 888.00
63.4533 791.00
63.7575 816.00
64.0618 917.00
64.366 937.00
64.6703 777.00
64.9745 804.00
65.2788 913.00
65.5831 1244.00
65.8873 1150.00
66.1916 801.00
66.4959 991.00
66.8001 659.00
67.1044 687.00
67.4086 648.00
67.7129 693.00
68.0172 767.00
68.3214 1018.00
68.6257 707.00
68.9299 779.00
69.2342 713.00
69.5385 762.00
69.8427 690.00
70.147 662.00
70.4512 721.00
70.7555 700.00
71.0598 948.00
71.364 927.00
71.6683 734.00
71.9725 738.00
72.2768 836.00
72.5811 758.00
72.8853 729.00
73.1896 667.00
73.4938 693.00
73.7981 641.00
74.1024 641.00
74.4066 647.00
74.7109 753.00
75.0151 851.00
75.3194 846.00
75.6237 688.00
75.9279 693.00
76.2322 738.00
76.5364 795.00
76.8407 2534.00
77.145 1287.00
77.4492 903.00
77.7535 678.00
78.0577 663.00
78.362 636.00
78.6663 668.00
78.9705 774.00
79.2748 710.00
79.579 631.00
79.8833 596.00
80.1876 650.00
80.4918 670.00
80.7961 668.00
81.1003 675.00
81.4046 715.00
81.7089 711.00
82.0131 717.00
82.3174 697.00
82.6217 749.00
82.9259 727.00
83.2302 830.00
83.5344 722.00
83.8387 836.00
84.143 818.00
84.4472 713.00
84.7515 689.00
85.0557 663.00
85.36 632.00
85.6643 612.00
85.9685 633.00
86.2728 741.00
86.577 666.00
86.8813 616.00
87.1856 647.00
87.4898 741.00
87.7941 704.00
88.0983 778.00
88.4026 847.00
88.7069 729.00
89.0111 904.00
89.3154 707.00
89.6196 692.00
89.9239 780.00
90.2282 645.00
90.5324 713.00
90.8367 678.00
91.1409 722.00
91.4452 684.00
91.7495 595.00
92.0537 579.00
92.358 533.00
92.6622 525.00
92.9665 590.00
93.2708 618.00
93.575 658.00
93.8793 676.00
94.1835 624.00
94.4878 586.00
94.7921 690.00
95.0963 720.00
95.4006 755.00
95.7048 635.00
96.0091 696.00
96.3134 747.00
96.6176 786.00
96.9219 840.00
97.2261 705.00
97.5304 609.00
97.8347 636.00
98.1389 661.00
98.4432 622.00
98.7474 771.00
99.0517 722.00
99.356 790.00
99.6602 719.00
99.9645 654.00
100.095 637.00