File: data/xrd_creation/results/NSC_101.xy
9.903433 2684.00
10.2077 2553.00
10.512 2504.00
10.8162 2286.00
11.1205 2314.00
11.4247 2217.00
11.729 2099.00
12.0333 2014.00
12.3375 1998.00
12.6418 1860.00
12.946 1783.00
13.2503 1783.00
13.5546 1762.00
13.8588 1744.00
14.1631 1751.00
14.4673 2064.00
14.7716 1798.00
15.0759 1502.00
15.3801 1600.00
15.6844 1547.00
15.9886 1586.00
16.2929 1481.00
16.5972 1397.00
16.9014 1419.00
17.2057 1482.00
17.5099 1376.00
17.8142 1443.00
18.1185 1414.00
18.4227 1384.00
18.727 1303.00
19.0312 1303.00
19.3355 1445.00
19.6398 1629.00
19.944 2503.00
20.2483 2487.00
20.5525 1492.00
20.8568 2155.00
21.1611 9004.00
21.4653 1322.00
21.7696 1221.00
22.0738 1235.00
22.3781 1183.00
22.6824 1128.00
22.9866 1086.00
23.2909 1098.00
23.5951 1136.00
23.8994 1347.00
24.2037 2751.00
24.5079 1279.00
24.8122 1057.00
25.1164 1003.00
25.4207 963.00
25.725 986.00
26.0292 941.00
26.3335 988.00
26.6378 1167.00
26.942 2484.00
27.2463 965.00
27.5505 863.00
27.8548 842.00
28.1591 883.00
28.4633 881.00
28.7676 1006.00
29.0718 1894.00
29.3761 1692.00
29.6804 822.00
29.9846 800.00
30.2889 785.00
30.5931 785.00
30.8974 798.00
31.2017 883.00
31.5059 882.00
31.8102 1497.00
32.1144 7713.00
32.4187 972.00
32.723 1238.00
33.0272 766.00
33.3315 731.00
33.6357 729.00
33.94 893.00
34.2443 2103.00
34.5485 705.00
34.8528 722.00
35.157 692.00
35.4613 611.00
35.7656 678.00
36.0698 1188.00
36.3741 1591.00
36.6783 1525.00
36.9826 1772.00
37.2869 687.00
37.5911 630.00
37.8954 579.00
38.1996 1034.00
38.5039 664.00
38.8082 830.00
39.1124 580.00
39.4167 570.00
39.7209 560.00
40.0252 552.00
40.3295 574.00
40.6337 1118.00
40.938 540.00
41.2422 488.00
41.5465 518.00
41.8508 552.00
42.155 1279.00
42.4593 613.00
42.7635 1394.00
43.0678 575.00
43.3721 530.00
43.6763 476.00
43.9806 590.00
44.2849 1878.00
44.5891 651.00
44.8934 544.00
45.1976 578.00
45.5019 570.00
45.8062 557.00
46.1104 1977.00
46.4147 533.00
46.7189 498.00
47.0232 505.00
47.3275 742.00
47.6317 2351.00
47.936 542.00
48.2402 523.00
48.5445 506.00
48.8488 632.00
49.153 635.00
49.4573 3221.00
49.7615 563.00
50.0658 477.00
50.3701 739.00
50.6743 495.00
50.9786 463.00
51.2828 416.00
51.5871 521.00
51.8914 762.00
52.1956 1545.00
52.4999 3234.00
52.8041 603.00
53.1084 451.00
53.4127 546.00
53.7169 428.00
54.0212 416.00
54.3254 395.00
54.6297 533.00
54.934 637.00
55.2382 607.00
55.5425 477.00
55.8467 1079.00
56.151 480.00
56.4553 451.00
56.7595 522.00
57.0638 1781.00
57.368 1185.00
57.6723 1553.00
57.9766 519.00
58.2808 527.00
58.5851 492.00
58.8893 741.00
59.1936 652.00
59.4979 423.00
59.8021 356.00
60.1064 508.00
60.4106 596.00
60.7149 354.00
61.0192 417.00
61.3234 644.00
61.6277 1344.00
61.932 461.00
62.2362 711.00
62.5405 612.00
62.8447 614.00
63.149 1827.00
63.4533 992.00
63.7575 430.00
64.0618 408.00
64.366 461.00
64.6703 549.00
64.9745 728.00
65.2788 456.00
65.5831 944.00
65.8873 1003.00
66.1916 1238.00
66.4959 578.00
66.8001 401.00
67.1044 436.00
67.4086 1198.00
67.7129 544.00
68.0172 471.00
68.3214 373.00
68.6257 329.00
68.9299 357.00
69.2342 325.00
69.5385 563.00
69.8427 863.00
70.147 375.00
70.4512 326.00
70.7555 364.00
71.0598 427.00
71.364 519.00
71.6683 486.00
71.9725 433.00
72.2768 394.00
72.5811 372.00
72.8853 368.00
73.1896 370.00
73.4938 474.00
73.7981 747.00
74.1024 422.00
74.4066 414.00
74.7109 350.00
75.0151 344.00
75.3194 826.00
75.6237 557.00
75.9279 527.00
76.2322 503.00
76.5364 470.00
76.8407 332.00
77.145 355.00
77.4492 345.00
77.7535 488.00
78.0577 615.00
78.362 394.00
78.6663 375.00
78.9705 579.00
79.2748 534.00
79.579 429.00
79.8833 432.00
80.1876 368.00
80.4918 403.00
80.7961 345.00
81.1003 379.00
81.4046 852.00
81.7089 745.00
82.0131 516.00
82.3174 319.00
82.6217 346.00
82.9259 724.00
83.2302 661.00
83.5344 359.00
83.8387 461.00
84.143 386.00
84.4472 341.00
84.7515 333.00
85.0557 346.00
85.36 339.00
85.6643 326.00
85.9685 332.00
86.2728 361.00
86.577 756.00
86.8813 571.00
87.1856 322.00
87.4898 489.00
87.7941 848.00
88.0983 603.00
88.4026 361.00
88.7069 355.00
89.0111 424.00
89.3154 375.00
89.6196 362.00
89.9239 438.00
90.2282 424.00
90.5324 524.00
90.8367 475.00
91.1409 611.00
91.4452 483.00
91.7495 442.00
92.0537 362.00
92.358 383.00
92.6622 805.00
92.9665 679.00
93.2708 388.00
93.575 365.00
93.8793 385.00
94.1835 502.00
94.4878 464.00
94.7921 357.00
95.0963 389.00
95.4006 559.00
95.7048 483.00
96.0091 402.00
96.3134 489.00
96.6176 395.00
96.9219 371.00
97.2261 310.00
97.5304 351.00
97.8347 499.00
98.1389 713.00
98.4432 533.00
98.7474 368.00
99.0517 308.00
99.356 311.00
99.6602 322.00
99.9645 395.00
100.095 559.00