File: data/xrd_creation/results/NSC_216.xy
9.903433 2951.00
10.2077 2829.00
10.512 2857.00
10.8162 2772.00
11.1205 2598.00
11.4247 2546.00
11.729 2497.00
12.0333 2327.00
12.3375 2276.00
12.6418 2363.00
12.946 2242.00
13.2503 2248.00
13.5546 2234.00
13.8588 2739.00
14.1631 2404.00
14.4673 2206.00
14.7716 2465.00
15.0759 2917.00
15.3801 2034.00
15.6844 2019.00
15.9886 1950.00
16.2929 1973.00
16.5972 2030.00
16.9014 1968.00
17.2057 1971.00
17.5099 1977.00
17.8142 2266.00
18.1185 1805.00
18.4227 1917.00
18.727 1854.00
19.0312 1889.00
19.3355 2485.00
19.6398 9228.00
19.944 4319.00
20.2483 2002.00
20.5525 2182.00
20.8568 2122.00
21.1611 2420.00
21.4653 3517.00
21.7696 2629.00
22.0738 1851.00
22.3781 2292.00
22.6824 3942.00
22.9866 2354.00
23.2909 3047.00
23.5951 1671.00
23.8994 1658.00
24.2037 2230.00
24.5079 2429.00
24.8122 2088.00
25.1164 1603.00
25.4207 1528.00
25.725 1579.00
26.0292 1896.00
26.3335 1598.00
26.6378 1549.00
26.942 1596.00
27.2463 1607.00
27.5505 1657.00
27.8548 3827.00
28.1591 2706.00
28.4633 5370.00
28.7676 4462.00
29.0718 1769.00
29.3761 1603.00
29.6804 1487.00
29.9846 1579.00
30.2889 1704.00
30.5931 2990.00
30.8974 3707.00
31.2017 8955.00
31.5059 3024.00
31.8102 4628.00
32.1144 2755.00
32.4187 2018.00
32.723 1722.00
33.0272 1797.00
33.3315 2774.00
33.6357 2174.00
33.94 2325.00
34.2443 5173.00
34.5485 7817.00
34.8528 2516.00
35.157 1683.00
35.4613 1565.00
35.7656 2481.00
36.0698 1655.00
36.3741 1699.00
36.6783 1392.00
36.9826 1521.00
37.2869 1423.00
37.5911 1233.00
37.8954 1290.00
38.1996 1262.00
38.5039 1253.00
38.8082 1477.00
39.1124 1578.00
39.4167 1320.00
39.7209 1796.00
40.0252 1713.00
40.3295 1369.00
40.6337 1269.00
40.938 1584.00
41.2422 2437.00
41.5465 2012.00
41.8508 2505.00
42.155 1664.00
42.4593 1674.00
42.7635 1227.00
43.0678 1335.00
43.3721 1363.00
43.6763 1555.00
43.9806 1264.00
44.2849 1378.00
44.5891 2392.00
44.8934 2583.00
45.1976 1548.00
45.5019 1542.00
45.8062 1678.00
46.1104 1697.00
46.4147 1621.00
46.7189 2083.00
47.0232 4216.00
47.3275 2252.00
47.6317 1526.00
47.936 1292.00
48.2402 1247.00
48.5445 1309.00
48.8488 1258.00
49.153 1505.00
49.4573 1902.00
49.7615 1904.00
50.0658 1435.00
50.3701 1599.00
50.6743 2321.00
50.9786 2550.00
51.2828 2806.00
51.5871 1707.00
51.8914 1514.00
52.1956 1387.00
52.4999 1405.00
52.8041 1318.00
53.1084 1572.00
53.4127 2809.00
53.7169 2563.00
54.0212 1671.00
54.3254 1568.00
54.6297 1598.00
54.934 1449.00
55.2382 1381.00
55.5425 1553.00
55.8467 1715.00
56.151 1770.00
56.4553 1497.00
56.7595 1407.00
57.0638 1220.00
57.368 1516.00
57.6723 1752.00
57.9766 1550.00
58.2808 1386.00
58.5851 1641.00
58.8893 1747.00
59.1936 2493.00
59.4979 2694.00
59.8021 1566.00
60.1064 1575.00
60.4106 1837.00
60.7149 1830.00
61.0192 1754.00
61.3234 2216.00
61.6277 1814.00
61.932 1408.00
62.2362 1422.00
62.5405 1625.00
62.8447 1818.00
63.149 1717.00
63.4533 1472.00
63.7575 1311.00
64.0618 1090.00
64.366 1186.00
64.6703 1366.00
64.9745 1567.00
65.2788 1398.00
65.5831 1281.00
65.8873 1479.00
66.1916 1658.00
66.4959 2016.00
66.8001 1682.00
67.1044 1201.00
67.4086 1092.00
67.7129 1086.00
68.0172 1079.00
68.3214 1152.00
68.6257 1340.00
68.9299 1135.00
69.2342 1076.00
69.5385 1142.00
69.8427 1142.00
70.147 1165.00
70.4512 1144.00
70.7555 1136.00
71.0598 1129.00
71.364 1189.00
71.6683 1313.00
71.9725 1585.00
72.2768 1605.00
72.5811 1290.00
72.8853 1160.00
73.1896 1157.00
73.4938 1318.00
73.7981 1222.00
74.1024 1129.00
74.4066 1100.00
74.7109 1072.00
75.0151 1124.00
75.3194 1252.00
75.6237 1307.00
75.9279 1263.00
76.2322 1176.00
76.5364 1227.00
76.8407 1211.00
77.145 1269.00
77.4492 1143.00
77.7535 1076.00
78.0577 1039.00
78.362 1103.00
78.6663 1034.00
78.9705 1022.00
79.2748 1105.00
79.579 1165.00
79.8833 1242.00
80.1876 1325.00
80.4918 1396.00
80.7961 1284.00
81.1003 1073.00
81.4046 1078.00
81.7089 1040.00
82.0131 1247.00
82.3174 1303.00
82.6217 1232.00
82.9259 1108.00
83.2302 1150.00
83.5344 1227.00
83.8387 1172.00
84.143 1188.00
84.4472 1046.00
84.7515 1054.00
85.0557 1100.00
85.36 1018.00
85.6643 1062.00
85.9685 1057.00
86.2728 1062.00
86.577 1138.00
86.8813 1336.00
87.1856 1290.00
87.4898 1073.00
87.7941 1125.00
88.0983 1084.00
88.4026 1202.00
88.7069 1204.00
89.0111 1140.00
89.3154 1129.00
89.6196 1164.00
89.9239 1217.00
90.2282 1258.00
90.5324 1233.00
90.8367 1182.00
91.1409 1059.00
91.4452 1042.00
91.7495 1045.00
92.0537 1155.00
92.358 1138.00
92.6622 995.00
92.9665 1002.00
93.2708 1134.00
93.575 1178.00
93.8793 1171.00
94.1835 1063.00
94.4878 1121.00
94.7921 1126.00
95.0963 1151.00
95.4006 1173.00
95.7048 1259.00
96.0091 1174.00
96.3134 1156.00
96.6176 1123.00
96.9219 1175.00
97.2261 1119.00
97.5304 1156.00
97.8347 1139.00
98.1389 1082.00
98.4432 1037.00
98.7474 1088.00
99.0517 1026.00
99.356 1164.00
99.6602 1187.00
99.9645 1327.00
100.095 1397.00