File: data/xrd_creation/results/NSC_66.xy
9.903433 2700.00
10.2077 2461.00
10.512 2479.00
10.8162 2222.00
11.1205 2118.00
11.4247 2079.00
11.729 2143.00
12.0333 1977.00
12.3375 1839.00
12.6418 1797.00
12.946 1774.00
13.2503 1727.00
13.5546 1672.00
13.8588 1587.00
14.1631 1442.00
14.4673 1508.00
14.7716 1426.00
15.0759 1415.00
15.3801 1415.00
15.6844 1399.00
15.9886 1358.00
16.2929 1295.00
16.5972 1300.00
16.9014 1280.00
17.2057 1309.00
17.5099 1230.00
17.8142 1179.00
18.1185 1141.00
18.4227 1086.00
18.727 1223.00
19.0312 1283.00
19.3355 1200.00
19.6398 1276.00
19.944 3289.00
20.2483 2174.00
20.5525 1267.00
20.8568 3083.00
21.1611 1394.00
21.4653 1155.00
21.7696 1026.00
22.0738 905.00
22.3781 915.00
22.6824 874.00
22.9866 937.00
23.2909 891.00
23.5951 900.00
23.8994 1314.00
24.2037 1002.00
24.5079 855.00
24.8122 748.00
25.1164 777.00
25.4207 790.00
25.725 764.00
26.0292 843.00
26.3335 1346.00
26.6378 1216.00
26.942 765.00
27.2463 797.00
27.5505 732.00
27.8548 693.00
28.1591 714.00
28.4633 654.00
28.7676 747.00
29.0718 724.00
29.3761 713.00
29.6804 800.00
29.9846 692.00
30.2889 728.00
30.5931 704.00
30.8974 649.00
31.2017 631.00
31.5059 639.00
31.8102 620.00
32.1144 739.00
32.4187 1063.00
32.723 1864.00
33.0272 3132.00
33.3315 1569.00
33.6357 839.00
33.94 1057.00
34.2443 1823.00
34.5485 2094.00
34.8528 830.00
35.157 910.00
35.4613 796.00
35.7656 693.00
36.0698 525.00
36.3741 563.00
36.6783 656.00
36.9826 761.00
37.2869 679.00
37.5911 563.00
37.8954 532.00
38.1996 619.00
38.5039 876.00
38.8082 678.00
39.1124 567.00
39.4167 532.00
39.7209 492.00
40.0252 522.00
40.3295 526.00
40.6337 524.00
40.938 523.00
41.2422 504.00
41.5465 455.00
41.8508 475.00
42.155 488.00
42.4593 651.00
42.7635 1363.00
43.0678 1145.00
43.3721 711.00
43.6763 687.00
43.9806 498.00
44.2849 447.00
44.5891 480.00
44.8934 487.00
45.1976 471.00
45.5019 457.00
45.8062 504.00
46.1104 406.00
46.4147 403.00
46.7189 368.00
47.0232 493.00
47.3275 631.00
47.6317 488.00
47.936 484.00
48.2402 423.00
48.5445 348.00
48.8488 411.00
49.153 589.00
49.4573 516.00
49.7615 453.00
50.0658 436.00
50.3701 374.00
50.6743 352.00
50.9786 362.00
51.2828 371.00
51.5871 320.00
51.8914 414.00
52.1956 400.00
52.4999 342.00
52.8041 350.00
53.1084 330.00
53.4127 358.00
53.7169 369.00
54.0212 351.00
54.3254 395.00
54.6297 375.00
54.934 400.00
55.2382 393.00
55.5425 354.00
55.8467 335.00
56.151 328.00
56.4553 339.00
56.7595 334.00
57.0638 343.00
57.368 318.00
57.6723 330.00
57.9766 334.00
58.2808 306.00
58.5851 326.00
58.8893 460.00
59.1936 516.00
59.4979 420.00
59.8021 375.00
60.1064 324.00
60.4106 327.00
60.7149 284.00
61.0192 305.00
61.3234 428.00
61.6277 458.00
61.932 448.00
62.2362 923.00
62.5405 457.00
62.8447 331.00
63.149 357.00
63.4533 295.00
63.7575 299.00
64.0618 285.00
64.366 265.00
64.6703 271.00
64.9745 262.00
65.2788 400.00
65.5831 369.00
65.8873 302.00
66.1916 275.00
66.4959 259.00
66.8001 244.00
67.1044 275.00
67.4086 236.00
67.7129 221.00
68.0172 223.00
68.3214 242.00
68.6257 261.00
68.9299 263.00
69.2342 262.00
69.5385 346.00
69.8427 302.00
70.147 329.00
70.4512 270.00
70.7555 226.00
71.0598 250.00
71.364 230.00
71.6683 264.00
71.9725 249.00
72.2768 301.00
72.5811 337.00
72.8853 302.00
73.1896 290.00
73.4938 261.00
73.7981 241.00
74.1024 283.00
74.4066 266.00
74.7109 339.00
75.0151 278.00
75.3194 279.00
75.6237 250.00
75.9279 280.00
76.2322 286.00
76.5364 272.00
76.8407 265.00
77.145 236.00
77.4492 231.00
77.7535 250.00
78.0577 277.00
78.362 291.00
78.6663 352.00
78.9705 304.00
79.2748 292.00
79.579 270.00
79.8833 245.00
80.1876 242.00
80.4918 223.00
80.7961 237.00
81.1003 238.00
81.4046 262.00
81.7089 233.00
82.0131 257.00
82.3174 276.00
82.6217 305.00
82.9259 306.00
83.2302 256.00
83.5344 281.00
83.8387 270.00
84.143 237.00
84.4472 269.00
84.7515 258.00
85.0557 309.00
85.36 246.00
85.6643 257.00
85.9685 228.00
86.2728 275.00
86.577 293.00
86.8813 247.00
87.1856 245.00
87.4898 225.00
87.7941 242.00
88.0983 246.00
88.4026 215.00
88.7069 237.00
89.0111 239.00
89.3154 256.00
89.6196 214.00
89.9239 204.00
90.2282 220.00
90.5324 217.00
90.8367 222.00
91.1409 202.00
91.4452 214.00
91.7495 196.00
92.0537 213.00
92.358 219.00
92.6622 213.00
92.9665 224.00
93.2708 220.00
93.575 216.00
93.8793 224.00
94.1835 263.00
94.4878 259.00
94.7921 219.00
95.0963 217.00
95.4006 210.00
95.7048 236.00
96.0091 199.00
96.3134 211.00
96.6176 203.00
96.9219 238.00
97.2261 214.00
97.5304 201.00
97.8347 235.00
98.1389 244.00
98.4432 216.00
98.7474 223.00
99.0517 226.00
99.356 189.00
99.6602 195.00
99.9645 219.00
100.095 233.00