File: data/xrd_creation/results/NSC_121.xy
9.903433 2780.00
10.2077 2580.00
10.512 2434.00
10.8162 2332.00
11.1205 2290.00
11.4247 2246.00
11.729 2238.00
12.0333 2108.00
12.3375 2044.00
12.6418 1947.00
12.946 1910.00
13.2503 1839.00
13.5546 1932.00
13.8588 2873.00
14.1631 2467.00
14.4673 1687.00
14.7716 1726.00
15.0759 1707.00
15.3801 1640.00
15.6844 1668.00
15.9886 1606.00
16.2929 1623.00
16.5972 1521.00
16.9014 1537.00
17.2057 1507.00
17.5099 1498.00
17.8142 1495.00
18.1185 1477.00
18.4227 1587.00
18.727 1876.00
19.0312 1838.00
19.3355 6462.00
19.6398 6308.00
19.944 3767.00
20.2483 14650.00
20.5525 1984.00
20.8568 1554.00
21.1611 1549.00
21.4653 1943.00
21.7696 1868.00
22.0738 1366.00
22.3781 1298.00
22.6824 1314.00
22.9866 1506.00
23.2909 4066.00
23.5951 2705.00
23.8994 1332.00
24.2037 1411.00
24.5079 1320.00
24.8122 1263.00
25.1164 1158.00
25.4207 1166.00
25.725 1169.00
26.0292 1150.00
26.3335 1190.00
26.6378 1156.00
26.942 1069.00
27.2463 1095.00
27.5505 1170.00
27.8548 1344.00
28.1591 6861.00
28.4633 2549.00
28.7676 1203.00
29.0718 1112.00
29.3761 1064.00
29.6804 1024.00
29.9846 1064.00
30.2889 1119.00
30.5931 1363.00
30.8974 2307.00
31.2017 11837.00
31.5059 2325.00
31.8102 1311.00
32.1144 1264.00
32.4187 1027.00
32.723 999.00
33.0272 947.00
33.3315 1036.00
33.6357 1641.00
33.94 1134.00
34.2443 1134.00
34.5485 1247.00
34.8528 3243.00
35.157 3921.00
35.4613 6935.00
35.7656 1450.00
36.0698 1198.00
36.3741 1138.00
36.6783 963.00
36.9826 904.00
37.2869 896.00
37.5911 880.00
37.8954 953.00
38.1996 876.00
38.5039 845.00
38.8082 931.00
39.1124 866.00
39.4167 1092.00
39.7209 1672.00
40.0252 875.00
40.3295 868.00
40.6337 877.00
40.938 1341.00
41.2422 2408.00
41.5465 2105.00
41.8508 1000.00
42.155 943.00
42.4593 866.00
42.7635 1485.00
43.0678 2458.00
43.3721 966.00
43.6763 1216.00
43.9806 913.00
44.2849 852.00
44.5891 1160.00
44.8934 3289.00
45.1976 1175.00
45.5019 1038.00
45.8062 2590.00
46.1104 2024.00
46.4147 1502.00
46.7189 2059.00
47.0232 938.00
47.3275 948.00
47.6317 1256.00
47.936 4467.00
48.2402 1486.00
48.5445 1368.00
48.8488 949.00
49.153 916.00
49.4573 996.00
49.7615 977.00
50.0658 881.00
50.3701 918.00
50.6743 1431.00
50.9786 1488.00
51.2828 4156.00
51.5871 1508.00
51.8914 929.00
52.1956 811.00
52.4999 859.00
52.8041 819.00
53.1084 856.00
53.4127 784.00
53.7169 827.00
54.0212 1300.00
54.3254 1823.00
54.6297 1159.00
54.934 1902.00
55.2382 3700.00
55.5425 3271.00
55.8467 1137.00
56.151 889.00
56.4553 922.00
56.7595 982.00
57.0638 869.00
57.368 800.00
57.6723 928.00
57.9766 1207.00
58.2808 1880.00
58.5851 1400.00
58.8893 911.00
59.1936 858.00
59.4979 936.00
59.8021 2510.00
60.1064 1602.00
60.4106 1024.00
60.7149 1185.00
61.0192 2894.00
61.3234 1292.00
61.6277 954.00
61.932 1081.00
62.2362 1865.00
62.5405 1509.00
62.8447 977.00
63.149 1231.00
63.4533 1819.00
63.7575 1865.00
64.0618 1368.00
64.366 892.00
64.6703 785.00
64.9745 901.00
65.2788 915.00
65.5831 949.00
65.8873 1086.00
66.1916 2057.00
66.4959 1164.00
66.8001 857.00
67.1044 1404.00
67.4086 1583.00
67.7129 1688.00
68.0172 1161.00
68.3214 866.00
68.6257 988.00
68.9299 1165.00
69.2342 851.00
69.5385 811.00
69.8427 800.00
70.147 805.00
70.4512 847.00
70.7555 1085.00
71.0598 1732.00
71.364 948.00
71.6683 788.00
71.9725 817.00
72.2768 794.00
72.5811 789.00
72.8853 793.00
73.1896 809.00
73.4938 1079.00
73.7981 1497.00
74.1024 1074.00
74.4066 869.00
74.7109 1071.00
75.0151 1550.00
75.3194 1262.00
75.6237 1019.00
75.9279 790.00
76.2322 792.00
76.5364 774.00
76.8407 849.00
77.145 862.00
77.4492 990.00
77.7535 902.00
78.0577 867.00
78.362 1274.00
78.6663 1577.00
78.9705 1470.00
79.2748 1027.00
79.579 869.00
79.8833 995.00
80.1876 811.00
80.4918 840.00
80.7961 1079.00
81.1003 1276.00
81.4046 854.00
81.7089 795.00
82.0131 769.00
82.3174 940.00
82.6217 948.00
82.9259 797.00
83.2302 1111.00
83.5344 1288.00
83.8387 999.00
84.143 802.00
84.4472 809.00
84.7515 1117.00
85.0557 1040.00
85.36 1099.00
85.6643 1006.00
85.9685 1011.00
86.2728 1024.00
86.577 966.00
86.8813 1001.00
87.1856 768.00
87.4898 770.00
87.7941 870.00
88.0983 999.00
88.4026 934.00
88.7069 880.00
89.0111 1066.00
89.3154 1346.00
89.6196 1350.00
89.9239 1025.00
90.2282 901.00
90.5324 870.00
90.8367 877.00
91.1409 881.00
91.4452 1055.00
91.7495 1209.00
92.0537 1049.00
92.358 957.00
92.6622 924.00
92.9665 834.00
93.2708 797.00
93.575 860.00
93.8793 1116.00
94.1835 1039.00
94.4878 887.00
94.7921 896.00
95.0963 1383.00
95.4006 1109.00
95.7048 926.00
96.0091 1208.00
96.3134 1118.00
96.6176 1218.00
96.9219 1031.00
97.2261 881.00
97.5304 802.00
97.8347 725.00
98.1389 752.00
98.4432 790.00
98.7474 885.00
99.0517 929.00
99.356 999.00
99.6602 1010.00
99.9645 1140.00
100.095 1155.00