File: data/xrd_creation/results/NSC_220.xy
9.903433 2843.00
10.2077 2703.00
10.512 2584.00
10.8162 2390.00
11.1205 2303.00
11.4247 2228.00
11.729 2219.00
12.0333 2185.00
12.3375 2063.00
12.6418 1957.00
12.946 2093.00
13.2503 1937.00
13.5546 2254.00
13.8588 2719.00
14.1631 1784.00
14.4673 1798.00
14.7716 1756.00
15.0759 1831.00
15.3801 1713.00
15.6844 1590.00
15.9886 1687.00
16.2929 1656.00
16.5972 1590.00
16.9014 1661.00
17.2057 1620.00
17.5099 1629.00
17.8142 1570.00
18.1185 1580.00
18.4227 1538.00
18.727 1592.00
19.0312 1862.00
19.3355 6151.00
19.6398 6105.00
19.944 1703.00
20.2483 1434.00
20.5525 1560.00
20.8568 1904.00
21.1611 1407.00
21.4653 1438.00
21.7696 1368.00
22.0738 1351.00
22.3781 1312.00
22.6824 1637.00
22.9866 2788.00
23.2909 1446.00
23.5951 1297.00
23.8994 1415.00
24.2037 1523.00
24.5079 1389.00
24.8122 1276.00
25.1164 1209.00
25.4207 1259.00
25.725 1128.00
26.0292 1126.00
26.3335 1133.00
26.6378 1111.00
26.942 1173.00
27.2463 1226.00
27.5505 2625.00
27.8548 2919.00
28.1591 1874.00
28.4633 2069.00
28.7676 1197.00
29.0718 1045.00
29.3761 1092.00
29.6804 1055.00
29.9846 1146.00
30.2889 1822.00
30.5931 2527.00
30.8974 6205.00
31.2017 2509.00
31.5059 2021.00
31.8102 1586.00
32.1144 1097.00
32.4187 1013.00
32.723 951.00
33.0272 953.00
33.3315 1010.00
33.6357 1069.00
33.94 1874.00
34.2443 6688.00
34.5485 2278.00
34.8528 1114.00
35.157 992.00
35.4613 1294.00
35.7656 984.00
36.0698 988.00
36.3741 858.00
36.6783 865.00
36.9826 846.00
37.2869 862.00
37.5911 852.00
37.8954 841.00
38.1996 793.00
38.5039 885.00
38.8082 976.00
39.1124 913.00
39.4167 1157.00
39.7209 1084.00
40.0252 894.00
40.3295 872.00
40.6337 898.00
40.938 995.00
41.2422 1070.00
41.5465 1505.00
41.8508 1353.00
42.155 1288.00
42.4593 895.00
42.7635 802.00
43.0678 789.00
43.3721 817.00
43.6763 800.00
43.9806 906.00
44.2849 1529.00
44.5891 2120.00
44.8934 1177.00
45.1976 831.00
45.5019 894.00
45.8062 962.00
46.1104 967.00
46.4147 1370.00
46.7189 2585.00
47.0232 1919.00
47.3275 889.00
47.6317 780.00
47.936 782.00
48.2402 833.00
48.5445 857.00
48.8488 843.00
49.153 1032.00
49.4573 1110.00
49.7615 921.00
50.0658 809.00
50.3701 1123.00
50.6743 1839.00
50.9786 2065.00
51.2828 1042.00
51.5871 899.00
51.8914 761.00
52.1956 707.00
52.4999 717.00
52.8041 791.00
53.1084 1190.00
53.4127 2320.00
53.7169 1447.00
54.0212 794.00
54.3254 856.00
54.6297 758.00
54.934 848.00
55.2382 759.00
55.5425 821.00
55.8467 855.00
56.151 838.00
56.4553 803.00
56.7595 659.00
57.0638 694.00
57.368 828.00
57.6723 760.00
57.9766 730.00
58.2808 818.00
58.5851 1168.00
58.8893 1469.00
59.1936 2170.00
59.4979 1402.00
59.8021 839.00
60.1064 858.00
60.4106 1020.00
60.7149 1016.00
61.0192 1034.00
61.3234 1415.00
61.6277 1142.00
61.932 887.00
62.2362 1051.00
62.5405 1039.00
62.8447 1000.00
63.149 870.00
63.4533 746.00
63.7575 679.00
64.0618 641.00
64.366 677.00
64.6703 759.00
64.9745 876.00
65.2788 827.00
65.5831 816.00
65.8873 1000.00
66.1916 1236.00
66.4959 1186.00
66.8001 843.00
67.1044 669.00
67.4086 674.00
67.7129 688.00
68.0172 638.00
68.3214 800.00
68.6257 1036.00
68.9299 801.00
69.2342 682.00
69.5385 681.00
69.8427 648.00
70.147 648.00
70.4512 626.00
70.7555 618.00
71.0598 626.00
71.364 736.00
71.6683 739.00
71.9725 910.00
72.2768 978.00
72.5811 862.00
72.8853 796.00
73.1896 831.00
73.4938 722.00
73.7981 719.00
74.1024 663.00
74.4066 663.00
74.7109 626.00
75.0151 692.00
75.3194 759.00
75.6237 911.00
75.9279 724.00
76.2322 691.00
76.5364 694.00
76.8407 796.00
77.145 766.00
77.4492 664.00
77.7535 562.00
78.0577 579.00
78.362 631.00
78.6663 578.00
78.9705 616.00
79.2748 657.00
79.579 688.00
79.8833 748.00
80.1876 847.00
80.4918 929.00
80.7961 844.00
81.1003 678.00
81.4046 694.00
81.7089 662.00
82.0131 786.00
82.3174 810.00
82.6217 752.00
82.9259 693.00
83.2302 744.00
83.5344 656.00
83.8387 635.00
84.143 577.00
84.4472 555.00
84.7515 676.00
85.0557 591.00
85.36 636.00
85.6643 685.00
85.9685 668.00
86.2728 720.00
86.577 808.00
86.8813 884.00
87.1856 818.00
87.4898 753.00
87.7941 698.00
88.0983 724.00
88.4026 670.00
88.7069 702.00
89.0111 703.00
89.3154 681.00
89.6196 667.00
89.9239 732.00
90.2282 740.00
90.5324 720.00
90.8367 609.00
91.1409 639.00
91.4452 610.00
91.7495 628.00
92.0537 680.00
92.358 646.00
92.6622 670.00
92.9665 700.00
93.2708 741.00
93.575 764.00
93.8793 677.00
94.1835 689.00
94.4878 657.00
94.7921 626.00
95.0963 633.00
95.4006 716.00
95.7048 700.00
96.0091 719.00
96.3134 639.00
96.6176 644.00
96.9219 635.00
97.2261 662.00
97.5304 668.00
97.8347 635.00
98.1389 669.00
98.4432 549.00
98.7474 620.00
99.0517 585.00
99.356 691.00
99.6602 743.00
99.9645 854.00
100.095 858.00