File: data/xrd_creation/results/NSC_55.xy
9.903433 2534.00
10.2077 2373.00
10.512 2366.00
10.8162 2198.00
11.1205 2147.00
11.4247 2097.00
11.729 1905.00
12.0333 1936.00
12.3375 1747.00
12.6418 1752.00
12.946 1691.00
13.2503 1633.00
13.5546 1589.00
13.8588 1518.00
14.1631 1547.00
14.4673 1470.00
14.7716 1330.00
15.0759 1345.00
15.3801 1310.00
15.6844 1259.00
15.9886 1248.00
16.2929 1217.00
16.5972 1246.00
16.9014 1266.00
17.2057 1108.00
17.5099 1080.00
17.8142 1048.00
18.1185 992.00
18.4227 1090.00
18.727 1032.00
19.0312 1045.00
19.3355 962.00
19.6398 968.00
19.944 958.00
20.2483 913.00
20.5525 879.00
20.8568 896.00
21.1611 828.00
21.4653 833.00
21.7696 848.00
22.0738 820.00
22.3781 785.00
22.6824 837.00
22.9866 759.00
23.2909 806.00
23.5951 790.00
23.8994 721.00
24.2037 686.00
24.5079 679.00
24.8122 653.00
25.1164 741.00
25.4207 666.00
25.725 647.00
26.0292 642.00
26.3335 679.00
26.6378 607.00
26.942 634.00
27.2463 590.00
27.5505 579.00
27.8548 633.00
28.1591 589.00
28.4633 590.00
28.7676 544.00
29.0718 511.00
29.3761 551.00
29.6804 584.00
29.9846 540.00
30.2889 509.00
30.5931 477.00
30.8974 504.00
31.2017 536.00
31.5059 560.00
31.8102 489.00
32.1144 475.00
32.4187 468.00
32.723 481.00
33.0272 459.00
33.3315 493.00
33.6357 483.00
33.94 403.00
34.2443 455.00
34.5485 439.00
34.8528 435.00
35.157 381.00
35.4613 417.00
35.7656 413.00
36.0698 378.00
36.3741 454.00
36.6783 389.00
36.9826 379.00
37.2869 367.00
37.5911 380.00
37.8954 345.00
38.1996 335.00
38.5039 357.00
38.8082 345.00
39.1124 346.00
39.4167 343.00
39.7209 323.00
40.0252 282.00
40.3295 352.00
40.6337 353.00
40.938 302.00
41.2422 316.00
41.5465 303.00
41.8508 282.00
42.155 322.00
42.4593 292.00
42.7635 322.00
43.0678 320.00
43.3721 299.00
43.6763 277.00
43.9806 293.00
44.2849 312.00
44.5891 274.00
44.8934 285.00
45.1976 279.00
45.5019 278.00
45.8062 276.00
46.1104 279.00
46.4147 274.00
46.7189 283.00
47.0232 273.00
47.3275 277.00
47.6317 257.00
47.936 277.00
48.2402 239.00
48.5445 265.00
48.8488 280.00
49.153 281.00
49.4573 200.00
49.7615 281.00
50.0658 249.00
50.3701 220.00
50.6743 269.00
50.9786 257.00
51.2828 272.00
51.5871 228.00
51.8914 236.00
52.1956 262.00
52.4999 242.00
52.8041 211.00
53.1084 225.00
53.4127 221.00
53.7169 248.00
54.0212 262.00
54.3254 226.00
54.6297 243.00
54.934 234.00
55.2382 205.00
55.5425 219.00
55.8467 203.00
56.151 196.00
56.4553 203.00
56.7595 199.00
57.0638 202.00
57.368 207.00
57.6723 199.00
57.9766 176.00
58.2808 201.00
58.5851 204.00
58.8893 210.00
59.1936 191.00
59.4979 196.00
59.8021 171.00
60.1064 193.00
60.4106 187.00
60.7149 196.00
61.0192 183.00
61.3234 192.00
61.6277 181.00
61.932 176.00
62.2362 201.00
62.5405 190.00
62.8447 171.00
63.149 181.00
63.4533 175.00
63.7575 186.00
64.0618 188.00
64.366 148.00
64.6703 192.00
64.9745 185.00
65.2788 167.00
65.5831 202.00
65.8873 181.00
66.1916 176.00
66.4959 168.00
66.8001 178.00
67.1044 178.00
67.4086 175.00
67.7129 179.00
68.0172 171.00
68.3214 192.00
68.6257 183.00
68.9299 181.00
69.2342 188.00
69.5385 185.00
69.8427 190.00
70.147 190.00
70.4512 159.00
70.7555 190.00
71.0598 167.00
71.364 183.00
71.6683 161.00
71.9725 206.00
72.2768 162.00
72.5811 171.00
72.8853 189.00
73.1896 186.00
73.4938 191.00
73.7981 166.00
74.1024 191.00
74.4066 203.00
74.7109 188.00
75.0151 188.00
75.3194 203.00
75.6237 177.00
75.9279 190.00
76.2322 211.00
76.5364 200.00
76.8407 183.00
77.145 177.00
77.4492 194.00
77.7535 179.00
78.0577 179.00
78.362 206.00
78.6663 221.00
78.9705 201.00
79.2748 222.00
79.579 222.00
79.8833 210.00
80.1876 214.00
80.4918 208.00
80.7961 230.00
81.1003 227.00
81.4046 201.00
81.7089 191.00
82.0131 212.00
82.3174 190.00
82.6217 219.00
82.9259 218.00
83.2302 233.00
83.5344 201.00
83.8387 218.00
84.143 208.00
84.4472 205.00
84.7515 196.00
85.0557 211.00
85.36 194.00
85.6643 220.00
85.9685 212.00
86.2728 166.00
86.577 180.00
86.8813 207.00
87.1856 209.00
87.4898 165.00
87.7941 185.00
88.0983 215.00
88.4026 199.00
88.7069 167.00
89.0111 172.00
89.3154 210.00
89.6196 193.00
89.9239 185.00
90.2282 170.00
90.5324 176.00
90.8367 181.00
91.1409 178.00
91.4452 158.00
91.7495 160.00
92.0537 182.00
92.358 190.00
92.6622 161.00
92.9665 164.00
93.2708 186.00
93.575 159.00
93.8793 162.00
94.1835 194.00
94.4878 186.00
94.7921 164.00
95.0963 188.00
95.4006 164.00
95.7048 198.00
96.0091 164.00
96.3134 189.00
96.6176 174.00
96.9219 168.00
97.2261 159.00
97.5304 191.00
97.8347 174.00
98.1389 156.00
98.4432 184.00
98.7474 187.00
99.0517 164.00
99.356 176.00
99.6602 176.00
99.9645 172.00
100.095 169.00