File: data/xrd_creation/results/NSC_15.xy
9.903433 2830.00
10.2077 2866.00
10.512 2799.00
10.8162 2573.00
11.1205 2531.00
11.4247 2382.00
11.729 2334.00
12.0333 2216.00
12.3375 2252.00
12.6418 2133.00
12.946 2010.00
13.2503 2050.00
13.5546 2053.00
13.8588 2039.00
14.1631 1961.00
14.4673 1978.00
14.7716 2065.00
15.0759 1855.00
15.3801 1811.00
15.6844 1862.00
15.9886 1746.00
16.2929 1847.00
16.5972 2526.00
16.9014 1878.00
17.2057 1717.00
17.5099 1825.00
17.8142 1709.00
18.1185 1688.00
18.4227 1545.00
18.727 1493.00
19.0312 1566.00
19.3355 2182.00
19.6398 1695.00
19.944 1598.00
20.2483 1563.00
20.5525 2065.00
20.8568 3729.00
21.1611 2508.00
21.4653 1670.00
21.7696 1493.00
22.0738 1762.00
22.3781 2297.00
22.6824 1531.00
22.9866 1516.00
23.2909 1538.00
23.5951 1643.00
23.8994 1931.00
24.2037 1684.00
24.5079 2001.00
24.8122 1338.00
25.1164 1220.00
25.4207 1266.00
25.725 1318.00
26.0292 1137.00
26.3335 1183.00
26.6378 1215.00
26.942 1650.00
27.2463 1288.00
27.5505 1410.00
27.8548 1847.00
28.1591 6567.00
28.4633 1849.00
28.7676 1292.00
29.0718 1220.00
29.3761 1234.00
29.6804 2370.00
29.9846 1212.00
30.2889 1217.00
30.5931 1982.00
30.8974 1813.00
31.2017 2101.00
31.5059 4065.00
31.8102 1344.00
32.1144 1433.00
32.4187 1081.00
32.723 1886.00
33.0272 2326.00
33.3315 1450.00
33.6357 1585.00
33.94 2255.00
34.2443 2335.00
34.5485 1445.00
34.8528 1130.00
35.157 1596.00
35.4613 1313.00
35.7656 1196.00
36.0698 1020.00
36.3741 942.00
36.6783 1088.00
36.9826 1139.00
37.2869 837.00
37.5911 975.00
37.8954 920.00
38.1996 954.00
38.5039 1030.00
38.8082 864.00
39.1124 737.00
39.4167 943.00
39.7209 973.00
40.0252 902.00
40.3295 899.00
40.6337 1370.00
40.938 1399.00
41.2422 1150.00
41.5465 1085.00
41.8508 802.00
42.155 796.00
42.4593 840.00
42.7635 878.00
43.0678 899.00
43.3721 921.00
43.6763 867.00
43.9806 922.00
44.2849 980.00
44.5891 1037.00
44.8934 1117.00
45.1976 934.00
45.5019 1234.00
45.8062 915.00
46.1104 765.00
46.4147 908.00
46.7189 857.00
47.0232 873.00
47.3275 804.00
47.6317 815.00
47.936 1078.00
48.2402 948.00
48.5445 923.00
48.8488 894.00
49.153 1462.00
49.4573 1097.00
49.7615 803.00
50.0658 1739.00
50.3701 1196.00
50.6743 1312.00
50.9786 815.00
51.2828 985.00
51.5871 745.00
51.8914 819.00
52.1956 754.00
52.4999 653.00
52.8041 798.00
53.1084 749.00
53.4127 772.00
53.7169 969.00
54.0212 1316.00
54.3254 845.00
54.6297 737.00
54.934 705.00
55.2382 1196.00
55.5425 1247.00
55.8467 1021.00
56.151 848.00
56.4553 788.00
56.7595 831.00
57.0638 1024.00
57.368 1048.00
57.6723 778.00
57.9766 901.00
58.2808 945.00
58.5851 879.00
58.8893 836.00
59.1936 737.00
59.4979 729.00
59.8021 1057.00
60.1064 1103.00
60.4106 833.00
60.7149 661.00
61.0192 686.00
61.3234 952.00
61.6277 778.00
61.932 928.00
62.2362 868.00
62.5405 801.00
62.8447 1036.00
63.149 710.00
63.4533 623.00
63.7575 600.00
64.0618 679.00
64.366 734.00
64.6703 583.00
64.9745 635.00
65.2788 670.00
65.5831 866.00
65.8873 837.00
66.1916 695.00
66.4959 607.00
66.8001 591.00
67.1044 584.00
67.4086 523.00
67.7129 544.00
68.0172 524.00
68.3214 534.00
68.6257 564.00
68.9299 641.00
69.2342 564.00
69.5385 564.00
69.8427 583.00
70.147 618.00
70.4512 580.00
70.7555 590.00
71.0598 693.00
71.364 724.00
71.6683 625.00
71.9725 668.00
72.2768 620.00
72.5811 590.00
72.8853 542.00
73.1896 486.00
73.4938 555.00
73.7981 515.00
74.1024 511.00
74.4066 554.00
74.7109 544.00
75.0151 577.00
75.3194 650.00
75.6237 497.00
75.9279 578.00
76.2322 580.00
76.5364 587.00
76.8407 534.00
77.145 556.00
77.4492 549.00
77.7535 537.00
78.0577 577.00
78.362 511.00
78.6663 520.00
78.9705 573.00
79.2748 540.00
79.579 551.00
79.8833 541.00
80.1876 527.00
80.4918 496.00
80.7961 473.00
81.1003 478.00
81.4046 564.00
81.7089 577.00
82.0131 574.00
82.3174 586.00
82.6217 610.00
82.9259 583.00
83.2302 550.00
83.5344 575.00
83.8387 635.00
84.143 593.00
84.4472 499.00
84.7515 515.00
85.0557 476.00
85.36 490.00
85.6643 498.00
85.9685 507.00
86.2728 485.00
86.577 530.00
86.8813 440.00
87.1856 505.00
87.4898 517.00
87.7941 590.00
88.0983 614.00
88.4026 580.00
88.7069 522.00
89.0111 502.00
89.3154 497.00
89.6196 492.00
89.9239 505.00
90.2282 516.00
90.5324 484.00
90.8367 513.00
91.1409 497.00
91.4452 502.00
91.7495 480.00
92.0537 440.00
92.358 500.00
92.6622 435.00
92.9665 477.00
93.2708 463.00
93.575 499.00
93.8793 536.00
94.1835 486.00
94.4878 457.00
94.7921 458.00
95.0963 564.00
95.4006 504.00
95.7048 515.00
96.0091 467.00
96.3134 533.00
96.6176 559.00
96.9219 620.00
97.2261 518.00
97.5304 450.00
97.8347 457.00
98.1389 494.00
98.4432 483.00
98.7474 513.00
99.0517 560.00
99.356 509.00
99.6602 519.00
99.9645 480.00
100.095 475.00