File: data/xrd_creation/results/NSC_202.xy
9.903433 2842.00
10.2077 2813.00
10.512 2590.00
10.8162 2608.00
11.1205 2354.00
11.4247 2385.00
11.729 2319.00
12.0333 2221.00
12.3375 2168.00
12.6418 2098.00
12.946 2020.00
13.2503 2116.00
13.5546 2060.00
13.8588 2241.00
14.1631 1928.00
14.4673 1955.00
14.7716 2238.00
15.0759 1866.00
15.3801 1790.00
15.6844 1753.00
15.9886 1738.00
16.2929 1778.00
16.5972 1696.00
16.9014 1798.00
17.2057 1646.00
17.5099 1727.00
17.8142 1573.00
18.1185 1529.00
18.4227 1600.00
18.727 1568.00
19.0312 1653.00
19.3355 2989.00
19.6398 3362.00
19.944 1581.00
20.2483 1699.00
20.5525 1714.00
20.8568 2051.00
21.1611 2256.00
21.4653 2244.00
21.7696 1635.00
22.0738 1535.00
22.3781 2624.00
22.6824 1636.00
22.9866 2016.00
23.2909 1341.00
23.5951 1371.00
23.8994 1536.00
24.2037 1669.00
24.5079 1463.00
24.8122 1394.00
25.1164 1267.00
25.4207 1238.00
25.725 1376.00
26.0292 1270.00
26.3335 1207.00
26.6378 1250.00
26.942 1251.00
27.2463 1310.00
27.5505 1767.00
27.8548 2091.00
28.1591 2443.00
28.4633 2651.00
28.7676 1324.00
29.0718 1318.00
29.3761 1297.00
29.6804 1189.00
29.9846 1262.00
30.2889 1580.00
30.5931 1978.00
30.8974 3968.00
31.2017 2322.00
31.5059 2197.00
31.8102 1920.00
32.1144 1348.00
32.4187 1226.00
32.723 1207.00
33.0272 1697.00
33.3315 1951.00
33.6357 1760.00
33.94 2063.00
34.2443 5019.00
34.5485 1851.00
34.8528 1324.00
35.157 1236.00
35.4613 1408.00
35.7656 1208.00
36.0698 1322.00
36.3741 1080.00
36.6783 1025.00
36.9826 1040.00
37.2869 983.00
37.5911 939.00
37.8954 974.00
38.1996 986.00
38.5039 961.00
38.8082 1096.00
39.1124 1010.00
39.4167 1111.00
39.7209 1215.00
40.0252 1085.00
40.3295 991.00
40.6337 1076.00
40.938 1357.00
41.2422 1542.00
41.5465 1463.00
41.8508 1268.00
42.155 1036.00
42.4593 932.00
42.7635 950.00
43.0678 929.00
43.3721 1116.00
43.6763 1028.00
43.9806 938.00
44.2849 1196.00
44.5891 1593.00
44.8934 1218.00
45.1976 1061.00
45.5019 1149.00
45.8062 1330.00
46.1104 1081.00
46.4147 1227.00
46.7189 1711.00
47.0232 1717.00
47.3275 1252.00
47.6317 1037.00
47.936 947.00
48.2402 1029.00
48.5445 896.00
48.8488 942.00
49.153 1310.00
49.4573 1177.00
49.7615 1050.00
50.0658 1039.00
50.3701 1224.00
50.6743 1538.00
50.9786 1429.00
51.2828 1273.00
51.5871 1048.00
51.8914 972.00
52.1956 983.00
52.4999 1058.00
52.8041 1005.00
53.1084 1105.00
53.4127 1650.00
53.7169 1291.00
54.0212 1189.00
54.3254 1272.00
54.6297 1060.00
54.934 1058.00
55.2382 1125.00
55.5425 1159.00
55.8467 1116.00
56.151 1093.00
56.4553 1055.00
56.7595 908.00
57.0638 894.00
57.368 1144.00
57.6723 1229.00
57.9766 1043.00
58.2808 1130.00
58.5851 1118.00
58.8893 1206.00
59.1936 1532.00
59.4979 1257.00
59.8021 1069.00
60.1064 1205.00
60.4106 1349.00
60.7149 1175.00
61.0192 1236.00
61.3234 1626.00
61.6277 1126.00
61.932 1021.00
62.2362 1029.00
62.5405 1056.00
62.8447 1142.00
63.149 1011.00
63.4533 884.00
63.7575 806.00
64.0618 842.00
64.366 894.00
64.6703 988.00
64.9745 955.00
65.2788 928.00
65.5831 972.00
65.8873 1077.00
66.1916 1177.00
66.4959 1164.00
66.8001 946.00
67.1044 842.00
67.4086 824.00
67.7129 803.00
68.0172 874.00
68.3214 853.00
68.6257 960.00
68.9299 907.00
69.2342 845.00
69.5385 862.00
69.8427 861.00
70.147 724.00
70.4512 871.00
70.7555 844.00
71.0598 805.00
71.364 863.00
71.6683 927.00
71.9725 963.00
72.2768 1045.00
72.5811 899.00
72.8853 847.00
73.1896 826.00
73.4938 873.00
73.7981 836.00
74.1024 765.00
74.4066 820.00
74.7109 824.00
75.0151 869.00
75.3194 879.00
75.6237 919.00
75.9279 873.00
76.2322 856.00
76.5364 860.00
76.8407 922.00
77.145 886.00
77.4492 754.00
77.7535 760.00
78.0577 800.00
78.362 825.00
78.6663 736.00
78.9705 759.00
79.2748 780.00
79.579 857.00
79.8833 871.00
80.1876 868.00
80.4918 938.00
80.7961 867.00
81.1003 755.00
81.4046 797.00
81.7089 777.00
82.0131 891.00
82.3174 915.00
82.6217 892.00
82.9259 778.00
83.2302 831.00
83.5344 803.00
83.8387 849.00
84.143 846.00
84.4472 777.00
84.7515 715.00
85.0557 820.00
85.36 758.00
85.6643 813.00
85.9685 761.00
86.2728 758.00
86.577 827.00
86.8813 875.00
87.1856 890.00
87.4898 819.00
87.7941 820.00
88.0983 823.00
88.4026 805.00
88.7069 874.00
89.0111 838.00
89.3154 821.00
89.6196 783.00
89.9239 898.00
90.2282 908.00
90.5324 924.00
90.8367 850.00
91.1409 771.00
91.4452 860.00
91.7495 804.00
92.0537 746.00
92.358 890.00
92.6622 747.00
92.9665 775.00
93.2708 871.00
93.575 819.00
93.8793 849.00
94.1835 816.00
94.4878 784.00
94.7921 787.00
95.0963 823.00
95.4006 847.00
95.7048 801.00
96.0091 864.00
96.3134 759.00
96.6176 819.00
96.9219 787.00
97.2261 819.00
97.5304 790.00
97.8347 762.00
98.1389 754.00
98.4432 821.00
98.7474 739.00
99.0517 781.00
99.356 835.00
99.6602 839.00
99.9645 878.00
100.095 906.00