File: data/xrd_creation/results/NSC_182.xy
9.903433 3173.00
10.2077 3049.00
10.512 2927.00
10.8162 2893.00
11.1205 2848.00
11.4247 2783.00
11.729 2675.00
12.0333 2608.00
12.3375 2662.00
12.6418 2460.00
12.946 2571.00
13.2503 2433.00
13.5546 2470.00
13.8588 3277.00
14.1631 7134.00
14.4673 2428.00
14.7716 2333.00
15.0759 2415.00
15.3801 2345.00
15.6844 2293.00
15.9886 2217.00
16.2929 2294.00
16.5972 2307.00
16.9014 2266.00
17.2057 2226.00
17.5099 2132.00
17.8142 2123.00
18.1185 2103.00
18.4227 2037.00
18.727 1998.00
19.0312 2034.00
19.3355 2166.00
19.6398 3428.00
19.944 12334.00
20.2483 2173.00
20.5525 1945.00
20.8568 1873.00
21.1611 1851.00
21.4653 1927.00
21.7696 1875.00
22.0738 1955.00
22.3781 1955.00
22.6824 1940.00
22.9866 2211.00
23.2909 14715.00
23.5951 2128.00
23.8994 1949.00
24.2037 2547.00
24.5079 1854.00
24.8122 1828.00
25.1164 1748.00
25.4207 1857.00
25.725 1823.00
26.0292 1754.00
26.3335 1710.00
26.6378 1724.00
26.942 1734.00
27.2463 1709.00
27.5505 1782.00
27.8548 1912.00
28.1591 7735.00
28.4633 1812.00
28.7676 1774.00
29.0718 1594.00
29.3761 1720.00
29.6804 1643.00
29.9846 1668.00
30.2889 1699.00
30.5931 2285.00
30.8974 2352.00
31.2017 2837.00
31.5059 24303.00
31.8102 2461.00
32.1144 1590.00
32.4187 1635.00
32.723 1599.00
33.0272 1497.00
33.3315 1539.00
33.6357 1532.00
33.94 1593.00
34.2443 1694.00
34.5485 10114.00
34.8528 2137.00
35.157 1423.00
35.4613 1474.00
35.7656 1498.00
36.0698 1474.00
36.3741 1466.00
36.6783 1496.00
36.9826 1415.00
37.2869 1506.00
37.5911 1454.00
37.8954 1414.00
38.1996 1410.00
38.5039 1365.00
38.8082 1460.00
39.1124 1403.00
39.4167 1478.00
39.7209 1442.00
40.0252 1633.00
40.3295 1479.00
40.6337 1425.00
40.938 1522.00
41.2422 1557.00
41.5465 1461.00
41.8508 2142.00
42.155 2469.00
42.4593 1887.00
42.7635 1806.00
43.0678 1455.00
43.3721 1474.00
43.6763 1429.00
43.9806 1356.00
44.2849 1450.00
44.5891 1415.00
44.8934 1963.00
45.1976 1851.00
45.5019 1427.00
45.8062 1416.00
46.1104 1367.00
46.4147 1448.00
46.7189 1563.00
47.0232 1950.00
47.3275 11226.00
47.6317 1680.00
47.936 1379.00
48.2402 1431.00
48.5445 1446.00
48.8488 1437.00
49.153 1593.00
49.4573 2449.00
49.7615 1518.00
50.0658 1336.00
50.3701 1357.00
50.6743 1359.00
50.9786 1415.00
51.2828 2087.00
51.5871 3880.00
51.8914 1617.00
52.1956 1347.00
52.4999 1315.00
52.8041 1466.00
53.1084 1333.00
53.4127 1389.00
53.7169 2332.00
54.0212 2563.00
54.3254 1264.00
54.6297 1308.00
54.934 1253.00
55.2382 1397.00
55.5425 1504.00
55.8467 1280.00
56.151 1216.00
56.4553 1274.00
56.7595 1219.00
57.0638 1253.00
57.368 1221.00
57.6723 1211.00
57.9766 1328.00
58.2808 1223.00
58.5851 1287.00
58.8893 1264.00
59.1936 1314.00
59.4979 1745.00
59.8021 4898.00
60.1064 1430.00
60.4106 1335.00
60.7149 1277.00
61.0192 1263.00
61.3234 1537.00
61.6277 3044.00
61.932 1765.00
62.2362 1241.00
62.5405 1262.00
62.8447 1301.00
63.149 1566.00
63.4533 1790.00
63.7575 1206.00
64.0618 1105.00
64.366 1188.00
64.6703 1205.00
64.9745 1131.00
65.2788 1255.00
65.5831 1303.00
65.8873 1173.00
66.1916 1197.00
66.4959 1376.00
66.8001 1835.00
67.1044 1804.00
67.4086 1244.00
67.7129 1142.00
68.0172 1071.00
68.3214 1084.00
68.6257 1207.00
68.9299 1567.00
69.2342 1528.00
69.5385 1139.00
69.8427 1116.00
70.147 1207.00
70.4512 1242.00
70.7555 1055.00
71.0598 1071.00
71.364 1048.00
71.6683 1113.00
71.9725 1133.00
72.2768 1302.00
72.5811 2141.00
72.8853 1260.00
73.1896 1100.00
73.4938 1076.00
73.7981 1297.00
74.1024 1297.00
74.4066 1210.00
74.7109 1085.00
75.0151 1023.00
75.3194 1114.00
75.6237 1288.00
75.9279 1312.00
76.2322 1148.00
76.5364 1057.00
76.8407 1137.00
77.145 1161.00
77.4492 1122.00
77.7535 1206.00
78.0577 1094.00
78.362 1031.00
78.6663 1127.00
78.9705 983.00
79.2748 1132.00
79.579 1098.00
79.8833 1020.00
80.1876 1111.00
80.4918 1144.00
80.7961 1342.00
81.1003 1836.00
81.4046 1275.00
81.7089 1087.00
82.0131 1071.00
82.3174 1134.00
82.6217 1477.00
82.9259 1236.00
83.2302 1092.00
83.5344 1109.00
83.8387 1253.00
84.143 1100.00
84.4472 1052.00
84.7515 1074.00
85.0557 1062.00
85.36 983.00
85.6643 1137.00
85.9685 1113.00
86.2728 1068.00
86.577 1105.00
86.8813 1038.00
87.1856 1249.00
87.4898 1348.00
87.7941 1318.00
88.0983 1201.00
88.4026 1148.00
88.7069 1103.00
89.0111 1197.00
89.3154 1223.00
89.6196 1078.00
89.9239 1067.00
90.2282 1091.00
90.5324 1162.00
90.8367 1206.00
91.1409 1323.00
91.4452 1139.00
91.7495 1105.00
92.0537 1086.00
92.358 1180.00
92.6622 1367.00
92.9665 1221.00
93.2708 1080.00
93.575 1099.00
93.8793 1130.00
94.1835 1250.00
94.4878 1105.00
94.7921 1060.00
95.0963 1099.00
95.4006 1105.00
95.7048 1123.00
96.0091 1227.00
96.3134 1058.00
96.6176 1065.00
96.9219 1053.00
97.2261 1081.00
97.5304 1036.00
97.8347 1047.00
98.1389 1051.00
98.4432 1008.00
98.7474 1033.00
99.0517 1078.00
99.356 1040.00
99.6602 1030.00
99.9645 996.00
100.095 1011.00