File: data/xrd_creation/results/NSC_198.xy
9.903433 2433.00
10.2077 2384.00
10.512 2281.00
10.8162 2144.00
11.1205 2071.00
11.4247 1993.00
11.729 1826.00
12.0333 1806.00
12.3375 1730.00
12.6418 1596.00
12.946 1544.00
13.2503 1553.00
13.5546 1454.00
13.8588 1427.00
14.1631 1400.00
14.4673 1366.00
14.7716 1323.00
15.0759 1278.00
15.3801 1212.00
15.6844 1247.00
15.9886 1185.00
16.2929 1135.00
16.5972 1138.00
16.9014 1094.00
17.2057 1088.00
17.5099 1029.00
17.8142 1061.00
18.1185 1016.00
18.4227 963.00
18.727 930.00
19.0312 960.00
19.3355 875.00
19.6398 903.00
19.944 889.00
20.2483 835.00
20.5525 861.00
20.8568 782.00
21.1611 778.00
21.4653 780.00
21.7696 779.00
22.0738 773.00
22.3781 770.00
22.6824 746.00
22.9866 725.00
23.2909 640.00
23.5951 699.00
23.8994 698.00
24.2037 684.00
24.5079 716.00
24.8122 636.00
25.1164 640.00
25.4207 636.00
25.725 581.00
26.0292 610.00
26.3335 614.00
26.6378 591.00
26.942 536.00
27.2463 613.00
27.5505 583.00
27.8548 540.00
28.1591 526.00
28.4633 597.00
28.7676 543.00
29.0718 558.00
29.3761 498.00
29.6804 469.00
29.9846 496.00
30.2889 507.00
30.5931 482.00
30.8974 414.00
31.2017 439.00
31.5059 442.00
31.8102 434.00
32.1144 442.00
32.4187 444.00
32.723 458.00
33.0272 433.00
33.3315 413.00
33.6357 399.00
33.94 380.00
34.2443 426.00
34.5485 407.00
34.8528 396.00
35.157 383.00
35.4613 404.00
35.7656 374.00
36.0698 363.00
36.3741 378.00
36.6783 359.00
36.9826 369.00
37.2869 370.00
37.5911 336.00
37.8954 311.00
38.1996 332.00
38.5039 310.00
38.8082 364.00
39.1124 321.00
39.4167 302.00
39.7209 309.00
40.0252 307.00
40.3295 306.00
40.6337 309.00
40.938 292.00
41.2422 278.00
41.5465 288.00
41.8508 315.00
42.155 289.00
42.4593 292.00
42.7635 309.00
43.0678 283.00
43.3721 269.00
43.6763 233.00
43.9806 266.00
44.2849 266.00
44.5891 278.00
44.8934 264.00
45.1976 238.00
45.5019 246.00
45.8062 299.00
46.1104 224.00
46.4147 218.00
46.7189 248.00
47.0232 292.00
47.3275 243.00
47.6317 237.00
47.936 251.00
48.2402 242.00
48.5445 241.00
48.8488 258.00
49.153 222.00
49.4573 230.00
49.7615 244.00
50.0658 230.00
50.3701 240.00
50.6743 238.00
50.9786 244.00
51.2828 259.00
51.5871 235.00
51.8914 221.00
52.1956 234.00
52.4999 221.00
52.8041 230.00
53.1084 222.00
53.4127 221.00
53.7169 213.00
54.0212 220.00
54.3254 198.00
54.6297 229.00
54.934 207.00
55.2382 192.00
55.5425 196.00
55.8467 184.00
56.151 171.00
56.4553 205.00
56.7595 202.00
57.0638 192.00
57.368 203.00
57.6723 174.00
57.9766 206.00
58.2808 171.00
58.5851 183.00
58.8893 181.00
59.1936 191.00
59.4979 183.00
59.8021 186.00
60.1064 169.00
60.4106 173.00
60.7149 161.00
61.0192 152.00
61.3234 211.00
61.6277 171.00
61.932 201.00
62.2362 193.00
62.5405 186.00
62.8447 175.00
63.149 195.00
63.4533 172.00
63.7575 193.00
64.0618 169.00
64.366 156.00
64.6703 168.00
64.9745 177.00
65.2788 179.00
65.5831 191.00
65.8873 198.00
66.1916 168.00
66.4959 149.00
66.8001 195.00
67.1044 154.00
67.4086 163.00
67.7129 165.00
68.0172 151.00
68.3214 172.00
68.6257 155.00
68.9299 184.00
69.2342 175.00
69.5385 191.00
69.8427 178.00
70.147 179.00
70.4512 154.00
70.7555 159.00
71.0598 160.00
71.364 195.00
71.6683 168.00
71.9725 178.00
72.2768 169.00
72.5811 159.00
72.8853 163.00
73.1896 182.00
73.4938 182.00
73.7981 217.00
74.1024 173.00
74.4066 191.00
74.7109 182.00
75.0151 164.00
75.3194 207.00
75.6237 164.00
75.9279 174.00
76.2322 178.00
76.5364 192.00
76.8407 198.00
77.145 172.00
77.4492 192.00
77.7535 178.00
78.0577 213.00
78.362 198.00
78.6663 164.00
78.9705 200.00
79.2748 196.00
79.579 216.00
79.8833 197.00
80.1876 205.00
80.4918 208.00
80.7961 183.00
81.1003 212.00
81.4046 208.00
81.7089 206.00
82.0131 232.00
82.3174 187.00
82.6217 210.00
82.9259 213.00
83.2302 220.00
83.5344 205.00
83.8387 215.00
84.143 186.00
84.4472 197.00
84.7515 226.00
85.0557 210.00
85.36 200.00
85.6643 191.00
85.9685 188.00
86.2728 179.00
86.577 191.00
86.8813 187.00
87.1856 180.00
87.4898 152.00
87.7941 177.00
88.0983 184.00
88.4026 167.00
88.7069 195.00
89.0111 154.00
89.3154 165.00
89.6196 176.00
89.9239 178.00
90.2282 167.00
90.5324 137.00
90.8367 167.00
91.1409 169.00
91.4452 165.00
91.7495 160.00
92.0537 170.00
92.358 160.00
92.6622 157.00
92.9665 172.00
93.2708 150.00
93.575 168.00
93.8793 190.00
94.1835 173.00
94.4878 145.00
94.7921 154.00
95.0963 158.00
95.4006 157.00
95.7048 166.00
96.0091 145.00
96.3134 180.00
96.6176 161.00
96.9219 148.00
97.2261 152.00
97.5304 175.00
97.8347 176.00
98.1389 160.00
98.4432 171.00
98.7474 179.00
99.0517 175.00
99.356 155.00
99.6602 173.00
99.9645 135.00
100.095 171.00