File: data/xrd_creation/results/NSC_210.xy
9.903433 3107.00
10.2077 2977.00
10.512 2948.00
10.8162 2815.00
11.1205 2852.00
11.4247 2673.00
11.729 2597.00
12.0333 2540.00
12.3375 2491.00
12.6418 2538.00
12.946 2466.00
13.2503 2475.00
13.5546 2308.00
13.8588 2362.00
14.1631 2295.00
14.4673 2161.00
14.7716 2224.00
15.0759 2273.00
15.3801 2188.00
15.6844 2231.00
15.9886 2142.00
16.2929 2171.00
16.5972 2104.00
16.9014 2074.00
17.2057 2127.00
17.5099 2255.00
17.8142 2698.00
18.1185 2071.00
18.4227 2044.00
18.727 2026.00
19.0312 2041.00
19.3355 2088.00
19.6398 2063.00
19.944 1934.00
20.2483 2599.00
20.5525 2475.00
20.8568 2317.00
21.1611 2307.00
21.4653 1985.00
21.7696 2437.00
22.0738 2036.00
22.3781 1972.00
22.6824 1899.00
22.9866 1908.00
23.2909 1882.00
23.5951 1978.00
23.8994 2039.00
24.2037 2593.00
24.5079 3804.00
24.8122 3306.00
25.1164 2022.00
25.4207 2135.00
25.725 2590.00
26.0292 1825.00
26.3335 1794.00
26.6378 2007.00
26.942 1789.00
27.2463 1754.00
27.5505 1895.00
27.8548 2102.00
28.1591 2732.00
28.4633 12703.00
28.7676 5781.00
29.0718 2310.00
29.3761 1847.00
29.6804 1774.00
29.9846 1780.00
30.2889 1850.00
30.5931 2025.00
30.8974 6240.00
31.2017 2124.00
31.5059 3035.00
31.8102 9827.00
32.1144 4087.00
32.4187 1945.00
32.723 1743.00
33.0272 2170.00
33.3315 2292.00
33.6357 1979.00
33.94 1846.00
34.2443 2572.00
34.5485 5227.00
34.8528 3860.00
35.157 1991.00
35.4613 2492.00
35.7656 4688.00
36.0698 1864.00
36.3741 1929.00
36.6783 1409.00
36.9826 1450.00
37.2869 1449.00
37.5911 1372.00
37.8954 1555.00
38.1996 1756.00
38.5039 1377.00
38.8082 2195.00
39.1124 2091.00
39.4167 1381.00
39.7209 1444.00
40.0252 1325.00
40.3295 1497.00
40.6337 1459.00
40.938 2106.00
41.2422 2475.00
41.5465 2163.00
41.8508 1876.00
42.155 1468.00
42.4593 1258.00
42.7635 1242.00
43.0678 1278.00
43.3721 1221.00
43.6763 1208.00
43.9806 1189.00
44.2849 1228.00
44.5891 1217.00
44.8934 1413.00
45.1976 1837.00
45.5019 1475.00
45.8062 1877.00
46.1104 1751.00
46.4147 1183.00
46.7189 1145.00
47.0232 1056.00
47.3275 1265.00
47.6317 1272.00
47.936 1184.00
48.2402 1555.00
48.5445 1349.00
48.8488 1210.00
49.153 1418.00
49.4573 2463.00
49.7615 2695.00
50.0658 1702.00
50.3701 3082.00
50.6743 3226.00
50.9786 2509.00
51.2828 3170.00
51.5871 1675.00
51.8914 1345.00
52.1956 1188.00
52.4999 1178.00
52.8041 1249.00
53.1084 1137.00
53.4127 1093.00
53.7169 1126.00
54.0212 1407.00
54.3254 2185.00
54.6297 1924.00
54.934 1537.00
55.2382 1510.00
55.5425 2052.00
55.8467 2602.00
56.151 2739.00
56.4553 1922.00
56.7595 1378.00
57.0638 1210.00
57.368 1597.00
57.6723 1605.00
57.9766 1674.00
58.2808 1420.00
58.5851 1699.00
58.8893 1410.00
59.1936 1233.00
59.4979 1224.00
59.8021 1284.00
60.1064 1863.00
60.4106 2070.00
60.7149 1905.00
61.0192 1655.00
61.3234 1243.00
61.6277 1565.00
61.932 1592.00
62.2362 1808.00
62.5405 1883.00
62.8447 1612.00
63.149 1905.00
63.4533 1611.00
63.7575 1334.00
64.0618 1184.00
64.366 1177.00
64.6703 1245.00
64.9745 1242.00
65.2788 1129.00
65.5831 1337.00
65.8873 1603.00
66.1916 1520.00
66.4959 1449.00
66.8001 1062.00
67.1044 967.00
67.4086 895.00
67.7129 951.00
68.0172 946.00
68.3214 977.00
68.6257 923.00
68.9299 936.00
69.2342 1078.00
69.5385 1074.00
69.8427 1127.00
70.147 1000.00
70.4512 1089.00
70.7555 1057.00
71.0598 985.00
71.364 1222.00
71.6683 1223.00
71.9725 1308.00
72.2768 1115.00
72.5811 1075.00
72.8853 1195.00
73.1896 986.00
73.4938 1074.00
73.7981 975.00
74.1024 1013.00
74.4066 964.00
74.7109 998.00
75.0151 1075.00
75.3194 1522.00
75.6237 1195.00
75.9279 1093.00
76.2322 1035.00
76.5364 1069.00
76.8407 1051.00
77.145 1048.00
77.4492 1103.00
77.7535 1007.00
78.0577 1119.00
78.362 1043.00
78.6663 996.00
78.9705 1055.00
79.2748 1040.00
79.579 1140.00
79.8833 979.00
80.1876 863.00
80.4918 868.00
80.7961 939.00
81.1003 942.00
81.4046 948.00
81.7089 1002.00
82.0131 1099.00
82.3174 1138.00
82.6217 1023.00
82.9259 1144.00
83.2302 1241.00
83.5344 1233.00
83.8387 1169.00
84.143 1234.00
84.4472 1144.00
84.7515 1141.00
85.0557 1139.00
85.36 1017.00
85.6643 975.00
85.9685 1001.00
86.2728 1014.00
86.577 928.00
86.8813 1007.00
87.1856 958.00
87.4898 970.00
87.7941 909.00
88.0983 960.00
88.4026 1145.00
88.7069 1181.00
89.0111 1095.00
89.3154 1122.00
89.6196 997.00
89.9239 1087.00
90.2282 1119.00
90.5324 1052.00
90.8367 1000.00
91.1409 894.00
91.4452 903.00
91.7495 862.00
92.0537 839.00
92.358 873.00
92.6622 900.00
92.9665 857.00
93.2708 813.00
93.575 860.00
93.8793 996.00
94.1835 877.00
94.4878 877.00
94.7921 935.00
95.0963 1022.00
95.4006 1102.00
95.7048 1048.00
96.0091 1065.00
96.3134 1042.00
96.6176 1167.00
96.9219 1153.00
97.2261 1172.00
97.5304 1172.00
97.8347 1133.00
98.1389 1081.00
98.4432 1108.00
98.7474 1040.00
99.0517 1154.00
99.356 1096.00
99.6602 1203.00
99.9645 1072.00
100.095 1061.00