File: data/xrd_creation/results/NSC_110.xy
9.903433 2696.00
10.2077 2524.00
10.512 2498.00
10.8162 2376.00
11.1205 2271.00
11.4247 2147.00
11.729 2195.00
12.0333 2025.00
12.3375 1913.00
12.6418 1912.00
12.946 1836.00
13.2503 1852.00
13.5546 1885.00
13.8588 1793.00
14.1631 1686.00
14.4673 1643.00
14.7716 1868.00
15.0759 3036.00
15.3801 8365.00
15.6844 1709.00
15.9886 1624.00
16.2929 1545.00
16.5972 1599.00
16.9014 1491.00
17.2057 1522.00
17.5099 1387.00
17.8142 1408.00
18.1185 1447.00
18.4227 1435.00
18.727 1384.00
19.0312 1382.00
19.3355 1335.00
19.6398 1390.00
19.944 1313.00
20.2483 1395.00
20.5525 1748.00
20.8568 5060.00
21.1611 9465.00
21.4653 1671.00
21.7696 2141.00
22.0738 8392.00
22.3781 2755.00
22.6824 1448.00
22.9866 1426.00
23.2909 1231.00
23.5951 1194.00
23.8994 1172.00
24.2037 1174.00
24.5079 1238.00
24.8122 1381.00
25.1164 2232.00
25.4207 14326.00
25.725 2077.00
26.0292 1602.00
26.3335 2076.00
26.6378 1262.00
26.942 1310.00
27.2463 1036.00
27.5505 1129.00
27.8548 1060.00
28.1591 991.00
28.4633 1088.00
28.7676 1018.00
29.0718 1015.00
29.3761 927.00
29.6804 1056.00
29.9846 994.00
30.2889 1466.00
30.5931 9391.00
30.8974 1588.00
31.2017 985.00
31.5059 959.00
31.8102 953.00
32.1144 944.00
32.4187 932.00
32.723 970.00
33.0272 1157.00
33.3315 2342.00
33.6357 31190.00
33.94 1514.00
34.2443 3095.00
34.5485 1097.00
34.8528 987.00
35.157 1230.00
35.4613 865.00
35.7656 890.00
36.0698 1533.00
36.3741 952.00
36.6783 821.00
36.9826 814.00
37.2869 801.00
37.5911 911.00
37.8954 1341.00
38.1996 2693.00
38.5039 1554.00
38.8082 8251.00
39.1124 1247.00
39.4167 826.00
39.7209 987.00
40.0252 802.00
40.3295 838.00
40.6337 983.00
40.938 2054.00
41.2422 791.00
41.5465 704.00
41.8508 818.00
42.155 943.00
42.4593 1386.00
42.7635 888.00
43.0678 706.00
43.3721 695.00
43.6763 700.00
43.9806 913.00
44.2849 2087.00
44.5891 768.00
44.8934 1059.00
45.1976 966.00
45.5019 1279.00
45.8062 675.00
46.1104 718.00
46.4147 1031.00
46.7189 2466.00
47.0232 903.00
47.3275 741.00
47.6317 949.00
47.936 850.00
48.2402 1518.00
48.5445 3706.00
48.8488 891.00
49.153 733.00
49.4573 704.00
49.7615 1269.00
50.0658 5032.00
50.3701 791.00
50.6743 714.00
50.9786 978.00
51.2828 1118.00
51.5871 835.00
51.8914 1818.00
52.1956 5139.00
52.4999 777.00
52.8041 697.00
53.1084 1853.00
53.4127 788.00
53.7169 700.00
54.0212 645.00
54.3254 700.00
54.6297 738.00
54.934 1156.00
55.2382 3413.00
55.5425 722.00
55.8467 716.00
56.151 2300.00
56.4553 763.00
56.7595 635.00
57.0638 598.00
57.368 659.00
57.6723 1109.00
57.9766 682.00
58.2808 695.00
58.5851 1147.00
58.8893 2396.00
59.1936 828.00
59.4979 666.00
59.8021 765.00
60.1064 2090.00
60.4106 2495.00
60.7149 6757.00
61.0192 991.00
61.3234 694.00
61.6277 999.00
61.932 2102.00
62.2362 1549.00
62.5405 679.00
62.8447 702.00
63.149 688.00
63.4533 1916.00
63.7575 921.00
64.0618 632.00
64.366 770.00
64.6703 2698.00
64.9745 2407.00
65.2788 663.00
65.5831 1101.00
65.8873 1195.00
66.1916 1023.00
66.4959 4619.00
66.8001 3535.00
67.1044 870.00
67.4086 677.00
67.7129 653.00
68.0172 1036.00
68.3214 768.00
68.6257 614.00
68.9299 720.00
69.2342 2421.00
69.5385 1888.00
69.8427 3428.00
70.147 985.00
70.4512 767.00
70.7555 889.00
71.0598 2135.00
71.364 804.00
71.6683 656.00
71.9725 603.00
72.2768 611.00
72.5811 612.00
72.8853 585.00
73.1896 611.00
73.4938 860.00
73.7981 2110.00
74.1024 752.00
74.4066 683.00
74.7109 590.00
75.0151 685.00
75.3194 1086.00
75.6237 929.00
75.9279 879.00
76.2322 637.00
76.5364 593.00
76.8407 850.00
77.145 612.00
77.4492 626.00
77.7535 744.00
78.0577 2952.00
78.362 1069.00
78.6663 717.00
78.9705 687.00
79.2748 696.00
79.579 2328.00
79.8833 1056.00
80.1876 896.00
80.4918 862.00
80.7961 614.00
81.1003 655.00
81.4046 584.00
81.7089 588.00
82.0131 659.00
82.3174 680.00
82.6217 1386.00
82.9259 1852.00
83.2302 998.00
83.5344 571.00
83.8387 736.00
84.143 715.00
84.4472 652.00
84.7515 809.00
85.0557 786.00
85.36 581.00
85.6643 578.00
85.9685 567.00
86.2728 878.00
86.577 860.00
86.8813 1389.00
87.1856 852.00
87.4898 641.00
87.7941 1086.00
88.0983 1272.00
88.4026 720.00
88.7069 595.00
89.0111 552.00
89.3154 628.00
89.6196 606.00
89.9239 547.00
90.2282 572.00
90.5324 578.00
90.8367 577.00
91.1409 600.00
91.4452 680.00
91.7495 637.00
92.0537 1532.00
92.358 1143.00
92.6622 827.00
92.9665 1404.00
93.2708 1247.00
93.575 1151.00
93.8793 842.00
94.1835 615.00
94.4878 622.00
94.7921 697.00
95.0963 729.00
95.4006 613.00
95.7048 573.00
96.0091 630.00
96.3134 820.00
96.6176 825.00
96.9219 702.00
97.2261 635.00
97.5304 586.00
97.8347 553.00
98.1389 544.00
98.4432 622.00
98.7474 1789.00
99.0517 1228.00
99.356 915.00
99.6602 756.00
99.9645 645.00
100.095 595.00