File: data/xrd_creation/results/NSC_169.xy
9.903433 2962.00
10.2077 2972.00
10.512 2884.00
10.8162 2940.00
11.1205 2799.00
11.4247 2549.00
11.729 2548.00
12.0333 2510.00
12.3375 2487.00
12.6418 2371.00
12.946 2586.00
13.2503 2377.00
13.5546 2394.00
13.8588 2430.00
14.1631 3943.00
14.4673 2540.00
14.7716 2290.00
15.0759 2240.00
15.3801 2283.00
15.6844 2200.00
15.9886 2237.00
16.2929 2200.00
16.5972 2221.00
16.9014 2115.00
17.2057 2200.00
17.5099 2128.00
17.8142 1978.00
18.1185 1974.00
18.4227 2050.00
18.727 1965.00
19.0312 1988.00
19.3355 2013.00
19.6398 3247.00
19.944 7546.00
20.2483 6389.00
20.5525 2253.00
20.8568 2021.00
21.1611 1952.00
21.4653 1886.00
21.7696 2085.00
22.0738 1835.00
22.3781 1845.00
22.6824 1888.00
22.9866 1932.00
23.2909 2781.00
23.5951 23008.00
23.8994 2460.00
24.2037 1843.00
24.5079 1901.00
24.8122 2000.00
25.1164 1716.00
25.4207 1816.00
25.725 1658.00
26.0292 1583.00
26.3335 1676.00
26.6378 1606.00
26.942 1687.00
27.2463 1568.00
27.5505 1700.00
27.8548 1640.00
28.1591 1957.00
28.4633 10308.00
28.7676 1775.00
29.0718 1565.00
29.3761 1613.00
29.6804 1566.00
29.9846 1482.00
30.2889 1493.00
30.5931 1660.00
30.8974 1731.00
31.2017 2916.00
31.5059 25392.00
31.8102 2497.00
32.1144 1607.00
32.4187 1468.00
32.723 1512.00
33.0272 1419.00
33.3315 1368.00
33.6357 1376.00
33.94 1474.00
34.2443 1689.00
34.5485 1677.00
34.8528 1709.00
35.157 3396.00
35.4613 4259.00
35.7656 1474.00
36.0698 1342.00
36.3741 1393.00
36.6783 1372.00
36.9826 1343.00
37.2869 1284.00
37.5911 1238.00
37.8954 1239.00
38.1996 1259.00
38.5039 1253.00
38.8082 1346.00
39.1124 1322.00
39.4167 1301.00
39.7209 1276.00
40.0252 1918.00
40.3295 1236.00
40.6337 1209.00
40.938 1252.00
41.2422 1273.00
41.5465 1410.00
41.8508 1465.00
42.155 1993.00
42.4593 1286.00
42.7635 2841.00
43.0678 1694.00
43.3721 1353.00
43.6763 1287.00
43.9806 1163.00
44.2849 1212.00
44.5891 1236.00
44.8934 1342.00
45.1976 3235.00
45.5019 1301.00
45.8062 3159.00
46.1104 1249.00
46.4147 1274.00
46.7189 1225.00
47.0232 2640.00
47.3275 1423.00
47.6317 1519.00
47.936 5107.00
48.2402 1870.00
48.5445 1336.00
48.8488 1736.00
49.153 1259.00
49.4573 1280.00
49.7615 1277.00
50.0658 1166.00
50.3701 1403.00
50.6743 1322.00
50.9786 1337.00
51.2828 1361.00
51.5871 6261.00
51.8914 1439.00
52.1956 1181.00
52.4999 1199.00
52.8041 1180.00
53.1084 1205.00
53.4127 1126.00
53.7169 1211.00
54.0212 1198.00
54.3254 2017.00
54.6297 1468.00
54.934 4493.00
55.2382 1542.00
55.5425 1328.00
55.8467 1196.00
56.151 1212.00
56.4553 1841.00
56.7595 1299.00
57.0638 1212.00
57.368 1174.00
57.6723 1088.00
57.9766 1119.00
58.2808 1328.00
58.5851 1306.00
58.8893 1620.00
59.1936 1069.00
59.4979 1146.00
59.8021 1496.00
60.1064 2684.00
60.4106 1201.00
60.7149 3833.00
61.0192 1350.00
61.3234 1418.00
61.6277 1428.00
61.932 1071.00
62.2362 1219.00
62.5405 1335.00
62.8447 2538.00
63.149 2033.00
63.4533 1201.00
63.7575 1295.00
64.0618 1406.00
64.366 1308.00
64.6703 1100.00
64.9745 1068.00
65.2788 1155.00
65.5831 1124.00
65.8873 1342.00
66.1916 1116.00
66.4959 1455.00
66.8001 1825.00
67.1044 1166.00
67.4086 1392.00
67.7129 1536.00
68.0172 1362.00
68.3214 1509.00
68.6257 1098.00
68.9299 1021.00
69.2342 998.00
69.5385 1073.00
69.8427 983.00
70.147 1297.00
70.4512 2172.00
70.7555 1116.00
71.0598 1013.00
71.364 1126.00
71.6683 1506.00
71.9725 1008.00
72.2768 981.00
72.5811 1022.00
72.8853 1009.00
73.1896 1000.00
73.4938 1105.00
73.7981 1172.00
74.1024 1560.00
74.4066 1796.00
74.7109 1023.00
75.0151 1605.00
75.3194 1202.00
75.6237 978.00
75.9279 1330.00
76.2322 1336.00
76.5364 1029.00
76.8407 1064.00
77.145 1013.00
77.4492 1152.00
77.7535 1450.00
78.0577 1089.00
78.362 989.00
78.6663 1207.00
78.9705 1113.00
79.2748 1065.00
79.579 1005.00
79.8833 1036.00
80.1876 933.00
80.4918 986.00
80.7961 1001.00
81.1003 1313.00
81.4046 1048.00
81.7089 974.00
82.0131 1021.00
82.3174 1077.00
82.6217 1851.00
82.9259 1394.00
83.2302 1092.00
83.5344 1061.00
83.8387 968.00
84.143 1276.00
84.4472 1089.00
84.7515 1207.00
85.0557 1166.00
85.36 961.00
85.6643 969.00
85.9685 951.00
86.2728 924.00
86.577 1145.00
86.8813 1086.00
87.1856 1061.00
87.4898 1143.00
87.7941 1324.00
88.0983 1088.00
88.4026 1000.00
88.7069 1129.00
89.0111 1536.00
89.3154 1238.00
89.6196 1048.00
89.9239 1034.00
90.2282 1068.00
90.5324 1009.00
90.8367 971.00
91.1409 1228.00
91.4452 1277.00
91.7495 1138.00
92.0537 1025.00
92.358 908.00
92.6622 1046.00
92.9665 1270.00
93.2708 1067.00
93.575 1040.00
93.8793 1000.00
94.1835 1045.00
94.4878 1190.00
94.7921 1703.00
95.0963 1323.00
95.4006 1168.00
95.7048 1162.00
96.0091 1152.00
96.3134 1056.00
96.6176 973.00
96.9219 942.00
97.2261 964.00
97.5304 980.00
97.8347 1115.00
98.1389 1076.00
98.4432 1091.00
98.7474 1016.00
99.0517 970.00
99.356 1208.00
99.6602 1070.00
99.9645 924.00
100.095 966.00