File: data/xrd_creation/results/NSC_218.xy
9.903433 2538.00
10.2077 2542.00
10.512 2439.00
10.8162 2322.00
11.1205 2239.00
11.4247 2313.00
11.729 2070.00
12.0333 2111.00
12.3375 1992.00
12.6418 1990.00
12.946 1884.00
13.2503 1904.00
13.5546 2014.00
13.8588 2083.00
14.1631 1688.00
14.4673 1700.00
14.7716 1797.00
15.0759 1698.00
15.3801 1719.00
15.6844 1674.00
15.9886 1578.00
16.2929 1633.00
16.5972 1644.00
16.9014 1610.00
17.2057 1562.00
17.5099 1578.00
17.8142 1625.00
18.1185 1465.00
18.4227 1496.00
18.727 1460.00
19.0312 1612.00
19.3355 3774.00
19.6398 4143.00
19.944 1568.00
20.2483 1437.00
20.5525 1614.00
20.8568 1843.00
21.1611 1460.00
21.4653 1520.00
21.7696 1371.00
22.0738 1421.00
22.3781 1327.00
22.6824 1581.00
22.9866 2101.00
23.2909 1597.00
23.5951 1369.00
23.8994 1367.00
24.2037 1461.00
24.5079 1373.00
24.8122 1420.00
25.1164 1215.00
25.4207 1296.00
25.725 1162.00
26.0292 1208.00
26.3335 1142.00
26.6378 1169.00
26.942 1222.00
27.2463 1365.00
27.5505 2375.00
27.8548 2388.00
28.1591 1696.00
28.4633 2280.00
28.7676 1250.00
29.0718 1135.00
29.3761 1228.00
29.6804 1385.00
29.9846 1483.00
30.2889 1767.00
30.5931 1803.00
30.8974 4655.00
31.2017 3016.00
31.5059 1651.00
31.8102 1798.00
32.1144 1178.00
32.4187 990.00
32.723 1071.00
33.0272 1057.00
33.3315 1083.00
33.6357 1166.00
33.94 2027.00
34.2443 4987.00
34.5485 2243.00
34.8528 1272.00
35.157 1059.00
35.4613 1209.00
35.7656 1152.00
36.0698 1341.00
36.3741 1099.00
36.6783 964.00
36.9826 897.00
37.2869 983.00
37.5911 975.00
37.8954 1008.00
38.1996 948.00
38.5039 1154.00
38.8082 1139.00
39.1124 1091.00
39.4167 1170.00
39.7209 1122.00
40.0252 1001.00
40.3295 919.00
40.6337 1029.00
40.938 1088.00
41.2422 1221.00
41.5465 1523.00
41.8508 1325.00
42.155 1192.00
42.4593 977.00
42.7635 1030.00
43.0678 927.00
43.3721 927.00
43.6763 993.00
43.9806 971.00
44.2849 1584.00
44.5891 1829.00
44.8934 1081.00
45.1976 946.00
45.5019 904.00
45.8062 998.00
46.1104 980.00
46.4147 1382.00
46.7189 2480.00
47.0232 1496.00
47.3275 926.00
47.6317 841.00
47.936 910.00
48.2402 900.00
48.5445 944.00
48.8488 969.00
49.153 1111.00
49.4573 1237.00
49.7615 1117.00
50.0658 913.00
50.3701 1288.00
50.6743 1803.00
50.9786 1975.00
51.2828 1196.00
51.5871 1080.00
51.8914 1024.00
52.1956 898.00
52.4999 856.00
52.8041 933.00
53.1084 1480.00
53.4127 2096.00
53.7169 1123.00
54.0212 960.00
54.3254 1135.00
54.6297 1112.00
54.934 964.00
55.2382 951.00
55.5425 1036.00
55.8467 1057.00
56.151 935.00
56.4553 936.00
56.7595 961.00
57.0638 957.00
57.368 895.00
57.6723 940.00
57.9766 885.00
58.2808 890.00
58.5851 1153.00
58.8893 1703.00
59.1936 2126.00
59.4979 1286.00
59.8021 851.00
60.1064 1010.00
60.4106 1099.00
60.7149 1164.00
61.0192 1435.00
61.3234 1488.00
61.6277 1173.00
61.932 1015.00
62.2362 1177.00
62.5405 1286.00
62.8447 1151.00
63.149 1064.00
63.4533 969.00
63.7575 861.00
64.0618 868.00
64.366 879.00
64.6703 1068.00
64.9745 1068.00
65.2788 937.00
65.5831 919.00
65.8873 1211.00
66.1916 1431.00
66.4959 1230.00
66.8001 852.00
67.1044 844.00
67.4086 826.00
67.7129 886.00
68.0172 833.00
68.3214 1089.00
68.6257 1013.00
68.9299 903.00
69.2342 851.00
69.5385 864.00
69.8427 889.00
70.147 818.00
70.4512 781.00
70.7555 739.00
71.0598 800.00
71.364 949.00
71.6683 974.00
71.9725 1175.00
72.2768 1016.00
72.5811 861.00
72.8853 931.00
73.1896 1090.00
73.4938 867.00
73.7981 836.00
74.1024 763.00
74.4066 837.00
74.7109 892.00
75.0151 862.00
75.3194 1040.00
75.6237 908.00
75.9279 890.00
76.2322 820.00
76.5364 944.00
76.8407 901.00
77.145 845.00
77.4492 776.00
77.7535 815.00
78.0577 749.00
78.362 858.00
78.6663 761.00
78.9705 802.00
79.2748 845.00
79.579 917.00
79.8833 1027.00
80.1876 1133.00
80.4918 968.00
80.7961 839.00
81.1003 824.00
81.4046 779.00
81.7089 883.00
82.0131 1008.00
82.3174 922.00
82.6217 870.00
82.9259 883.00
83.2302 818.00
83.5344 793.00
83.8387 820.00
84.143 784.00
84.4472 793.00
84.7515 847.00
85.0557 838.00
85.36 846.00
85.6643 792.00
85.9685 860.00
86.2728 922.00
86.577 1061.00
86.8813 1041.00
87.1856 964.00
87.4898 900.00
87.7941 841.00
88.0983 858.00
88.4026 862.00
88.7069 910.00
89.0111 838.00
89.3154 865.00
89.6196 851.00
89.9239 884.00
90.2282 935.00
90.5324 915.00
90.8367 849.00
91.1409 780.00
91.4452 808.00
91.7495 878.00
92.0537 823.00
92.358 854.00
92.6622 847.00
92.9665 953.00
93.2708 982.00
93.575 875.00
93.8793 826.00
94.1835 800.00
94.4878 790.00
94.7921 783.00
95.0963 866.00
95.4006 983.00
95.7048 906.00
96.0091 886.00
96.3134 815.00
96.6176 843.00
96.9219 801.00
97.2261 807.00
97.5304 841.00
97.8347 827.00
98.1389 837.00
98.4432 857.00
98.7474 808.00
99.0517 880.00
99.356 926.00
99.6602 1059.00
99.9645 1097.00
100.095 1154.00