File: data/xrd_creation/results/NSC_37.xy
9.903433 3118.00
10.2077 2993.00
10.512 2903.00
10.8162 2889.00
11.1205 2762.00
11.4247 2672.00
11.729 2705.00
12.0333 2565.00
12.3375 2455.00
12.6418 2601.00
12.946 2726.00
13.2503 2576.00
13.5546 2400.00
13.8588 2844.00
14.1631 3048.00
14.4673 2414.00
14.7716 2409.00
15.0759 2414.00
15.3801 2401.00
15.6844 2332.00
15.9886 2222.00
16.2929 2276.00
16.5972 2251.00
16.9014 2196.00
17.2057 2211.00
17.5099 2285.00
17.8142 2405.00
18.1185 2149.00
18.4227 1997.00
18.727 2167.00
19.0312 2229.00
19.3355 2493.00
19.6398 4810.00
19.944 5268.00
20.2483 2440.00
20.5525 2137.00
20.8568 2269.00
21.1611 2225.00
21.4653 2142.00
21.7696 2976.00
22.0738 2469.00
22.3781 2041.00
22.6824 2054.00
22.9866 2163.00
23.2909 3574.00
23.5951 2038.00
23.8994 1984.00
24.2037 2090.00
24.5079 2168.00
24.8122 2430.00
25.1164 1825.00
25.4207 1834.00
25.725 1822.00
26.0292 1776.00
26.3335 1805.00
26.6378 1751.00
26.942 1688.00
27.2463 1797.00
27.5505 1833.00
27.8548 2467.00
28.1591 3097.00
28.4633 6466.00
28.7676 2267.00
29.0718 1887.00
29.3761 1824.00
29.6804 1710.00
29.9846 1761.00
30.2889 1829.00
30.5931 2308.00
30.8974 14552.00
31.2017 5791.00
31.5059 2931.00
31.8102 5354.00
32.1144 1835.00
32.4187 1722.00
32.723 1643.00
33.0272 1584.00
33.3315 1636.00
33.6357 1585.00
33.94 1667.00
34.2443 2089.00
34.5485 4507.00
34.8528 3390.00
35.157 1712.00
35.4613 2019.00
35.7656 4996.00
36.0698 1602.00
36.3741 1477.00
36.6783 1349.00
36.9826 1342.00
37.2869 1403.00
37.5911 1394.00
37.8954 1615.00
38.1996 1307.00
38.5039 1345.00
38.8082 1473.00
39.1124 1364.00
39.4167 1350.00
39.7209 1396.00
40.0252 1352.00
40.3295 1415.00
40.6337 1288.00
40.938 1558.00
41.2422 1638.00
41.5465 1616.00
41.8508 1675.00
42.155 2106.00
42.4593 1560.00
42.7635 1388.00
43.0678 1318.00
43.3721 1232.00
43.6763 1271.00
43.9806 1343.00
44.2849 1385.00
44.5891 1512.00
44.8934 1714.00
45.1976 1842.00
45.5019 1450.00
45.8062 1755.00
46.1104 1776.00
46.4147 1440.00
46.7189 1549.00
47.0232 2109.00
47.3275 2098.00
47.6317 1453.00
47.936 1229.00
48.2402 1301.00
48.5445 1388.00
48.8488 1307.00
49.153 1363.00
49.4573 1852.00
49.7615 1657.00
50.0658 1330.00
50.3701 2050.00
50.6743 1906.00
50.9786 2152.00
51.2828 5119.00
51.5871 1793.00
51.8914 1383.00
52.1956 1243.00
52.4999 1266.00
52.8041 1275.00
53.1084 1337.00
53.4127 1373.00
53.7169 1622.00
54.0212 1929.00
54.3254 2032.00
54.6297 1355.00
54.934 1304.00
55.2382 1238.00
55.5425 1750.00
55.8467 1707.00
56.151 1497.00
56.4553 1537.00
56.7595 1209.00
57.0638 1217.00
57.368 1435.00
57.6723 1363.00
57.9766 1247.00
58.2808 1458.00
58.5851 1402.00
58.8893 1322.00
59.1936 1474.00
59.4979 1859.00
59.8021 1792.00
60.1064 1824.00
60.4106 1629.00
60.7149 1509.00
61.0192 2722.00
61.3234 1449.00
61.6277 1607.00
61.932 1400.00
62.2362 1625.00
62.5405 1552.00
62.8447 1395.00
63.149 1592.00
63.4533 1253.00
63.7575 1207.00
64.0618 1339.00
64.366 1222.00
64.6703 1205.00
64.9745 1143.00
65.2788 1384.00
65.5831 1365.00
65.8873 1533.00
66.1916 1403.00
66.4959 1209.00
66.8001 1329.00
67.1044 1324.00
67.4086 1117.00
67.7129 1089.00
68.0172 1054.00
68.3214 1286.00
68.6257 1072.00
68.9299 1147.00
69.2342 1309.00
69.5385 1208.00
69.8427 1175.00
70.147 1158.00
70.4512 1037.00
70.7555 1065.00
71.0598 1089.00
71.364 1245.00
71.6683 1107.00
71.9725 1068.00
72.2768 1149.00
72.5811 1212.00
72.8853 1202.00
73.1896 1107.00
73.4938 1112.00
73.7981 1140.00
74.1024 1291.00
74.4066 1095.00
74.7109 1080.00
75.0151 1093.00
75.3194 1402.00
75.6237 1243.00
75.9279 1139.00
76.2322 1086.00
76.5364 1215.00
76.8407 1265.00
77.145 1097.00
77.4492 1102.00
77.7535 1132.00
78.0577 1167.00
78.362 1084.00
78.6663 1013.00
78.9705 1016.00
79.2748 1156.00
79.579 1124.00
79.8833 944.00
80.1876 1035.00
80.4918 1133.00
80.7961 1185.00
81.1003 1113.00
81.4046 1132.00
81.7089 1056.00
82.0131 1210.00
82.3174 1243.00
82.6217 1087.00
82.9259 1102.00
83.2302 1263.00
83.5344 1298.00
83.8387 1105.00
84.143 1032.00
84.4472 1065.00
84.7515 1057.00
85.0557 1034.00
85.36 1017.00
85.6643 978.00
85.9685 1152.00
86.2728 1242.00
86.577 1029.00
86.8813 1117.00
87.1856 1061.00
87.4898 1219.00
87.7941 1119.00
88.0983 1110.00
88.4026 1158.00
88.7069 1199.00
89.0111 1096.00
89.3154 1061.00
89.6196 1016.00
89.9239 1164.00
90.2282 1200.00
90.5324 1139.00
90.8367 1022.00
91.1409 1057.00
91.4452 1059.00
91.7495 1007.00
92.0537 951.00
92.358 1056.00
92.6622 1121.00
92.9665 1094.00
93.2708 1001.00
93.575 1063.00
93.8793 1112.00
94.1835 1124.00
94.4878 1002.00
94.7921 1025.00
95.0963 1080.00
95.4006 1154.00
95.7048 1068.00
96.0091 1010.00
96.3134 1147.00
96.6176 1279.00
96.9219 1306.00
97.2261 1110.00
97.5304 1020.00
97.8347 1081.00
98.1389 1112.00
98.4432 1072.00
98.7474 1024.00
99.0517 1068.00
99.356 1193.00
99.6602 1110.00
99.9645 1003.00
100.095 1064.00