File: data/xrd_creation/results/NSC_73.xy
9.903433 2599.00
10.2077 2454.00
10.512 2369.00
10.8162 2285.00
11.1205 2119.00
11.4247 2064.00
11.729 1983.00
12.0333 1901.00
12.3375 1776.00
12.6418 1683.00
12.946 1777.00
13.2503 1662.00
13.5546 1612.00
13.8588 1557.00
14.1631 1513.00
14.4673 1509.00
14.7716 1385.00
15.0759 1357.00
15.3801 1416.00
15.6844 1411.00
15.9886 1307.00
16.2929 1258.00
16.5972 1259.00
16.9014 1259.00
17.2057 1237.00
17.5099 1123.00
17.8142 1156.00
18.1185 1132.00
18.4227 1079.00
18.727 1090.00
19.0312 1076.00
19.3355 1046.00
19.6398 955.00
19.944 1170.00
20.2483 997.00
20.5525 1036.00
20.8568 1642.00
21.1611 1573.00
21.4653 947.00
21.7696 934.00
22.0738 883.00
22.3781 880.00
22.6824 891.00
22.9866 829.00
23.2909 906.00
23.5951 861.00
23.8994 893.00
24.2037 773.00
24.5079 782.00
24.8122 757.00
25.1164 861.00
25.4207 758.00
25.725 730.00
26.0292 684.00
26.3335 743.00
26.6378 771.00
26.942 681.00
27.2463 625.00
27.5505 649.00
27.8548 614.00
28.1591 659.00
28.4633 672.00
28.7676 632.00
29.0718 646.00
29.3761 642.00
29.6804 600.00
29.9846 610.00
30.2889 586.00
30.5931 591.00
30.8974 592.00
31.2017 513.00
31.5059 578.00
31.8102 606.00
32.1144 641.00
32.4187 669.00
32.723 569.00
33.0272 656.00
33.3315 553.00
33.6357 506.00
33.94 490.00
34.2443 706.00
34.5485 737.00
34.8528 753.00
35.157 598.00
35.4613 471.00
35.7656 486.00
36.0698 457.00
36.3741 470.00
36.6783 537.00
36.9826 410.00
37.2869 416.00
37.5911 411.00
37.8954 410.00
38.1996 414.00
38.5039 411.00
38.8082 401.00
39.1124 374.00
39.4167 405.00
39.7209 395.00
40.0252 448.00
40.3295 386.00
40.6337 467.00
40.938 421.00
41.2422 378.00
41.5465 363.00
41.8508 356.00
42.155 353.00
42.4593 381.00
42.7635 367.00
43.0678 374.00
43.3721 384.00
43.6763 375.00
43.9806 323.00
44.2849 360.00
44.5891 401.00
44.8934 360.00
45.1976 320.00
45.5019 317.00
45.8062 357.00
46.1104 358.00
46.4147 338.00
46.7189 307.00
47.0232 324.00
47.3275 337.00
47.6317 287.00
47.936 299.00
48.2402 307.00
48.5445 296.00
48.8488 299.00
49.153 305.00
49.4573 294.00
49.7615 322.00
50.0658 356.00
50.3701 312.00
50.6743 322.00
50.9786 295.00
51.2828 299.00
51.5871 304.00
51.8914 335.00
52.1956 270.00
52.4999 267.00
52.8041 307.00
53.1084 269.00
53.4127 285.00
53.7169 273.00
54.0212 271.00
54.3254 267.00
54.6297 272.00
54.934 291.00
55.2382 258.00
55.5425 238.00
55.8467 244.00
56.151 241.00
56.4553 243.00
56.7595 267.00
57.0638 256.00
57.368 203.00
57.6723 265.00
57.9766 244.00
58.2808 257.00
58.5851 257.00
58.8893 249.00
59.1936 222.00
59.4979 195.00
59.8021 220.00
60.1064 244.00
60.4106 241.00
60.7149 240.00
61.0192 245.00
61.3234 230.00
61.6277 226.00
61.932 238.00
62.2362 264.00
62.5405 204.00
62.8447 203.00
63.149 238.00
63.4533 198.00
63.7575 222.00
64.0618 223.00
64.366 208.00
64.6703 195.00
64.9745 213.00
65.2788 234.00
65.5831 223.00
65.8873 214.00
66.1916 221.00
66.4959 227.00
66.8001 233.00
67.1044 238.00
67.4086 236.00
67.7129 237.00
68.0172 201.00
68.3214 201.00
68.6257 212.00
68.9299 211.00
69.2342 185.00
69.5385 213.00
69.8427 223.00
70.147 211.00
70.4512 193.00
70.7555 210.00
71.0598 192.00
71.364 189.00
71.6683 223.00
71.9725 199.00
72.2768 223.00
72.5811 235.00
72.8853 212.00
73.1896 225.00
73.4938 195.00
73.7981 206.00
74.1024 204.00
74.4066 239.00
74.7109 227.00
75.0151 222.00
75.3194 227.00
75.6237 222.00
75.9279 206.00
76.2322 215.00
76.5364 233.00
76.8407 230.00
77.145 249.00
77.4492 207.00
77.7535 217.00
78.0577 238.00
78.362 213.00
78.6663 245.00
78.9705 240.00
79.2748 225.00
79.579 183.00
79.8833 240.00
80.1876 258.00
80.4918 239.00
80.7961 241.00
81.1003 218.00
81.4046 219.00
81.7089 244.00
82.0131 218.00
82.3174 233.00
82.6217 231.00
82.9259 231.00
83.2302 222.00
83.5344 229.00
83.8387 242.00
84.143 249.00
84.4472 258.00
84.7515 274.00
85.0557 228.00
85.36 214.00
85.6643 208.00
85.9685 214.00
86.2728 234.00
86.577 205.00
86.8813 231.00
87.1856 214.00
87.4898 203.00
87.7941 238.00
88.0983 236.00
88.4026 258.00
88.7069 206.00
89.0111 193.00
89.3154 199.00
89.6196 207.00
89.9239 189.00
90.2282 162.00
90.5324 202.00
90.8367 240.00
91.1409 214.00
91.4452 181.00
91.7495 187.00
92.0537 211.00
92.358 181.00
92.6622 227.00
92.9665 202.00
93.2708 192.00
93.575 221.00
93.8793 225.00
94.1835 206.00
94.4878 194.00
94.7921 208.00
95.0963 212.00
95.4006 228.00
95.7048 172.00
96.0091 199.00
96.3134 193.00
96.6176 197.00
96.9219 198.00
97.2261 173.00
97.5304 199.00
97.8347 217.00
98.1389 203.00
98.4432 216.00
98.7474 214.00
99.0517 169.00
99.356 228.00
99.6602 199.00
99.9645 213.00
100.095 187.00