File: data/xrd_creation/results/NSC_14.xy
9.903433 3118.00
10.2077 2866.00
10.512 2864.00
10.8162 2805.00
11.1205 2728.00
11.4247 2729.00
11.729 2576.00
12.0333 2584.00
12.3375 2681.00
12.6418 2349.00
12.946 2383.00
13.2503 2318.00
13.5546 2247.00
13.8588 2422.00
14.1631 3387.00
14.4673 2363.00
14.7716 2246.00
15.0759 2169.00
15.3801 2124.00
15.6844 2132.00
15.9886 2164.00
16.2929 2156.00
16.5972 2121.00
16.9014 2136.00
17.2057 2058.00
17.5099 2146.00
17.8142 2117.00
18.1185 2116.00
18.4227 2130.00
18.727 1980.00
19.0312 2082.00
19.3355 2644.00
19.6398 6332.00
19.944 2718.00
20.2483 4541.00
20.5525 4666.00
20.8568 2229.00
21.1611 2016.00
21.4653 2030.00
21.7696 1974.00
22.0738 2021.00
22.3781 2028.00
22.6824 2085.00
22.9866 2477.00
23.2909 2906.00
23.5951 9342.00
23.8994 2283.00
24.2037 2254.00
24.5079 2078.00
24.8122 2136.00
25.1164 1823.00
25.4207 1765.00
25.725 1802.00
26.0292 1802.00
26.3335 1723.00
26.6378 1724.00
26.942 1739.00
27.2463 1798.00
27.5505 1737.00
27.8548 1893.00
28.1591 2986.00
28.4633 8656.00
28.7676 2098.00
29.0718 1764.00
29.3761 1762.00
29.6804 1712.00
29.9846 1769.00
30.2889 1794.00
30.5931 1885.00
30.8974 2275.00
31.2017 6038.00
31.5059 5477.00
31.8102 3563.00
32.1144 1714.00
32.4187 1738.00
32.723 1517.00
33.0272 1797.00
33.3315 1636.00
33.6357 1768.00
33.94 1884.00
34.2443 2881.00
34.5485 2079.00
34.8528 2115.00
35.157 3177.00
35.4613 4423.00
35.7656 2352.00
36.0698 1655.00
36.3741 1428.00
36.6783 1469.00
36.9826 1436.00
37.2869 1556.00
37.5911 1374.00
37.8954 1463.00
38.1996 1451.00
38.5039 1429.00
38.8082 1640.00
39.1124 1472.00
39.4167 1424.00
39.7209 1790.00
40.0252 1421.00
40.3295 1391.00
40.6337 1487.00
40.938 1889.00
41.2422 2147.00
41.5465 2053.00
41.8508 1604.00
42.155 1613.00
42.4593 1422.00
42.7635 1564.00
43.0678 2295.00
43.3721 1502.00
43.6763 1500.00
43.9806 1411.00
44.2849 1373.00
44.5891 1571.00
44.8934 2719.00
45.1976 1859.00
45.5019 1515.00
45.8062 1992.00
46.1104 2125.00
46.4147 1686.00
46.7189 1993.00
47.0232 1645.00
47.3275 1418.00
47.6317 1728.00
47.936 3551.00
48.2402 1972.00
48.5445 1672.00
48.8488 1537.00
49.153 1545.00
49.4573 1967.00
49.7615 1534.00
50.0658 1608.00
50.3701 2310.00
50.6743 1892.00
50.9786 1975.00
51.2828 3123.00
51.5871 1960.00
51.8914 1589.00
52.1956 1372.00
52.4999 1406.00
52.8041 1390.00
53.1084 1366.00
53.4127 1387.00
53.7169 1376.00
54.0212 1800.00
54.3254 2184.00
54.6297 1548.00
54.934 1904.00
55.2382 2819.00
55.5425 3216.00
55.8467 1870.00
56.151 1610.00
56.4553 1452.00
56.7595 1479.00
57.0638 1409.00
57.368 1556.00
57.6723 1518.00
57.9766 1576.00
58.2808 1794.00
58.5851 1667.00
58.8893 1445.00
59.1936 1445.00
59.4979 1542.00
59.8021 2207.00
60.1064 2026.00
60.4106 1581.00
60.7149 1782.00
61.0192 2458.00
61.3234 1591.00
61.6277 1545.00
61.932 1640.00
62.2362 1972.00
62.5405 1584.00
62.8447 1597.00
63.149 1736.00
63.4533 1865.00
63.7575 1771.00
64.0618 1539.00
64.366 1377.00
64.6703 1379.00
64.9745 1462.00
65.2788 1428.00
65.5831 1450.00
65.8873 1834.00
66.1916 1746.00
66.4959 1393.00
66.8001 1405.00
67.1044 1550.00
67.4086 1446.00
67.7129 1625.00
68.0172 1386.00
68.3214 1297.00
68.6257 1409.00
68.9299 1461.00
69.2342 1377.00
69.5385 1224.00
69.8427 1227.00
70.147 1259.00
70.4512 1230.00
70.7555 1579.00
71.0598 1634.00
71.364 1532.00
71.6683 1371.00
71.9725 1362.00
72.2768 1281.00
72.5811 1282.00
72.8853 1282.00
73.1896 1273.00
73.4938 1488.00
73.7981 1413.00
74.1024 1323.00
74.4066 1301.00
74.7109 1611.00
75.0151 1658.00
75.3194 1550.00
75.6237 1419.00
75.9279 1363.00
76.2322 1204.00
76.5364 1326.00
76.8407 1306.00
77.145 1303.00
77.4492 1289.00
77.7535 1251.00
78.0577 1321.00
78.362 1443.00
78.6663 1585.00
78.9705 1398.00
79.2748 1446.00
79.579 1175.00
79.8833 1253.00
80.1876 1294.00
80.4918 1396.00
80.7961 1458.00
81.1003 1365.00
81.4046 1273.00
81.7089 1191.00
82.0131 1250.00
82.3174 1273.00
82.6217 1319.00
82.9259 1351.00
83.2302 1479.00
83.5344 1428.00
83.8387 1279.00
84.143 1243.00
84.4472 1331.00
84.7515 1435.00
85.0557 1380.00
85.36 1338.00
85.6643 1356.00
85.9685 1292.00
86.2728 1347.00
86.577 1294.00
86.8813 1272.00
87.1856 1255.00
87.4898 1322.00
87.7941 1459.00
88.0983 1424.00
88.4026 1304.00
88.7069 1333.00
89.0111 1410.00
89.3154 1570.00
89.6196 1466.00
89.9239 1346.00
90.2282 1252.00
90.5324 1233.00
90.8367 1278.00
91.1409 1308.00
91.4452 1380.00
91.7495 1280.00
92.0537 1249.00
92.358 1289.00
92.6622 1237.00
92.9665 1184.00
93.2708 1275.00
93.575 1297.00
93.8793 1340.00
94.1835 1269.00
94.4878 1344.00
94.7921 1378.00
95.0963 1400.00
95.4006 1312.00
95.7048 1408.00
96.0091 1417.00
96.3134 1414.00
96.6176 1392.00
96.9219 1365.00
97.2261 1202.00
97.5304 1209.00
97.8347 1121.00
98.1389 1242.00
98.4432 1246.00
98.7474 1347.00
99.0517 1326.00
99.356 1333.00
99.6602 1377.00
99.9645 1454.00
100.095 1302.00