File: data/xrd_creation/results/NSC_194.xy
9.903433 2816.00
10.2077 2763.00
10.512 2800.00
10.8162 2603.00
11.1205 2515.00
11.4247 2431.00
11.729 2436.00
12.0333 2425.00
12.3375 2758.00
12.6418 2266.00
12.946 2037.00
13.2503 2254.00
13.5546 2196.00
13.8588 2622.00
14.1631 2168.00
14.4673 2133.00
14.7716 2481.00
15.0759 2659.00
15.3801 2133.00
15.6844 1968.00
15.9886 1968.00
16.2929 2063.00
16.5972 1942.00
16.9014 2058.00
17.2057 2561.00
17.5099 2033.00
17.8142 2484.00
18.1185 1935.00
18.4227 1805.00
18.727 1765.00
19.0312 1833.00
19.3355 2410.00
19.6398 12456.00
19.944 3550.00
20.2483 1938.00
20.5525 1896.00
20.8568 1940.00
21.1611 2010.00
21.4653 2350.00
21.7696 2123.00
22.0738 1857.00
22.3781 1992.00
22.6824 2773.00
22.9866 2817.00
23.2909 1745.00
23.5951 1569.00
23.8994 1679.00
24.2037 2050.00
24.5079 3388.00
24.8122 2687.00
25.1164 1887.00
25.4207 1798.00
25.725 1582.00
26.0292 1670.00
26.3335 1512.00
26.6378 1528.00
26.942 1964.00
27.2463 1877.00
27.5505 1867.00
27.8548 5111.00
28.1591 2279.00
28.4633 7664.00
28.7676 7893.00
29.0718 2023.00
29.3761 1758.00
29.6804 4634.00
29.9846 1709.00
30.2889 2347.00
30.5931 1763.00
30.8974 2409.00
31.2017 6682.00
31.5059 3674.00
31.8102 7237.00
32.1144 4493.00
32.4187 1913.00
32.723 1692.00
33.0272 1826.00
33.3315 2207.00
33.6357 1850.00
33.94 2526.00
34.2443 9600.00
34.5485 5611.00
34.8528 3453.00
35.157 3975.00
35.4613 1923.00
35.7656 3486.00
36.0698 1865.00
36.3741 1958.00
36.6783 1418.00
36.9826 1456.00
37.2869 1379.00
37.5911 2425.00
37.8954 1229.00
38.1996 1200.00
38.5039 1316.00
38.8082 1460.00
39.1124 2030.00
39.4167 1465.00
39.7209 1840.00
40.0252 1568.00
40.3295 1289.00
40.6337 1314.00
40.938 1676.00
41.2422 2635.00
41.5465 2631.00
41.8508 1817.00
42.155 1974.00
42.4593 1555.00
42.7635 1308.00
43.0678 1212.00
43.3721 1218.00
43.6763 1201.00
43.9806 1253.00
44.2849 1387.00
44.5891 3198.00
44.8934 1768.00
45.1976 1635.00
45.5019 1540.00
45.8062 1888.00
46.1104 1822.00
46.4147 1480.00
46.7189 2490.00
47.0232 3016.00
47.3275 1539.00
47.6317 1260.00
47.936 1109.00
48.2402 1435.00
48.5445 1701.00
48.8488 1358.00
49.153 1721.00
49.4573 2067.00
49.7615 3053.00
50.0658 1924.00
50.3701 1931.00
50.6743 3331.00
50.9786 2698.00
51.2828 2942.00
51.5871 2184.00
51.8914 1685.00
52.1956 1502.00
52.4999 1786.00
52.8041 1389.00
53.1084 3165.00
53.4127 2171.00
53.7169 1357.00
54.0212 1324.00
54.3254 1589.00
54.6297 2071.00
54.934 1504.00
55.2382 1402.00
55.5425 1672.00
55.8467 2400.00
56.151 2355.00
56.4553 1746.00
56.7595 1650.00
57.0638 1534.00
57.368 1605.00
57.6723 1799.00
57.9766 1815.00
58.2808 1537.00
58.5851 1932.00
58.8893 2204.00
59.1936 3392.00
59.4979 1961.00
59.8021 1405.00
60.1064 1589.00
60.4106 2161.00
60.7149 2321.00
61.0192 2424.00
61.3234 1765.00
61.6277 1546.00
61.932 1735.00
62.2362 1670.00
62.5405 1848.00
62.8447 1793.00
63.149 1890.00
63.4533 1895.00
63.7575 1453.00
64.0618 1163.00
64.366 1362.00
64.6703 1743.00
64.9745 1402.00
65.2788 1237.00
65.5831 1318.00
65.8873 1992.00
66.1916 2309.00
66.4959 2145.00
66.8001 1800.00
67.1044 1249.00
67.4086 1104.00
67.7129 1057.00
68.0172 1325.00
68.3214 1305.00
68.6257 1160.00
68.9299 1107.00
69.2342 1119.00
69.5385 1242.00
69.8427 1253.00
70.147 1073.00
70.4512 1114.00
70.7555 1116.00
71.0598 1145.00
71.364 1628.00
71.6683 1823.00
71.9725 1712.00
72.2768 1338.00
72.5811 1219.00
72.8853 1246.00
73.1896 1222.00
73.4938 1278.00
73.7981 1348.00
74.1024 1218.00
74.4066 1124.00
74.7109 1174.00
75.0151 1383.00
75.3194 1341.00
75.6237 1264.00
75.9279 1312.00
76.2322 1278.00
76.5364 1184.00
76.8407 1302.00
77.145 1253.00
77.4492 1175.00
77.7535 1112.00
78.0577 1169.00
78.362 1203.00
78.6663 1061.00
78.9705 1086.00
79.2748 1110.00
79.579 1238.00
79.8833 1552.00
80.1876 1543.00
80.4918 1328.00
80.7961 1135.00
81.1003 1090.00
81.4046 1194.00
81.7089 1330.00
82.0131 1315.00
82.3174 1326.00
82.6217 1162.00
82.9259 1211.00
83.2302 1213.00
83.5344 1250.00
83.8387 1248.00
84.143 1257.00
84.4472 1270.00
84.7515 1326.00
85.0557 1315.00
85.36 1199.00
85.6643 1112.00
85.9685 1150.00
86.2728 1107.00
86.577 1341.00
86.8813 1311.00
87.1856 1423.00
87.4898 1318.00
87.7941 1170.00
88.0983 1333.00
88.4026 1425.00
88.7069 1429.00
89.0111 1339.00
89.3154 1354.00
89.6196 1349.00
89.9239 1330.00
90.2282 1322.00
90.5324 1280.00
90.8367 1175.00
91.1409 1254.00
91.4452 1206.00
91.7495 1132.00
92.0537 1134.00
92.358 1061.00
92.6622 1103.00
92.9665 1110.00
93.2708 1186.00
93.575 1172.00
93.8793 1108.00
94.1835 1068.00
94.4878 1253.00
94.7921 1298.00
95.0963 1261.00
95.4006 1170.00
95.7048 1183.00
96.0091 1254.00
96.3134 1258.00
96.6176 1147.00
96.9219 1256.00
97.2261 1271.00
97.5304 1317.00
97.8347 1308.00
98.1389 1168.00
98.4432 1139.00
98.7474 1200.00
99.0517 1291.00
99.356 1464.00
99.6602 1565.00
99.9645 1602.00
100.095 1555.00