File: data/xrd_creation/results/NSC_134.xy
9.903433 2776.00
10.2077 2586.00
10.512 2505.00
10.8162 2405.00
11.1205 2322.00
11.4247 2315.00
11.729 2255.00
12.0333 2137.00
12.3375 2160.00
12.6418 1995.00
12.946 1968.00
13.2503 1952.00
13.5546 1969.00
13.8588 1897.00
14.1631 1931.00
14.4673 2110.00
14.7716 3667.00
15.0759 2139.00
15.3801 1830.00
15.6844 1711.00
15.9886 1809.00
16.2929 1743.00
16.5972 1662.00
16.9014 1708.00
17.2057 1727.00
17.5099 1599.00
17.8142 1642.00
18.1185 1573.00
18.4227 1634.00
18.727 1661.00
19.0312 2984.00
19.3355 1623.00
19.6398 1585.00
19.944 1710.00
20.2483 3756.00
20.5525 5766.00
20.8568 2420.00
21.1611 5182.00
21.4653 5773.00
21.7696 3061.00
22.0738 5333.00
22.3781 1541.00
22.6824 1460.00
22.9866 1459.00
23.2909 1414.00
23.5951 1366.00
23.8994 1524.00
24.2037 2383.00
24.5079 8097.00
24.8122 4910.00
25.1164 1819.00
25.4207 1368.00
25.725 1285.00
26.0292 1342.00
26.3335 1292.00
26.6378 1328.00
26.942 2909.00
27.2463 1239.00
27.5505 1172.00
27.8548 1283.00
28.1591 1156.00
28.4633 1208.00
28.7676 1248.00
29.0718 1464.00
29.3761 2878.00
29.6804 4194.00
29.9846 1893.00
30.2889 1205.00
30.5931 1116.00
30.8974 1204.00
31.2017 2496.00
31.5059 1185.00
31.8102 1167.00
32.1144 1716.00
32.4187 4714.00
32.723 5419.00
33.0272 2562.00
33.3315 1548.00
33.6357 1142.00
33.94 1031.00
34.2443 1045.00
34.5485 1012.00
34.8528 1061.00
35.157 1131.00
35.4613 1040.00
35.7656 1012.00
36.0698 1147.00
36.3741 1609.00
36.6783 3912.00
36.9826 2570.00
37.2869 2361.00
37.5911 1499.00
37.8954 1159.00
38.1996 1108.00
38.5039 1122.00
38.8082 960.00
39.1124 1000.00
39.4167 951.00
39.7209 904.00
40.0252 1082.00
40.3295 913.00
40.6337 871.00
40.938 1012.00
41.2422 1108.00
41.5465 1012.00
41.8508 877.00
42.155 877.00
42.4593 894.00
42.7635 1178.00
43.0678 1327.00
43.3721 1130.00
43.6763 1012.00
43.9806 1021.00
44.2849 954.00
44.5891 1286.00
44.8934 1312.00
45.1976 1186.00
45.5019 1023.00
45.8062 1064.00
46.1104 1072.00
46.4147 1177.00
46.7189 1604.00
47.0232 1492.00
47.3275 1161.00
47.6317 1132.00
47.936 1256.00
48.2402 1464.00
48.5445 1554.00
48.8488 1349.00
49.153 1058.00
49.4573 1140.00
49.7615 1700.00
50.0658 2796.00
50.3701 1783.00
50.6743 1308.00
50.9786 1124.00
51.2828 996.00
51.5871 916.00
51.8914 759.00
52.1956 789.00
52.4999 877.00
52.8041 1054.00
53.1084 1325.00
53.4127 1598.00
53.7169 1381.00
54.0212 1136.00
54.3254 1010.00
54.6297 875.00
54.934 968.00
55.2382 1293.00
55.5425 908.00
55.8467 893.00
56.151 911.00
56.4553 1120.00
56.7595 1074.00
57.0638 1182.00
57.368 1279.00
57.6723 1561.00
57.9766 1650.00
58.2808 1531.00
58.5851 1481.00
58.8893 1753.00
59.1936 1154.00
59.4979 929.00
59.8021 918.00
60.1064 955.00
60.4106 954.00
60.7149 928.00
61.0192 969.00
61.3234 942.00
61.6277 845.00
61.932 944.00
62.2362 1196.00
62.5405 1227.00
62.8447 1038.00
63.149 1013.00
63.4533 1219.00
63.7575 1183.00
64.0618 1299.00
64.366 1312.00
64.6703 1401.00
64.9745 1148.00
65.2788 968.00
65.5831 961.00
65.8873 927.00
66.1916 1037.00
66.4959 1102.00
66.8001 1105.00
67.1044 984.00
67.4086 916.00
67.7129 994.00
68.0172 1076.00
68.3214 989.00
68.6257 986.00
68.9299 1208.00
69.2342 977.00
69.5385 916.00
69.8427 799.00
70.147 796.00
70.4512 860.00
70.7555 875.00
71.0598 924.00
71.364 776.00
71.6683 772.00
71.9725 773.00
72.2768 769.00
72.5811 771.00
72.8853 782.00
73.1896 764.00
73.4938 890.00
73.7981 819.00
74.1024 865.00
74.4066 878.00
74.7109 853.00
75.0151 873.00
75.3194 774.00
75.6237 792.00
75.9279 775.00
76.2322 822.00
76.5364 871.00
76.8407 860.00
77.145 892.00
77.4492 858.00
77.7535 876.00
78.0577 888.00
78.362 884.00
78.6663 866.00
78.9705 815.00
79.2748 837.00
79.579 777.00
79.8833 742.00
80.1876 747.00
80.4918 776.00
80.7961 758.00
81.1003 688.00
81.4046 746.00
81.7089 817.00
82.0131 741.00
82.3174 830.00
82.6217 807.00
82.9259 781.00
83.2302 780.00
83.5344 763.00
83.8387 766.00
84.143 764.00
84.4472 803.00
84.7515 881.00
85.0557 708.00
85.36 763.00
85.6643 791.00
85.9685 807.00
86.2728 745.00
86.577 701.00
86.8813 706.00
87.1856 733.00
87.4898 772.00
87.7941 761.00
88.0983 769.00
88.4026 749.00
88.7069 794.00
89.0111 831.00
89.3154 881.00
89.6196 856.00
89.9239 889.00
90.2282 813.00
90.5324 778.00
90.8367 704.00
91.1409 754.00
91.4452 718.00
91.7495 681.00
92.0537 753.00
92.358 782.00
92.6622 857.00
92.9665 796.00
93.2708 848.00
93.575 758.00
93.8793 817.00
94.1835 803.00
94.4878 817.00
94.7921 790.00
95.0963 737.00
95.4006 769.00
95.7048 740.00
96.0091 748.00
96.3134 746.00
96.6176 755.00
96.9219 747.00
97.2261 718.00
97.5304 737.00
97.8347 713.00
98.1389 785.00
98.4432 739.00
98.7474 766.00
99.0517 775.00
99.356 786.00
99.6602 767.00
99.9645 738.00
100.095 803.00