File: data/xrd_creation/results/NSC_109.xy
9.903433 2778.00
10.2077 2667.00
10.512 2583.00
10.8162 2482.00
11.1205 2373.00
11.4247 2256.00
11.729 2157.00
12.0333 2148.00
12.3375 2122.00
12.6418 2005.00
12.946 1953.00
13.2503 1932.00
13.5546 1931.00
13.8588 1855.00
14.1631 1945.00
14.4673 2595.00
14.7716 2035.00
15.0759 1750.00
15.3801 1717.00
15.6844 1584.00
15.9886 1615.00
16.2929 1609.00
16.5972 1567.00
16.9014 1556.00
17.2057 1552.00
17.5099 1614.00
17.8142 1525.00
18.1185 1450.00
18.4227 1424.00
18.727 1439.00
19.0312 1449.00
19.3355 1283.00
19.6398 1633.00
19.944 3271.00
20.2483 5002.00
20.5525 1550.00
20.8568 2450.00
21.1611 17979.00
21.4653 1559.00
21.7696 1347.00
22.0738 1393.00
22.3781 1206.00
22.6824 1296.00
22.9866 1173.00
23.2909 1174.00
23.5951 1218.00
23.8994 1370.00
24.2037 4547.00
24.5079 1332.00
24.8122 1143.00
25.1164 1060.00
25.4207 1075.00
25.725 967.00
26.0292 1038.00
26.3335 1021.00
26.6378 965.00
26.942 892.00
27.2463 962.00
27.5505 915.00
27.8548 960.00
28.1591 927.00
28.4633 961.00
28.7676 903.00
29.0718 2314.00
29.3761 1931.00
29.6804 929.00
29.9846 843.00
30.2889 829.00
30.5931 805.00
30.8974 849.00
31.2017 820.00
31.5059 952.00
31.8102 1266.00
32.1144 17216.00
32.4187 1179.00
32.723 1533.00
33.0272 777.00
33.3315 849.00
33.6357 710.00
33.94 787.00
34.2443 796.00
34.5485 1054.00
34.8528 710.00
35.157 712.00
35.4613 716.00
35.7656 773.00
36.0698 1471.00
36.3741 1621.00
36.6783 2468.00
36.9826 1185.00
37.2869 744.00
37.5911 682.00
37.8954 657.00
38.1996 599.00
38.5039 597.00
38.8082 1060.00
39.1124 584.00
39.4167 589.00
39.7209 613.00
40.0252 564.00
40.3295 646.00
40.6337 1876.00
40.938 587.00
41.2422 578.00
41.5465 570.00
41.8508 607.00
42.155 1185.00
42.4593 928.00
42.7635 1602.00
43.0678 552.00
43.3721 620.00
43.6763 565.00
43.9806 571.00
44.2849 3372.00
44.5891 716.00
44.8934 597.00
45.1976 795.00
45.5019 570.00
45.8062 577.00
46.1104 3914.00
46.4147 649.00
46.7189 481.00
47.0232 558.00
47.3275 726.00
47.6317 4393.00
47.936 577.00
48.2402 534.00
48.5445 517.00
48.8488 771.00
49.153 788.00
49.4573 5987.00
49.7615 680.00
50.0658 515.00
50.3701 1056.00
50.6743 514.00
50.9786 454.00
51.2828 476.00
51.5871 442.00
51.8914 483.00
52.1956 552.00
52.4999 4997.00
52.8041 686.00
53.1084 464.00
53.4127 642.00
53.7169 480.00
54.0212 469.00
54.3254 404.00
54.6297 509.00
54.934 456.00
55.2382 464.00
55.5425 485.00
55.8467 1292.00
56.151 478.00
56.4553 471.00
56.7595 551.00
57.0638 2494.00
57.368 2801.00
57.6723 1090.00
57.9766 469.00
58.2808 418.00
58.5851 501.00
58.8893 779.00
59.1936 1100.00
59.4979 434.00
59.8021 425.00
60.1064 547.00
60.4106 650.00
60.7149 423.00
61.0192 510.00
61.3234 709.00
61.6277 1834.00
61.932 459.00
62.2362 502.00
62.5405 767.00
62.8447 649.00
63.149 1749.00
63.4533 1491.00
63.7575 505.00
64.0618 407.00
64.366 491.00
64.6703 655.00
64.9745 441.00
65.2788 488.00
65.5831 1523.00
65.8873 1452.00
66.1916 843.00
66.4959 606.00
66.8001 363.00
67.1044 409.00
67.4086 775.00
67.7129 1220.00
68.0172 422.00
68.3214 433.00
68.6257 382.00
68.9299 380.00
69.2342 406.00
69.5385 752.00
69.8427 1143.00
70.147 402.00
70.4512 337.00
70.7555 408.00
71.0598 554.00
71.364 657.00
71.6683 502.00
71.9725 358.00
72.2768 409.00
72.5811 367.00
72.8853 353.00
73.1896 389.00
73.4938 867.00
73.7981 1072.00
74.1024 415.00
74.4066 376.00
74.7109 388.00
75.0151 386.00
75.3194 570.00
75.6237 863.00
75.9279 474.00
76.2322 489.00
76.5364 650.00
76.8407 428.00
77.145 318.00
77.4492 392.00
77.7535 1042.00
78.0577 804.00
78.362 445.00
78.6663 352.00
78.9705 374.00
79.2748 598.00
79.579 551.00
79.8833 463.00
80.1876 439.00
80.4918 490.00
80.7961 401.00
81.1003 386.00
81.4046 856.00
81.7089 730.00
82.0131 415.00
82.3174 344.00
82.6217 452.00
82.9259 663.00
83.2302 713.00
83.5344 376.00
83.8387 346.00
84.143 362.00
84.4472 343.00
84.7515 366.00
85.0557 476.00
85.36 483.00
85.6643 355.00
85.9685 355.00
86.2728 432.00
86.577 786.00
86.8813 465.00
87.1856 412.00
87.4898 381.00
87.7941 1023.00
88.0983 932.00
88.4026 489.00
88.7069 525.00
89.0111 490.00
89.3154 381.00
89.6196 339.00
89.9239 324.00
90.2282 343.00
90.5324 648.00
90.8367 548.00
91.1409 554.00
91.4452 409.00
91.7495 427.00
92.0537 432.00
92.358 410.00
92.6622 930.00
92.9665 710.00
93.2708 405.00
93.575 315.00
93.8793 388.00
94.1835 467.00
94.4878 513.00
94.7921 392.00
95.0963 396.00
95.4006 452.00
95.7048 510.00
96.0091 440.00
96.3134 637.00
96.6176 502.00
96.9219 393.00
97.2261 369.00
97.5304 376.00
97.8347 543.00
98.1389 805.00
98.4432 646.00
98.7474 402.00
99.0517 350.00
99.356 348.00
99.6602 361.00
99.9645 656.00
100.095 1072.00