File: data/xrd_creation/results/NSC_4.xy
9.903433 2878.00
10.2077 2843.00
10.512 2782.00
10.8162 2631.00
11.1205 2624.00
11.4247 2567.00
11.729 2462.00
12.0333 2302.00
12.3375 2281.00
12.6418 2189.00
12.946 2182.00
13.2503 2144.00
13.5546 2185.00
13.8588 2205.00
14.1631 2920.00
14.4673 2586.00
14.7716 2135.00
15.0759 2169.00
15.3801 2120.00
15.6844 1944.00
15.9886 1961.00
16.2929 1948.00
16.5972 1952.00
16.9014 1956.00
17.2057 1975.00
17.5099 1961.00
17.8142 2047.00
18.1185 1914.00
18.4227 1905.00
18.727 2133.00
19.0312 2043.00
19.3355 2244.00
19.6398 4637.00
19.944 3938.00
20.2483 3335.00
20.5525 8436.00
20.8568 2762.00
21.1611 1979.00
21.4653 2163.00
21.7696 4858.00
22.0738 2283.00
22.3781 1851.00
22.6824 1813.00
22.9866 1858.00
23.2909 2238.00
23.5951 5820.00
23.8994 4664.00
24.2037 2481.00
24.5079 2231.00
24.8122 1874.00
25.1164 2020.00
25.4207 2065.00
25.725 1700.00
26.0292 1659.00
26.3335 1760.00
26.6378 2314.00
26.942 1657.00
27.2463 1588.00
27.5505 1687.00
27.8548 1694.00
28.1591 2250.00
28.4633 6222.00
28.7676 3225.00
29.0718 1805.00
29.3761 1526.00
29.6804 1522.00
29.9846 1606.00
30.2889 1867.00
30.5931 1845.00
30.8974 2810.00
31.2017 2972.00
31.5059 8291.00
31.8102 3990.00
32.1144 1840.00
32.4187 1593.00
32.723 1476.00
33.0272 1532.00
33.3315 1973.00
33.6357 1526.00
33.94 1820.00
34.2443 1802.00
34.5485 1611.00
34.8528 1743.00
35.157 2364.00
35.4613 3298.00
35.7656 4052.00
36.0698 2300.00
36.3741 2785.00
36.6783 1479.00
36.9826 1395.00
37.2869 1356.00
37.5911 1316.00
37.8954 1457.00
38.1996 1405.00
38.5039 1445.00
38.8082 1376.00
39.1124 1291.00
39.4167 1272.00
39.7209 1749.00
40.0252 1633.00
40.3295 1396.00
40.6337 1330.00
40.938 1566.00
41.2422 1530.00
41.5465 1998.00
41.8508 1659.00
42.155 1524.00
42.4593 1446.00
42.7635 1318.00
43.0678 1593.00
43.3721 2023.00
43.6763 1498.00
43.9806 1551.00
44.2849 1403.00
44.5891 1332.00
44.8934 1763.00
45.1976 2514.00
45.5019 1925.00
45.8062 1590.00
46.1104 1879.00
46.4147 1951.00
46.7189 1831.00
47.0232 1809.00
47.3275 1406.00
47.6317 1397.00
47.936 1839.00
48.2402 3350.00
48.5445 2294.00
48.8488 1645.00
49.153 1453.00
49.4573 1797.00
49.7615 1825.00
50.0658 1371.00
50.3701 1598.00
50.6743 1504.00
50.9786 1614.00
51.2828 1896.00
51.5871 2722.00
51.8914 2024.00
52.1956 1605.00
52.4999 1324.00
52.8041 1379.00
53.1084 1237.00
53.4127 1233.00
53.7169 1237.00
54.0212 1269.00
54.3254 1804.00
54.6297 2042.00
54.934 1746.00
55.2382 1962.00
55.5425 2761.00
55.8467 2827.00
56.151 1987.00
56.4553 1467.00
56.7595 1359.00
57.0638 1369.00
57.368 1431.00
57.6723 1430.00
57.9766 1419.00
58.2808 2259.00
58.5851 1869.00
58.8893 1411.00
59.1936 1248.00
59.4979 1319.00
59.8021 1479.00
60.1064 2122.00
60.4106 1824.00
60.7149 1527.00
61.0192 1554.00
61.3234 2023.00
61.6277 1871.00
61.932 1574.00
62.2362 1634.00
62.5405 1615.00
62.8447 1630.00
63.149 1518.00
63.4533 1427.00
63.7575 1685.00
64.0618 1979.00
64.366 1656.00
64.6703 1408.00
64.9745 1335.00
65.2788 1431.00
65.5831 1435.00
65.8873 1446.00
66.1916 1610.00
66.4959 1596.00
66.8001 1405.00
67.1044 1368.00
67.4086 1537.00
67.7129 1483.00
68.0172 1477.00
68.3214 1524.00
68.6257 1395.00
68.9299 1361.00
69.2342 1360.00
69.5385 1279.00
69.8427 1187.00
70.147 1186.00
70.4512 1294.00
70.7555 1234.00
71.0598 1368.00
71.364 1572.00
71.6683 1413.00
71.9725 1239.00
72.2768 1239.00
72.5811 1250.00
72.8853 1230.00
73.1896 1147.00
73.4938 1274.00
73.7981 1317.00
74.1024 1415.00
74.4066 1368.00
74.7109 1291.00
75.0151 1372.00
75.3194 1567.00
75.6237 1559.00
75.9279 1451.00
76.2322 1201.00
76.5364 1244.00
76.8407 1300.00
77.145 1294.00
77.4492 1307.00
77.7535 1247.00
78.0577 1226.00
78.362 1113.00
78.6663 1250.00
78.9705 1415.00
79.2748 1513.00
79.579 1284.00
79.8833 1285.00
80.1876 1221.00
80.4918 1108.00
80.7961 1164.00
81.1003 1348.00
81.4046 1324.00
81.7089 1268.00
82.0131 1205.00
82.3174 1118.00
82.6217 1163.00
82.9259 1202.00
83.2302 1180.00
83.5344 1272.00
83.8387 1405.00
84.143 1396.00
84.4472 1232.00
84.7515 1263.00
85.0557 1379.00
85.36 1250.00
85.6643 1269.00
85.9685 1303.00
86.2728 1225.00
86.577 1272.00
86.8813 1214.00
87.1856 1188.00
87.4898 1104.00
87.7941 1147.00
88.0983 1180.00
88.4026 1243.00
88.7069 1215.00
89.0111 1248.00
89.3154 1340.00
89.6196 1351.00
89.9239 1420.00
90.2282 1406.00
90.5324 1260.00
90.8367 1243.00
91.1409 1152.00
91.4452 1231.00
91.7495 1281.00
92.0537 1301.00
92.358 1224.00
92.6622 1189.00
92.9665 1214.00
93.2708 1116.00
93.575 1107.00
93.8793 1236.00
94.1835 1271.00
94.4878 1251.00
94.7921 1278.00
95.0963 1255.00
95.4006 1308.00
95.7048 1287.00
96.0091 1260.00
96.3134 1320.00
96.6176 1326.00
96.9219 1322.00
97.2261 1262.00
97.5304 1196.00
97.8347 1229.00
98.1389 1142.00
98.4432 1165.00
98.7474 1138.00
99.0517 1209.00
99.356 1191.00
99.6602 1308.00
99.9645 1271.00
100.095 1291.00