File: data/xrd_creation/results/NSC_9.xy
9.903433 2597.00
10.2077 2632.00
10.512 2426.00
10.8162 2384.00
11.1205 2152.00
11.4247 2162.00
11.729 2124.00
12.0333 1984.00
12.3375 1934.00
12.6418 1985.00
12.946 1793.00
13.2503 1838.00
13.5546 1788.00
13.8588 1721.00
14.1631 1658.00
14.4673 1695.00
14.7716 2058.00
15.0759 2824.00
15.3801 1523.00
15.6844 1542.00
15.9886 1547.00
16.2929 1482.00
16.5972 1450.00
16.9014 1369.00
17.2057 1478.00
17.5099 1583.00
17.8142 1354.00
18.1185 1377.00
18.4227 1488.00
18.727 1709.00
19.0312 1374.00
19.3355 1231.00
19.6398 1367.00
19.944 1379.00
20.2483 1774.00
20.5525 4373.00
20.8568 5412.00
21.1611 1636.00
21.4653 2541.00
21.7696 6345.00
22.0738 4956.00
22.3781 1448.00
22.6824 1275.00
22.9866 1226.00
23.2909 1265.00
23.5951 1367.00
23.8994 1246.00
24.2037 1684.00
24.5079 1550.00
24.8122 1799.00
25.1164 6107.00
25.4207 4126.00
25.725 3618.00
26.0292 8645.00
26.3335 2085.00
26.6378 1826.00
26.942 1327.00
27.2463 1170.00
27.5505 1034.00
27.8548 1030.00
28.1591 1148.00
28.4633 1229.00
28.7676 1140.00
29.0718 1022.00
29.3761 1100.00
29.6804 1084.00
29.9846 1384.00
30.2889 4065.00
30.5931 2813.00
30.8974 1513.00
31.2017 1237.00
31.5059 1217.00
31.8102 960.00
32.1144 921.00
32.4187 1005.00
32.723 1063.00
33.0272 2501.00
33.3315 7393.00
33.6357 1889.00
33.94 1807.00
34.2443 1282.00
34.5485 983.00
34.8528 998.00
35.157 944.00
35.4613 1062.00
35.7656 1418.00
36.0698 2047.00
36.3741 1616.00
36.6783 1062.00
36.9826 897.00
37.2869 948.00
37.5911 1415.00
37.8954 2187.00
38.1996 3502.00
38.5039 3240.00
38.8082 1087.00
39.1124 930.00
39.4167 1557.00
39.7209 1474.00
40.0252 865.00
40.3295 1032.00
40.6337 1216.00
40.938 874.00
41.2422 833.00
41.5465 1082.00
41.8508 2203.00
42.155 1303.00
42.4593 1020.00
42.7635 795.00
43.0678 756.00
43.3721 790.00
43.6763 913.00
43.9806 1350.00
44.2849 905.00
44.5891 1003.00
44.8934 1058.00
45.1976 1059.00
45.5019 787.00
45.8062 792.00
46.1104 1223.00
46.4147 1493.00
46.7189 871.00
47.0232 826.00
47.3275 964.00
47.6317 917.00
47.936 1563.00
48.2402 2132.00
48.5445 1722.00
48.8488 1910.00
49.153 954.00
49.4573 1502.00
49.7615 2250.00
50.0658 1117.00
50.3701 816.00
50.6743 946.00
50.9786 1014.00
51.2828 978.00
51.5871 2058.00
51.8914 2346.00
52.1956 914.00
52.4999 831.00
52.8041 1006.00
53.1084 1016.00
53.4127 1236.00
53.7169 911.00
54.0212 746.00
54.3254 842.00
54.6297 1399.00
54.934 2150.00
55.2382 1038.00
55.5425 868.00
55.8467 1145.00
56.151 964.00
56.4553 831.00
56.7595 782.00
57.0638 744.00
57.368 819.00
57.6723 692.00
57.9766 836.00
58.2808 1539.00
58.5851 1965.00
58.8893 2061.00
59.1936 1171.00
59.4979 1017.00
59.8021 1685.00
60.1064 1778.00
60.4106 2056.00
60.7149 1040.00
61.0192 749.00
61.3234 948.00
61.6277 1341.00
61.932 1340.00
62.2362 850.00
62.5405 731.00
62.8447 773.00
63.149 1074.00
63.4533 861.00
63.7575 722.00
64.0618 984.00
64.366 1648.00
64.6703 1259.00
64.9745 873.00
65.2788 1089.00
65.5831 1272.00
65.8873 2203.00
66.1916 3269.00
66.4959 1999.00
66.8001 1092.00
67.1044 1337.00
67.4086 972.00
67.7129 840.00
68.0172 826.00
68.3214 821.00
68.6257 951.00
68.9299 1369.00
69.2342 1535.00
69.5385 1393.00
69.8427 953.00
70.147 1059.00
70.4512 1263.00
70.7555 1325.00
71.0598 1005.00
71.364 718.00
71.6683 641.00
71.9725 656.00
72.2768 646.00
72.5811 681.00
72.8853 740.00
73.1896 983.00
73.4938 1050.00
73.7981 982.00
74.1024 838.00
74.4066 671.00
74.7109 740.00
75.0151 863.00
75.3194 802.00
75.6237 721.00
75.9279 662.00
76.2322 741.00
76.5364 754.00
76.8407 689.00
77.145 766.00
77.4492 1172.00
77.7535 1312.00
78.0577 1015.00
78.362 811.00
78.6663 812.00
78.9705 868.00
79.2748 1036.00
79.579 940.00
79.8833 1022.00
80.1876 985.00
80.4918 766.00
80.7961 671.00
81.1003 602.00
81.4046 684.00
81.7089 676.00
82.0131 838.00
82.3174 962.00
82.6217 836.00
82.9259 691.00
83.2302 670.00
83.5344 674.00
83.8387 702.00
84.143 786.00
84.4472 766.00
84.7515 729.00
85.0557 703.00
85.36 677.00
85.6643 678.00
85.9685 734.00
86.2728 806.00
86.577 803.00
86.8813 719.00
87.1856 785.00
87.4898 926.00
87.7941 904.00
88.0983 697.00
88.4026 653.00
88.7069 732.00
89.0111 688.00
89.3154 670.00
89.6196 636.00
89.9239 736.00
90.2282 678.00
90.5324 624.00
90.8367 634.00
91.1409 673.00
91.4452 821.00
91.7495 888.00
92.0537 834.00
92.358 1014.00
92.6622 1139.00
92.9665 1170.00
93.2708 898.00
93.575 723.00
93.8793 653.00
94.1835 628.00
94.4878 670.00
94.7921 687.00
95.0963 641.00
95.4006 651.00
95.7048 771.00
96.0091 789.00
96.3134 682.00
96.6176 715.00
96.9219 675.00
97.2261 667.00
97.5304 625.00
97.8347 655.00
98.1389 792.00
98.4432 853.00
98.7474 805.00
99.0517 770.00
99.356 903.00
99.6602 910.00
99.9645 881.00
100.095 868.00