File: data/xrd_creation/results/NSC_191.xy
9.903433 2754.00
10.2077 2641.00
10.512 2371.00
10.8162 2390.00
11.1205 2318.00
11.4247 2247.00
11.729 2334.00
12.0333 2370.00
12.3375 2738.00
12.6418 2097.00
12.946 2020.00
13.2503 1888.00
13.5546 1958.00
13.8588 2091.00
14.1631 2624.00
14.4673 1885.00
14.7716 1787.00
15.0759 1809.00
15.3801 1732.00
15.6844 1805.00
15.9886 1732.00
16.2929 1798.00
16.5972 1806.00
16.9014 2611.00
17.2057 1845.00
17.5099 1762.00
17.8142 1713.00
18.1185 1683.00
18.4227 1614.00
18.727 1624.00
19.0312 1619.00
19.3355 1787.00
19.6398 3331.00
19.944 8571.00
20.2483 1763.00
20.5525 1613.00
20.8568 1574.00
21.1611 2133.00
21.4653 1613.00
21.7696 1443.00
22.0738 1374.00
22.3781 1422.00
22.6824 1525.00
22.9866 1604.00
23.2909 3397.00
23.5951 1452.00
23.8994 1447.00
24.2037 1653.00
24.5079 1572.00
24.8122 1287.00
25.1164 1335.00
25.4207 1352.00
25.725 1296.00
26.0292 1294.00
26.3335 1247.00
26.6378 1536.00
26.942 3559.00
27.2463 1641.00
27.5505 4408.00
27.8548 1686.00
28.1591 4456.00
28.4633 1685.00
28.7676 1271.00
29.0718 1211.00
29.3761 1270.00
29.6804 1207.00
29.9846 2032.00
30.2889 1350.00
30.5931 2632.00
30.8974 1419.00
31.2017 1525.00
31.5059 7701.00
31.8102 1996.00
32.1144 1262.00
32.4187 1205.00
32.723 2634.00
33.0272 1170.00
33.3315 1201.00
33.6357 1227.00
33.94 4378.00
34.2443 3524.00
34.5485 5858.00
34.8528 1945.00
35.157 3696.00
35.4613 1348.00
35.7656 1214.00
36.0698 1196.00
36.3741 1081.00
36.6783 1265.00
36.9826 974.00
37.2869 1005.00
37.5911 1054.00
37.8954 999.00
38.1996 1161.00
38.5039 1069.00
38.8082 954.00
39.1124 963.00
39.4167 991.00
39.7209 1187.00
40.0252 1459.00
40.3295 1190.00
40.6337 970.00
40.938 1008.00
41.2422 988.00
41.5465 952.00
41.8508 1515.00
42.155 1014.00
42.4593 1107.00
42.7635 1175.00
43.0678 1346.00
43.3721 881.00
43.6763 1219.00
43.9806 940.00
44.2849 865.00
44.5891 935.00
44.8934 2429.00
45.1976 1781.00
45.5019 948.00
45.8062 1010.00
46.1104 1051.00
46.4147 930.00
46.7189 1176.00
47.0232 1527.00
47.3275 3253.00
47.6317 1344.00
47.936 875.00
48.2402 859.00
48.5445 865.00
48.8488 826.00
49.153 959.00
49.4573 2998.00
49.7615 1418.00
50.0658 971.00
50.3701 899.00
50.6743 907.00
50.9786 1211.00
51.2828 1122.00
51.5871 1682.00
51.8914 2240.00
52.1956 1216.00
52.4999 922.00
52.8041 865.00
53.1084 956.00
53.4127 1814.00
53.7169 2346.00
54.0212 1248.00
54.3254 882.00
54.6297 916.00
54.934 1121.00
55.2382 1154.00
55.5425 1032.00
55.8467 957.00
56.151 1023.00
56.4553 879.00
56.7595 841.00
57.0638 1030.00
57.368 866.00
57.6723 1062.00
57.9766 1104.00
58.2808 983.00
58.5851 818.00
58.8893 911.00
59.1936 982.00
59.4979 2063.00
59.8021 2667.00
60.1064 1399.00
60.4106 922.00
60.7149 920.00
61.0192 858.00
61.3234 1493.00
61.6277 1513.00
61.932 1838.00
62.2362 1121.00
62.5405 1002.00
62.8447 1030.00
63.149 989.00
63.4533 1134.00
63.7575 1195.00
64.0618 1205.00
64.366 922.00
64.6703 820.00
64.9745 936.00
65.2788 1046.00
65.5831 931.00
65.8873 886.00
66.1916 937.00
66.4959 1009.00
66.8001 933.00
67.1044 1209.00
67.4086 1237.00
67.7129 1079.00
68.0172 808.00
68.3214 889.00
68.6257 1094.00
68.9299 938.00
69.2342 989.00
69.5385 826.00
69.8427 778.00
70.147 837.00
70.4512 748.00
70.7555 781.00
71.0598 918.00
71.364 871.00
71.6683 761.00
71.9725 991.00
72.2768 1148.00
72.5811 896.00
72.8853 735.00
73.1896 716.00
73.4938 876.00
73.7981 1031.00
74.1024 892.00
74.4066 987.00
74.7109 877.00
75.0151 711.00
75.3194 733.00
75.6237 915.00
75.9279 780.00
76.2322 765.00
76.5364 678.00
76.8407 672.00
77.145 699.00
77.4492 839.00
77.7535 807.00
78.0577 770.00
78.362 705.00
78.6663 693.00
78.9705 743.00
79.2748 778.00
79.579 704.00
79.8833 664.00
80.1876 709.00
80.4918 876.00
80.7961 1062.00
81.1003 1038.00
81.4046 898.00
81.7089 888.00
82.0131 781.00
82.3174 873.00
82.6217 862.00
82.9259 752.00
83.2302 718.00
83.5344 851.00
83.8387 802.00
84.143 777.00
84.4472 675.00
84.7515 675.00
85.0557 666.00
85.36 732.00
85.6643 697.00
85.9685 720.00
86.2728 699.00
86.577 679.00
86.8813 786.00
87.1856 821.00
87.4898 1037.00
87.7941 902.00
88.0983 822.00
88.4026 735.00
88.7069 746.00
89.0111 772.00
89.3154 743.00
89.6196 709.00
89.9239 793.00
90.2282 814.00
90.5324 857.00
90.8367 881.00
91.1409 821.00
91.4452 732.00
91.7495 753.00
92.0537 690.00
92.358 761.00
92.6622 708.00
92.9665 666.00
93.2708 683.00
93.575 772.00
93.8793 821.00
94.1835 910.00
94.4878 839.00
94.7921 716.00
95.0963 689.00
95.4006 810.00
95.7048 841.00
96.0091 752.00
96.3134 720.00
96.6176 719.00
96.9219 690.00
97.2261 713.00
97.5304 624.00
97.8347 666.00
98.1389 614.00
98.4432 616.00
98.7474 681.00
99.0517 694.00
99.356 671.00
99.6602 665.00
99.9645 660.00
100.095 726.00