File: data/xrd_creation/results/NSC_104.xy
9.903433 2589.00
10.2077 2516.00
10.512 2328.00
10.8162 2264.00
11.1205 2149.00
11.4247 2048.00
11.729 2014.00
12.0333 1851.00
12.3375 1776.00
12.6418 1694.00
12.946 1643.00
13.2503 1607.00
13.5546 1530.00
13.8588 1503.00
14.1631 1446.00
14.4673 1411.00
14.7716 1357.00
15.0759 1331.00
15.3801 1340.00
15.6844 1253.00
15.9886 1241.00
16.2929 1269.00
16.5972 1215.00
16.9014 1205.00
17.2057 1152.00
17.5099 1051.00
17.8142 1091.00
18.1185 1076.00
18.4227 1054.00
18.727 1028.00
19.0312 974.00
19.3355 982.00
19.6398 1040.00
19.944 908.00
20.2483 835.00
20.5525 884.00
20.8568 883.00
21.1611 871.00
21.4653 832.00
21.7696 831.00
22.0738 835.00
22.3781 796.00
22.6824 787.00
22.9866 817.00
23.2909 723.00
23.5951 691.00
23.8994 759.00
24.2037 672.00
24.5079 749.00
24.8122 692.00
25.1164 697.00
25.4207 660.00
25.725 657.00
26.0292 659.00
26.3335 671.00
26.6378 671.00
26.942 593.00
27.2463 566.00
27.5505 640.00
27.8548 601.00
28.1591 558.00
28.4633 626.00
28.7676 654.00
29.0718 603.00
29.3761 523.00
29.6804 544.00
29.9846 515.00
30.2889 552.00
30.5931 555.00
30.8974 524.00
31.2017 518.00
31.5059 484.00
31.8102 428.00
32.1144 465.00
32.4187 463.00
32.723 462.00
33.0272 449.00
33.3315 424.00
33.6357 456.00
33.94 451.00
34.2443 422.00
34.5485 464.00
34.8528 429.00
35.157 442.00
35.4613 411.00
35.7656 401.00
36.0698 352.00
36.3741 367.00
36.6783 397.00
36.9826 387.00
37.2869 392.00
37.5911 371.00
37.8954 408.00
38.1996 358.00
38.5039 372.00
38.8082 369.00
39.1124 375.00
39.4167 322.00
39.7209 346.00
40.0252 325.00
40.3295 297.00
40.6337 343.00
40.938 319.00
41.2422 336.00
41.5465 348.00
41.8508 293.00
42.155 307.00
42.4593 288.00
42.7635 291.00
43.0678 313.00
43.3721 326.00
43.6763 287.00
43.9806 290.00
44.2849 302.00
44.5891 326.00
44.8934 307.00
45.1976 296.00
45.5019 290.00
45.8062 282.00
46.1104 288.00
46.4147 281.00
46.7189 284.00
47.0232 290.00
47.3275 256.00
47.6317 270.00
47.936 248.00
48.2402 269.00
48.5445 243.00
48.8488 268.00
49.153 232.00
49.4573 239.00
49.7615 242.00
50.0658 257.00
50.3701 257.00
50.6743 242.00
50.9786 286.00
51.2828 242.00
51.5871 291.00
51.8914 274.00
52.1956 248.00
52.4999 268.00
52.8041 258.00
53.1084 244.00
53.4127 213.00
53.7169 222.00
54.0212 212.00
54.3254 206.00
54.6297 223.00
54.934 202.00
55.2382 173.00
55.5425 247.00
55.8467 208.00
56.151 218.00
56.4553 211.00
56.7595 204.00
57.0638 198.00
57.368 224.00
57.6723 232.00
57.9766 211.00
58.2808 211.00
58.5851 209.00
58.8893 181.00
59.1936 189.00
59.4979 200.00
59.8021 203.00
60.1064 189.00
60.4106 190.00
60.7149 160.00
61.0192 189.00
61.3234 204.00
61.6277 163.00
61.932 162.00
62.2362 194.00
62.5405 176.00
62.8447 186.00
63.149 187.00
63.4533 160.00
63.7575 187.00
64.0618 176.00
64.366 195.00
64.6703 200.00
64.9745 187.00
65.2788 171.00
65.5831 185.00
65.8873 203.00
66.1916 181.00
66.4959 164.00
66.8001 160.00
67.1044 198.00
67.4086 216.00
67.7129 171.00
68.0172 186.00
68.3214 192.00
68.6257 176.00
68.9299 177.00
69.2342 189.00
69.5385 179.00
69.8427 176.00
70.147 189.00
70.4512 205.00
70.7555 198.00
71.0598 173.00
71.364 187.00
71.6683 204.00
71.9725 190.00
72.2768 159.00
72.5811 181.00
72.8853 228.00
73.1896 203.00
73.4938 202.00
73.7981 195.00
74.1024 201.00
74.4066 192.00
74.7109 193.00
75.0151 187.00
75.3194 183.00
75.6237 200.00
75.9279 198.00
76.2322 188.00
76.5364 192.00
76.8407 235.00
77.145 221.00
77.4492 211.00
77.7535 230.00
78.0577 202.00
78.362 269.00
78.6663 207.00
78.9705 217.00
79.2748 186.00
79.579 215.00
79.8833 231.00
80.1876 221.00
80.4918 227.00
80.7961 182.00
81.1003 187.00
81.4046 199.00
81.7089 218.00
82.0131 233.00
82.3174 184.00
82.6217 211.00
82.9259 194.00
83.2302 209.00
83.5344 206.00
83.8387 220.00
84.143 196.00
84.4472 232.00
84.7515 182.00
85.0557 213.00
85.36 219.00
85.6643 176.00
85.9685 185.00
86.2728 179.00
86.577 195.00
86.8813 169.00
87.1856 183.00
87.4898 190.00
87.7941 204.00
88.0983 178.00
88.4026 169.00
88.7069 186.00
89.0111 185.00
89.3154 195.00
89.6196 199.00
89.9239 190.00
90.2282 175.00
90.5324 177.00
90.8367 195.00
91.1409 158.00
91.4452 196.00
91.7495 185.00
92.0537 195.00
92.358 166.00
92.6622 164.00
92.9665 201.00
93.2708 181.00
93.575 152.00
93.8793 179.00
94.1835 159.00
94.4878 190.00
94.7921 153.00
95.0963 206.00
95.4006 184.00
95.7048 175.00
96.0091 209.00
96.3134 174.00
96.6176 166.00
96.9219 172.00
97.2261 164.00
97.5304 189.00
97.8347 157.00
98.1389 167.00
98.4432 191.00
98.7474 180.00
99.0517 193.00
99.356 162.00
99.6602 166.00
99.9645 184.00
100.095 176.00