File: data/xrd_creation/results/NSC_156.xy
9.903433 2638.00
10.2077 2584.00
10.512 2451.00
10.8162 2439.00
11.1205 2361.00
11.4247 2260.00
11.729 2166.00
12.0333 2143.00
12.3375 2207.00
12.6418 2286.00
12.946 2177.00
13.2503 2843.00
13.5546 1915.00
13.8588 1982.00
14.1631 2805.00
14.4673 1740.00
14.7716 1731.00
15.0759 1714.00
15.3801 1654.00
15.6844 1681.00
15.9886 1708.00
16.2929 1640.00
16.5972 1674.00
16.9014 1530.00
17.2057 1568.00
17.5099 1535.00
17.8142 1652.00
18.1185 1688.00
18.4227 1448.00
18.727 1395.00
19.0312 1446.00
19.3355 1489.00
19.6398 2534.00
19.944 14969.00
20.2483 1777.00
20.5525 1445.00
20.8568 1403.00
21.1611 1306.00
21.4653 1357.00
21.7696 1311.00
22.0738 1437.00
22.3781 1665.00
22.6824 1203.00
22.9866 1219.00
23.2909 1737.00
23.5951 1220.00
23.8994 1187.00
24.2037 1113.00
24.5079 1149.00
24.8122 1091.00
25.1164 1104.00
25.4207 1051.00
25.725 1028.00
26.0292 1060.00
26.3335 1151.00
26.6378 1582.00
26.942 4481.00
27.2463 1114.00
27.5505 1044.00
27.8548 1739.00
28.1591 2636.00
28.4633 1283.00
28.7676 958.00
29.0718 887.00
29.3761 952.00
29.6804 1002.00
29.9846 849.00
30.2889 925.00
30.5931 1028.00
30.8974 1563.00
31.2017 933.00
31.5059 1703.00
31.8102 8264.00
32.1144 939.00
32.4187 761.00
32.723 814.00
33.0272 801.00
33.3315 912.00
33.6357 881.00
33.94 2026.00
34.2443 3435.00
34.5485 3426.00
34.8528 3108.00
35.157 995.00
35.4613 1168.00
35.7656 786.00
36.0698 798.00
36.3741 877.00
36.6783 691.00
36.9826 701.00
37.2869 662.00
37.5911 719.00
37.8954 642.00
38.1996 1303.00
38.5039 839.00
38.8082 627.00
39.1124 637.00
39.4167 716.00
39.7209 670.00
40.0252 777.00
40.3295 1488.00
40.6337 674.00
40.938 606.00
41.2422 605.00
41.5465 551.00
41.8508 647.00
42.155 1930.00
42.4593 802.00
42.7635 1311.00
43.0678 1163.00
43.3721 582.00
43.6763 558.00
43.9806 568.00
44.2849 587.00
44.5891 580.00
44.8934 668.00
45.1976 3838.00
45.5019 1068.00
45.8062 575.00
46.1104 602.00
46.4147 566.00
46.7189 638.00
47.0232 834.00
47.3275 839.00
47.6317 3975.00
47.936 820.00
48.2402 551.00
48.5445 552.00
48.8488 493.00
49.153 481.00
49.4573 511.00
49.7615 874.00
50.0658 967.00
50.3701 584.00
50.6743 495.00
50.9786 467.00
51.2828 624.00
51.5871 879.00
51.8914 1941.00
52.1956 3457.00
52.4999 723.00
52.8041 518.00
53.1084 510.00
53.4127 551.00
53.7169 758.00
54.0212 3504.00
54.3254 1035.00
54.6297 617.00
54.934 740.00
55.2382 761.00
55.5425 894.00
55.8467 526.00
56.151 396.00
56.4553 412.00
56.7595 481.00
57.0638 447.00
57.368 472.00
57.6723 450.00
57.9766 609.00
58.2808 839.00
58.5851 454.00
58.8893 428.00
59.1936 403.00
59.4979 528.00
59.8021 623.00
60.1064 3161.00
60.4106 1613.00
60.7149 491.00
61.0192 407.00
61.3234 447.00
61.6277 540.00
61.932 1913.00
62.2362 1244.00
62.5405 584.00
62.8447 591.00
63.149 480.00
63.4533 656.00
63.7575 641.00
64.0618 1094.00
64.366 781.00
64.6703 490.00
64.9745 756.00
65.2788 602.00
65.5831 1179.00
65.8873 970.00
66.1916 892.00
66.4959 676.00
66.8001 487.00
67.1044 599.00
67.4086 758.00
67.7129 1204.00
68.0172 920.00
68.3214 391.00
68.6257 379.00
68.9299 470.00
69.2342 1414.00
69.5385 575.00
69.8427 444.00
70.147 369.00
70.4512 398.00
70.7555 547.00
71.0598 404.00
71.364 515.00
71.6683 515.00
71.9725 437.00
72.2768 396.00
72.5811 542.00
72.8853 984.00
73.1896 480.00
73.4938 391.00
73.7981 355.00
74.1024 539.00
74.4066 474.00
74.7109 713.00
75.0151 641.00
75.3194 372.00
75.6237 355.00
75.9279 372.00
76.2322 1054.00
76.5364 502.00
76.8407 423.00
77.145 326.00
77.4492 408.00
77.7535 433.00
78.0577 752.00
78.362 657.00
78.6663 494.00
78.9705 588.00
79.2748 483.00
79.579 382.00
79.8833 368.00
80.1876 404.00
80.4918 383.00
80.7961 375.00
81.1003 482.00
81.4046 1131.00
81.7089 1135.00
82.0131 540.00
82.3174 373.00
82.6217 321.00
82.9259 580.00
83.2302 728.00
83.5344 488.00
83.8387 449.00
84.143 506.00
84.4472 542.00
84.7515 473.00
85.0557 362.00
85.36 349.00
85.6643 326.00
85.9685 301.00
86.2728 461.00
86.577 413.00
86.8813 363.00
87.1856 416.00
87.4898 435.00
87.7941 421.00
88.0983 791.00
88.4026 829.00
88.7069 581.00
89.0111 402.00
89.3154 333.00
89.6196 537.00
89.9239 635.00
90.2282 597.00
90.5324 580.00
90.8367 528.00
91.1409 575.00
91.4452 692.00
91.7495 769.00
92.0537 476.00
92.358 292.00
92.6622 338.00
92.9665 650.00
93.2708 688.00
93.575 571.00
93.8793 481.00
94.1835 398.00
94.4878 366.00
94.7921 569.00
95.0963 730.00
95.4006 482.00
95.7048 340.00
96.0091 364.00
96.3134 783.00
96.6176 650.00
96.9219 498.00
97.2261 466.00
97.5304 391.00
97.8347 347.00
98.1389 380.00
98.4432 330.00
98.7474 351.00
99.0517 291.00
99.356 339.00
99.6602 318.00
99.9645 347.00
100.095 418.00