File: data/xrd_creation/results/NSC_43.xy
9.903433 2772.00
10.2077 2686.00
10.512 2608.00
10.8162 2465.00
11.1205 2421.00
11.4247 2392.00
11.729 2291.00
12.0333 2198.00
12.3375 2153.00
12.6418 2047.00
12.946 2035.00
13.2503 2040.00
13.5546 2015.00
13.8588 2158.00
14.1631 2278.00
14.4673 1812.00
14.7716 1772.00
15.0759 1722.00
15.3801 1862.00
15.6844 1661.00
15.9886 1707.00
16.2929 1588.00
16.5972 1688.00
16.9014 1670.00
17.2057 1575.00
17.5099 1587.00
17.8142 1692.00
18.1185 1503.00
18.4227 1519.00
18.727 1537.00
19.0312 1489.00
19.3355 1644.00
19.6398 3008.00
19.944 3670.00
20.2483 1562.00
20.5525 1982.00
20.8568 4695.00
21.1611 1870.00
21.4653 2006.00
21.7696 1432.00
22.0738 1384.00
22.3781 1391.00
22.6824 1333.00
22.9866 1594.00
23.2909 2854.00
23.5951 1313.00
23.8994 1279.00
24.2037 1345.00
24.5079 1298.00
24.8122 1187.00
25.1164 1178.00
25.4207 1156.00
25.725 1109.00
26.0292 1181.00
26.3335 1115.00
26.6378 1146.00
26.942 1086.00
27.2463 1312.00
27.5505 1632.00
27.8548 1338.00
28.1591 2596.00
28.4633 1174.00
28.7676 1022.00
29.0718 1065.00
29.3761 1145.00
29.6804 1358.00
29.9846 1907.00
30.2889 1113.00
30.5931 1445.00
30.8974 1953.00
31.2017 2609.00
31.5059 4872.00
31.8102 1080.00
32.1144 957.00
32.4187 902.00
32.723 995.00
33.0272 925.00
33.3315 970.00
33.6357 983.00
33.94 1017.00
34.2443 2648.00
34.5485 3958.00
34.8528 4186.00
35.157 1079.00
35.4613 940.00
35.7656 1082.00
36.0698 936.00
36.3741 857.00
36.6783 797.00
36.9826 773.00
37.2869 874.00
37.5911 850.00
37.8954 870.00
38.1996 815.00
38.5039 980.00
38.8082 1159.00
39.1124 942.00
39.4167 958.00
39.7209 794.00
40.0252 879.00
40.3295 847.00
40.6337 915.00
40.938 710.00
41.2422 736.00
41.5465 744.00
41.8508 837.00
42.155 1062.00
42.4593 1165.00
42.7635 1241.00
43.0678 857.00
43.3721 770.00
43.6763 962.00
43.9806 714.00
44.2849 630.00
44.5891 684.00
44.8934 878.00
45.1976 1106.00
45.5019 862.00
45.8062 764.00
46.1104 732.00
46.4147 690.00
46.7189 679.00
47.0232 1076.00
47.3275 1476.00
47.6317 2114.00
47.936 739.00
48.2402 644.00
48.5445 672.00
48.8488 692.00
49.153 961.00
49.4573 1088.00
49.7615 699.00
50.0658 656.00
50.3701 644.00
50.6743 576.00
50.9786 664.00
51.2828 1045.00
51.5871 1485.00
51.8914 781.00
52.1956 651.00
52.4999 613.00
52.8041 557.00
53.1084 615.00
53.4127 607.00
53.7169 664.00
54.0212 1003.00
54.3254 1787.00
54.6297 715.00
54.934 571.00
55.2382 597.00
55.5425 563.00
55.8467 592.00
56.151 626.00
56.4553 585.00
56.7595 571.00
57.0638 642.00
57.368 610.00
57.6723 623.00
57.9766 618.00
58.2808 595.00
58.5851 556.00
58.8893 551.00
59.1936 702.00
59.4979 959.00
59.8021 1184.00
60.1064 1625.00
60.4106 962.00
60.7149 702.00
61.0192 800.00
61.3234 1000.00
61.6277 1282.00
61.932 685.00
62.2362 1016.00
62.5405 695.00
62.8447 564.00
63.149 613.00
63.4533 720.00
63.7575 748.00
64.0618 547.00
64.366 483.00
64.6703 448.00
64.9745 495.00
65.2788 576.00
65.5831 711.00
65.8873 648.00
66.1916 579.00
66.4959 547.00
66.8001 556.00
67.1044 634.00
67.4086 849.00
67.7129 770.00
68.0172 639.00
68.3214 519.00
68.6257 544.00
68.9299 510.00
69.2342 470.00
69.5385 664.00
69.8427 554.00
70.147 462.00
70.4512 444.00
70.7555 472.00
71.0598 442.00
71.364 428.00
71.6683 426.00
71.9725 550.00
72.2768 654.00
72.5811 508.00
72.8853 460.00
73.1896 658.00
73.4938 568.00
73.7981 468.00
74.1024 507.00
74.4066 621.00
74.7109 509.00
75.0151 459.00
75.3194 468.00
75.6237 477.00
75.9279 462.00
76.2322 529.00
76.5364 529.00
76.8407 559.00
77.145 458.00
77.4492 465.00
77.7535 430.00
78.0577 552.00
78.362 465.00
78.6663 417.00
78.9705 406.00
79.2748 397.00
79.579 428.00
79.8833 444.00
80.1876 451.00
80.4918 373.00
80.7961 459.00
81.1003 517.00
81.4046 595.00
81.7089 705.00
82.0131 590.00
82.3174 564.00
82.6217 570.00
82.9259 494.00
83.2302 502.00
83.5344 515.00
83.8387 458.00
84.143 398.00
84.4472 385.00
84.7515 385.00
85.0557 381.00
85.36 409.00
85.6643 424.00
85.9685 404.00
86.2728 414.00
86.577 372.00
86.8813 415.00
87.1856 407.00
87.4898 418.00
87.7941 396.00
88.0983 474.00
88.4026 543.00
88.7069 503.00
89.0111 407.00
89.3154 429.00
89.6196 405.00
89.9239 385.00
90.2282 408.00
90.5324 393.00
90.8367 398.00
91.1409 430.00
91.4452 411.00
91.7495 443.00
92.0537 446.00
92.358 479.00
92.6622 391.00
92.9665 415.00
93.2708 414.00
93.575 456.00
93.8793 431.00
94.1835 404.00
94.4878 400.00
94.7921 426.00
95.0963 527.00
95.4006 443.00
95.7048 441.00
96.0091 447.00
96.3134 393.00
96.6176 432.00
96.9219 402.00
97.2261 476.00
97.5304 422.00
97.8347 386.00
98.1389 392.00
98.4432 370.00
98.7474 327.00
99.0517 363.00
99.356 419.00
99.6602 435.00
99.9645 400.00
100.095 373.00