File: data/xrd_creation/results/NSC_159.xy
9.903433 2784.00
10.2077 2741.00
10.512 2599.00
10.8162 2600.00
11.1205 2488.00
11.4247 2386.00
11.729 2306.00
12.0333 2372.00
12.3375 2364.00
12.6418 2124.00
12.946 2118.00
13.2503 1957.00
13.5546 1990.00
13.8588 1963.00
14.1631 1972.00
14.4673 1910.00
14.7716 1813.00
15.0759 1830.00
15.3801 1910.00
15.6844 1778.00
15.9886 1771.00
16.2929 1799.00
16.5972 1736.00
16.9014 2064.00
17.2057 2447.00
17.5099 1788.00
17.8142 1684.00
18.1185 1649.00
18.4227 1705.00
18.727 1632.00
19.0312 1629.00
19.3355 1626.00
19.6398 1562.00
19.944 1599.00
20.2483 1502.00
20.5525 1798.00
20.8568 3430.00
21.1611 7470.00
21.4653 2946.00
21.7696 1566.00
22.0738 1513.00
22.3781 1503.00
22.6824 1372.00
22.9866 1481.00
23.2909 1440.00
23.5951 1372.00
23.8994 1407.00
24.2037 1391.00
24.5079 1397.00
24.8122 1532.00
25.1164 1856.00
25.4207 1577.00
25.725 1435.00
26.0292 1312.00
26.3335 1391.00
26.6378 1224.00
26.942 1507.00
27.2463 1379.00
27.5505 1266.00
27.8548 1306.00
28.1591 1268.00
28.4633 1295.00
28.7676 1304.00
29.0718 1371.00
29.3761 2008.00
29.6804 4071.00
29.9846 2591.00
30.2889 1931.00
30.5931 1617.00
30.8974 1550.00
31.2017 1342.00
31.5059 1331.00
31.8102 1586.00
32.1144 1326.00
32.4187 1231.00
32.723 1223.00
33.0272 1331.00
33.3315 1404.00
33.6357 1496.00
33.94 2326.00
34.2443 5340.00
34.5485 8191.00
34.8528 7256.00
35.157 4111.00
35.4613 1791.00
35.7656 1370.00
36.0698 1423.00
36.3741 1332.00
36.6783 1415.00
36.9826 1858.00
37.2869 3179.00
37.5911 1372.00
37.8954 1222.00
38.1996 1234.00
38.5039 1053.00
38.8082 1048.00
39.1124 1029.00
39.4167 1044.00
39.7209 1048.00
40.0252 1173.00
40.3295 1206.00
40.6337 1051.00
40.938 1008.00
41.2422 1035.00
41.5465 1065.00
41.8508 1039.00
42.155 948.00
42.4593 955.00
42.7635 1038.00
43.0678 1016.00
43.3721 1006.00
43.6763 1002.00
43.9806 908.00
44.2849 860.00
44.5891 881.00
44.8934 998.00
45.1976 854.00
45.5019 915.00
45.8062 1007.00
46.1104 1176.00
46.4147 959.00
46.7189 863.00
47.0232 834.00
47.3275 791.00
47.6317 814.00
47.936 1098.00
48.2402 1795.00
48.5445 1036.00
48.8488 1064.00
49.153 1182.00
49.4573 1287.00
49.7615 1383.00
50.0658 1107.00
50.3701 1074.00
50.6743 1084.00
50.9786 1086.00
51.2828 977.00
51.5871 924.00
51.8914 912.00
52.1956 1181.00
52.4999 1549.00
52.8041 1314.00
53.1084 854.00
53.4127 758.00
53.7169 763.00
54.0212 842.00
54.3254 810.00
54.6297 839.00
54.934 722.00
55.2382 663.00
55.5425 763.00
55.8467 776.00
56.151 732.00
56.4553 762.00
56.7595 806.00
57.0638 778.00
57.368 807.00
57.6723 806.00
57.9766 771.00
58.2808 773.00
58.5851 824.00
58.8893 759.00
59.1936 787.00
59.4979 849.00
59.8021 802.00
60.1064 914.00
60.4106 864.00
60.7149 884.00
61.0192 949.00
61.3234 1375.00
61.6277 1617.00
61.932 1630.00
62.2362 1605.00
62.5405 1200.00
62.8447 934.00
63.149 993.00
63.4533 1001.00
63.7575 804.00
64.0618 913.00
64.366 900.00
64.6703 994.00
64.9745 962.00
65.2788 1017.00
65.5831 1295.00
65.8873 1497.00
66.1916 1286.00
66.4959 854.00
66.8001 736.00
67.1044 717.00
67.4086 715.00
67.7129 709.00
68.0172 703.00
68.3214 706.00
68.6257 704.00
68.9299 777.00
69.2342 705.00
69.5385 679.00
69.8427 617.00
70.147 604.00
70.4512 533.00
70.7555 608.00
71.0598 599.00
71.364 611.00
71.6683 603.00
71.9725 660.00
72.2768 602.00
72.5811 683.00
72.8853 725.00
73.1896 767.00
73.4938 745.00
73.7981 748.00
74.1024 714.00
74.4066 627.00
74.7109 632.00
75.0151 568.00
75.3194 558.00
75.6237 612.00
75.9279 528.00
76.2322 557.00
76.5364 563.00
76.8407 553.00
77.145 515.00
77.4492 530.00
77.7535 495.00
78.0577 546.00
78.362 582.00
78.6663 536.00
78.9705 556.00
79.2748 563.00
79.579 522.00
79.8833 491.00
80.1876 519.00
80.4918 485.00
80.7961 493.00
81.1003 536.00
81.4046 575.00
81.7089 562.00
82.0131 597.00
82.3174 565.00
82.6217 600.00
82.9259 548.00
83.2302 595.00
83.5344 549.00
83.8387 539.00
84.143 552.00
84.4472 552.00
84.7515 562.00
85.0557 628.00
85.36 522.00
85.6643 551.00
85.9685 588.00
86.2728 625.00
86.577 487.00
86.8813 597.00
87.1856 587.00
87.4898 659.00
87.7941 638.00
88.0983 605.00
88.4026 562.00
88.7069 595.00
89.0111 541.00
89.3154 496.00
89.6196 440.00
89.9239 481.00
90.2282 470.00
90.5324 458.00
90.8367 459.00
91.1409 476.00
91.4452 500.00
91.7495 471.00
92.0537 467.00
92.358 432.00
92.6622 474.00
92.9665 474.00
93.2708 434.00
93.575 493.00
93.8793 410.00
94.1835 428.00
94.4878 465.00
94.7921 487.00
95.0963 474.00
95.4006 449.00
95.7048 502.00
96.0091 460.00
96.3134 513.00
96.6176 504.00
96.9219 453.00
97.2261 469.00
97.5304 500.00
97.8347 445.00
98.1389 448.00
98.4432 487.00
98.7474 475.00
99.0517 483.00
99.356 500.00
99.6602 490.00
99.9645 502.00
100.095 526.00