File: data/xrd_creation/results/NSC_127.xy
9.903433 2984.00
10.2077 2898.00
10.512 2834.00
10.8162 2801.00
11.1205 2815.00
11.4247 2743.00
11.729 2605.00
12.0333 2605.00
12.3375 2582.00
12.6418 2493.00
12.946 2398.00
13.2503 2455.00
13.5546 2325.00
13.8588 2550.00
14.1631 3735.00
14.4673 4111.00
14.7716 2370.00
15.0759 2359.00
15.3801 2325.00
15.6844 2320.00
15.9886 2326.00
16.2929 2313.00
16.5972 2239.00
16.9014 2174.00
17.2057 2185.00
17.5099 2164.00
17.8142 2208.00
18.1185 2189.00
18.4227 2135.00
18.727 2530.00
19.0312 3132.00
19.3355 2293.00
19.6398 4533.00
19.944 9933.00
20.2483 2902.00
20.5525 12490.00
20.8568 2522.00
21.1611 2265.00
21.4653 2383.00
21.7696 6231.00
22.0738 2608.00
22.3781 2162.00
22.6824 2105.00
22.9866 2142.00
23.2909 2315.00
23.5951 4177.00
23.8994 8375.00
24.2037 2506.00
24.5079 3905.00
24.8122 2371.00
25.1164 1947.00
25.4207 1928.00
25.725 2021.00
26.0292 1947.00
26.3335 1945.00
26.6378 2810.00
26.942 2176.00
27.2463 1954.00
27.5505 1881.00
27.8548 1941.00
28.1591 2049.00
28.4633 4059.00
28.7676 5168.00
29.0718 2018.00
29.3761 1998.00
29.6804 1940.00
29.9846 1838.00
30.2889 1931.00
30.5931 2094.00
30.8974 3319.00
31.2017 2127.00
31.5059 9559.00
31.8102 4581.00
32.1144 1852.00
32.4187 1845.00
32.723 1858.00
33.0272 1783.00
33.3315 1811.00
33.6357 1614.00
33.94 2415.00
34.2443 1976.00
34.5485 1752.00
34.8528 1721.00
35.157 1985.00
35.4613 4949.00
35.7656 5726.00
36.0698 3094.00
36.3741 4313.00
36.6783 1884.00
36.9826 1605.00
37.2869 1655.00
37.5911 2272.00
37.8954 1774.00
38.1996 1849.00
38.5039 1620.00
38.8082 1602.00
39.1124 1661.00
39.4167 1631.00
39.7209 1978.00
40.0252 2251.00
40.3295 1711.00
40.6337 1610.00
40.938 1540.00
41.2422 1738.00
41.5465 2394.00
41.8508 2215.00
42.155 1790.00
42.4593 1766.00
42.7635 1568.00
43.0678 1664.00
43.3721 2800.00
43.6763 2500.00
43.9806 1881.00
44.2849 1801.00
44.5891 1564.00
44.8934 1653.00
45.1976 3409.00
45.5019 2379.00
45.8062 1733.00
46.1104 1749.00
46.4147 3415.00
46.7189 1854.00
47.0232 2596.00
47.3275 1746.00
47.6317 1539.00
47.936 1750.00
48.2402 4010.00
48.5445 2970.00
48.8488 1777.00
49.153 1892.00
49.4573 1752.00
49.7615 2668.00
50.0658 1588.00
50.3701 1518.00
50.6743 1590.00
50.9786 1721.00
51.2828 1679.00
51.5871 3545.00
51.8914 2639.00
52.1956 2055.00
52.4999 1662.00
52.8041 1588.00
53.1084 1764.00
53.4127 1544.00
53.7169 1551.00
54.0212 1603.00
54.3254 1767.00
54.6297 2743.00
54.934 2286.00
55.2382 1913.00
55.5425 3226.00
55.8467 4421.00
56.151 2161.00
56.4553 1553.00
56.7595 1592.00
57.0638 1682.00
57.368 1822.00
57.6723 1681.00
57.9766 1667.00
58.2808 2302.00
58.5851 2515.00
58.8893 2207.00
59.1936 1632.00
59.4979 1583.00
59.8021 1557.00
60.1064 2286.00
60.4106 2530.00
60.7149 1773.00
61.0192 1635.00
61.3234 2371.00
61.6277 2148.00
61.932 1650.00
62.2362 1560.00
62.5405 2128.00
62.8447 2061.00
63.149 1942.00
63.4533 2087.00
63.7575 2267.00
64.0618 2749.00
64.366 2321.00
64.6703 1592.00
64.9745 1526.00
65.2788 1858.00
65.5831 1812.00
65.8873 1579.00
66.1916 1651.00
66.4959 2072.00
66.8001 1803.00
67.1044 1592.00
67.4086 2036.00
67.7129 2039.00
68.0172 1855.00
68.3214 1859.00
68.6257 1719.00
68.9299 1544.00
69.2342 1762.00
69.5385 1657.00
69.8427 1550.00
70.147 1406.00
70.4512 1552.00
70.7555 1523.00
71.0598 1481.00
71.364 2171.00
71.6683 2038.00
71.9725 1502.00
72.2768 1528.00
72.5811 1551.00
72.8853 1614.00
73.1896 1513.00
73.4938 1381.00
73.7981 1494.00
74.1024 1730.00
74.4066 1812.00
74.7109 1642.00
75.0151 1679.00
75.3194 1932.00
75.6237 1995.00
75.9279 2106.00
76.2322 1595.00
76.5364 1517.00
76.8407 1713.00
77.145 1602.00
77.4492 1586.00
77.7535 1595.00
78.0577 1412.00
78.362 1482.00
78.6663 1510.00
78.9705 1899.00
79.2748 2038.00
79.579 1812.00
79.8833 1557.00
80.1876 1581.00
80.4918 1493.00
80.7961 1493.00
81.1003 1567.00
81.4046 1791.00
81.7089 1636.00
82.0131 1528.00
82.3174 1487.00
82.6217 1496.00
82.9259 1423.00
83.2302 1460.00
83.5344 1479.00
83.8387 1757.00
84.143 1758.00
84.4472 1500.00
84.7515 1444.00
85.0557 1692.00
85.36 1749.00
85.6643 1572.00
85.9685 1640.00
86.2728 1759.00
86.577 1625.00
86.8813 1649.00
87.1856 1573.00
87.4898 1506.00
87.7941 1487.00
88.0983 1433.00
88.4026 1591.00
88.7069 1559.00
89.0111 1697.00
89.3154 1558.00
89.6196 1616.00
89.9239 1942.00
90.2282 1805.00
90.5324 1580.00
90.8367 1452.00
91.1409 1535.00
91.4452 1578.00
91.7495 1628.00
92.0537 1900.00
92.358 1644.00
92.6622 1603.00
92.9665 1490.00
93.2708 1464.00
93.575 1358.00
93.8793 1462.00
94.1835 1490.00
94.4878 1478.00
94.7921 1397.00
95.0963 1523.00
95.4006 1732.00
95.7048 1732.00
96.0091 1555.00
96.3134 1575.00
96.6176 1582.00
96.9219 1664.00
97.2261 1661.00
97.5304 1533.00
97.8347 1501.00
98.1389 1473.00
98.4432 1435.00
98.7474 1433.00
99.0517 1492.00
99.356 1604.00
99.6602 1585.00
99.9645 1575.00
100.095 1616.00