File: data/xrd_creation/results/NSC_39.xy
9.903433 3018.00
10.2077 3074.00
10.512 2895.00
10.8162 2758.00
11.1205 2679.00
11.4247 2688.00
11.729 2672.00
12.0333 2555.00
12.3375 2483.00
12.6418 2674.00
12.946 2555.00
13.2503 2530.00
13.5546 2522.00
13.8588 2690.00
14.1631 2547.00
14.4673 2409.00
14.7716 2441.00
15.0759 2499.00
15.3801 2372.00
15.6844 2425.00
15.9886 2236.00
16.2929 2264.00
16.5972 2347.00
16.9014 2294.00
17.2057 2238.00
17.5099 2340.00
17.8142 2424.00
18.1185 2191.00
18.4227 2189.00
18.727 2291.00
19.0312 2230.00
19.3355 2500.00
19.6398 4064.00
19.944 3592.00
20.2483 2388.00
20.5525 2132.00
20.8568 2410.00
21.1611 2379.00
21.4653 2367.00
21.7696 2652.00
22.0738 2457.00
22.3781 2244.00
22.6824 2499.00
22.9866 2473.00
23.2909 2644.00
23.5951 2130.00
23.8994 2088.00
24.2037 2756.00
24.5079 2471.00
24.8122 2893.00
25.1164 1973.00
25.4207 1917.00
25.725 1923.00
26.0292 1925.00
26.3335 1987.00
26.6378 1928.00
26.942 1965.00
27.2463 1950.00
27.5505 2095.00
27.8548 2846.00
28.1591 2707.00
28.4633 10498.00
28.7676 2581.00
29.0718 2083.00
29.3761 1990.00
29.6804 1923.00
29.9846 1956.00
30.2889 1987.00
30.5931 2489.00
30.8974 7130.00
31.2017 4501.00
31.5059 2868.00
31.8102 7242.00
32.1144 2215.00
32.4187 1940.00
32.723 1817.00
33.0272 1982.00
33.3315 1968.00
33.6357 1853.00
33.94 2069.00
34.2443 3343.00
34.5485 5571.00
34.8528 2606.00
35.157 1860.00
35.4613 2352.00
35.7656 3268.00
36.0698 1869.00
36.3741 1688.00
36.6783 1542.00
36.9826 1541.00
37.2869 1560.00
37.5911 1508.00
37.8954 1546.00
38.1996 1489.00
38.5039 1494.00
38.8082 1718.00
39.1124 1541.00
39.4167 1494.00
39.7209 1663.00
40.0252 1558.00
40.3295 1470.00
40.6337 1520.00
40.938 2156.00
41.2422 1962.00
41.5465 1859.00
41.8508 1940.00
42.155 1778.00
42.4593 1603.00
42.7635 1481.00
43.0678 1444.00
43.3721 1537.00
43.6763 1424.00
43.9806 1599.00
44.2849 1511.00
44.5891 1685.00
44.8934 1951.00
45.1976 2051.00
45.5019 1672.00
45.8062 2065.00
46.1104 1723.00
46.4147 1574.00
46.7189 1797.00
47.0232 2473.00
47.3275 1746.00
47.6317 1559.00
47.936 1487.00
48.2402 1495.00
48.5445 1476.00
48.8488 1508.00
49.153 1765.00
49.4573 2717.00
49.7615 1915.00
50.0658 1569.00
50.3701 3031.00
50.6743 2307.00
50.9786 2479.00
51.2828 2992.00
51.5871 1873.00
51.8914 1511.00
52.1956 1502.00
52.4999 1408.00
52.8041 1405.00
53.1084 1511.00
53.4127 1663.00
53.7169 2044.00
54.0212 1662.00
54.3254 2334.00
54.6297 1617.00
54.934 1457.00
55.2382 1514.00
55.5425 2385.00
55.8467 2115.00
56.151 1992.00
56.4553 1728.00
56.7595 1403.00
57.0638 1379.00
57.368 1816.00
57.6723 1677.00
57.9766 1520.00
58.2808 1771.00
58.5851 1657.00
58.8893 1544.00
59.1936 1623.00
59.4979 1889.00
59.8021 1687.00
60.1064 2206.00
60.4106 2017.00
60.7149 1596.00
61.0192 1982.00
61.3234 1790.00
61.6277 2091.00
61.932 1576.00
62.2362 1819.00
62.5405 1525.00
62.8447 1636.00
63.149 1989.00
63.4533 1466.00
63.7575 1390.00
64.0618 1439.00
64.366 1362.00
64.6703 1366.00
64.9745 1383.00
65.2788 1498.00
65.5831 1531.00
65.8873 1839.00
66.1916 1644.00
66.4959 1403.00
66.8001 1379.00
67.1044 1277.00
67.4086 1268.00
67.7129 1238.00
68.0172 1226.00
68.3214 1377.00
68.6257 1257.00
68.9299 1406.00
69.2342 1425.00
69.5385 1235.00
69.8427 1288.00
70.147 1269.00
70.4512 1198.00
70.7555 1246.00
71.0598 1272.00
71.364 1536.00
71.6683 1463.00
71.9725 1304.00
72.2768 1385.00
72.5811 1410.00
72.8853 1346.00
73.1896 1255.00
73.4938 1257.00
73.7981 1192.00
74.1024 1130.00
74.4066 1153.00
74.7109 1225.00
75.0151 1360.00
75.3194 1384.00
75.6237 1349.00
75.9279 1294.00
76.2322 1218.00
76.5364 1260.00
76.8407 1292.00
77.145 1178.00
77.4492 1242.00
77.7535 1222.00
78.0577 1192.00
78.362 1252.00
78.6663 1147.00
78.9705 1232.00
79.2748 1286.00
79.579 1266.00
79.8833 1140.00
80.1876 1189.00
80.4918 1212.00
80.7961 1317.00
81.1003 1230.00
81.4046 1212.00
81.7089 1287.00
82.0131 1260.00
82.3174 1250.00
82.6217 1291.00
82.9259 1289.00
83.2302 1314.00
83.5344 1386.00
83.8387 1251.00
84.143 1312.00
84.4472 1330.00
84.7515 1247.00
85.0557 1205.00
85.36 1242.00
85.6643 1204.00
85.9685 1250.00
86.2728 1313.00
86.577 1242.00
86.8813 1197.00
87.1856 1148.00
87.4898 1251.00
87.7941 1221.00
88.0983 1265.00
88.4026 1376.00
88.7069 1336.00
89.0111 1245.00
89.3154 1203.00
89.6196 1219.00
89.9239 1303.00
90.2282 1328.00
90.5324 1150.00
90.8367 1268.00
91.1409 1181.00
91.4452 1152.00
91.7495 1177.00
92.0537 1166.00
92.358 1155.00
92.6622 1165.00
92.9665 1248.00
93.2708 1219.00
93.575 1163.00
93.8793 1227.00
94.1835 1228.00
94.4878 1146.00
94.7921 1197.00
95.0963 1194.00
95.4006 1229.00
95.7048 1278.00
96.0091 1187.00
96.3134 1261.00
96.6176 1385.00
96.9219 1461.00
97.2261 1404.00
97.5304 1198.00
97.8347 1096.00
98.1389 1200.00
98.4432 1239.00
98.7474 1275.00
99.0517 1259.00
99.356 1346.00
99.6602 1330.00
99.9645 1235.00
100.095 1203.00