File: data/xrd_creation/results/NSC_219.xy
9.903433 2694.00
10.2077 2594.00
10.512 2438.00
10.8162 2352.00
11.1205 2266.00
11.4247 2300.00
11.729 2239.00
12.0333 2111.00
12.3375 2033.00
12.6418 2081.00
12.946 1943.00
13.2503 1856.00
13.5546 2161.00
13.8588 2391.00
14.1631 1758.00
14.4673 1752.00
14.7716 1823.00
15.0759 1654.00
15.3801 1583.00
15.6844 1676.00
15.9886 1622.00
16.2929 1554.00
16.5972 1540.00
16.9014 1601.00
17.2057 1559.00
17.5099 1599.00
17.8142 1557.00
18.1185 1461.00
18.4227 1496.00
18.727 1555.00
19.0312 1952.00
19.3355 5201.00
19.6398 4717.00
19.944 1672.00
20.2483 1430.00
20.5525 1532.00
20.8568 1788.00
21.1611 1463.00
21.4653 1371.00
21.7696 1293.00
22.0738 1356.00
22.3781 1339.00
22.6824 1406.00
22.9866 2646.00
23.2909 1457.00
23.5951 1299.00
23.8994 1328.00
24.2037 1478.00
24.5079 1378.00
24.8122 1212.00
25.1164 1190.00
25.4207 1186.00
25.725 1134.00
26.0292 1132.00
26.3335 1176.00
26.6378 1163.00
26.942 1080.00
27.2463 1287.00
27.5505 2511.00
27.8548 2520.00
28.1591 1666.00
28.4633 2380.00
28.7676 1199.00
29.0718 1083.00
29.3761 1062.00
29.6804 1128.00
29.9846 1103.00
30.2889 1272.00
30.5931 2910.00
30.8974 5376.00
31.2017 1576.00
31.5059 1928.00
31.8102 1715.00
32.1144 1093.00
32.4187 990.00
32.723 934.00
33.0272 980.00
33.3315 1054.00
33.6357 1101.00
33.94 1534.00
34.2443 4861.00
34.5485 3204.00
34.8528 1234.00
35.157 926.00
35.4613 1289.00
35.7656 1043.00
36.0698 1171.00
36.3741 910.00
36.6783 865.00
36.9826 888.00
37.2869 850.00
37.5911 848.00
37.8954 871.00
38.1996 883.00
38.5039 962.00
38.8082 940.00
39.1124 1016.00
39.4167 977.00
39.7209 875.00
40.0252 1006.00
40.3295 829.00
40.6337 822.00
40.938 1162.00
41.2422 1302.00
41.5465 1232.00
41.8508 1347.00
42.155 1175.00
42.4593 985.00
42.7635 783.00
43.0678 780.00
43.3721 821.00
43.6763 761.00
43.9806 943.00
44.2849 1283.00
44.5891 1599.00
44.8934 1393.00
45.1976 932.00
45.5019 873.00
45.8062 975.00
46.1104 1200.00
46.4147 1280.00
46.7189 2068.00
47.0232 1887.00
47.3275 1106.00
47.6317 854.00
47.936 848.00
48.2402 858.00
48.5445 806.00
48.8488 813.00
49.153 1021.00
49.4573 1193.00
49.7615 960.00
50.0658 854.00
50.3701 1534.00
50.6743 2372.00
50.9786 1477.00
51.2828 931.00
51.5871 1054.00
51.8914 881.00
52.1956 731.00
52.4999 744.00
52.8041 780.00
53.1084 1031.00
53.4127 1556.00
53.7169 2258.00
54.0212 1078.00
54.3254 1108.00
54.6297 847.00
54.934 814.00
55.2382 787.00
55.5425 1010.00
55.8467 985.00
56.151 894.00
56.4553 866.00
56.7595 789.00
57.0638 843.00
57.368 872.00
57.6723 971.00
57.9766 861.00
58.2808 1063.00
58.5851 1238.00
58.8893 1552.00
59.1936 1575.00
59.4979 1644.00
59.8021 997.00
60.1064 980.00
60.4106 1176.00
60.7149 945.00
61.0192 902.00
61.3234 1256.00
61.6277 1590.00
61.932 1267.00
62.2362 1092.00
62.5405 1045.00
62.8447 1074.00
63.149 1057.00
63.4533 843.00
63.7575 762.00
64.0618 727.00
64.366 788.00
64.6703 836.00
64.9745 1006.00
65.2788 1103.00
65.5831 1113.00
65.8873 1122.00
66.1916 1126.00
66.4959 1240.00
66.8001 1001.00
67.1044 826.00
67.4086 760.00
67.7129 734.00
68.0172 728.00
68.3214 696.00
68.6257 918.00
68.9299 1086.00
69.2342 828.00
69.5385 775.00
69.8427 739.00
70.147 775.00
70.4512 777.00
70.7555 735.00
71.0598 751.00
71.364 773.00
71.6683 812.00
71.9725 829.00
72.2768 1008.00
72.5811 1180.00
72.8853 1037.00
73.1896 858.00
73.4938 835.00
73.7981 789.00
74.1024 842.00
74.4066 827.00
74.7109 755.00
75.0151 708.00
75.3194 806.00
75.6237 979.00
75.9279 1021.00
76.2322 869.00
76.5364 777.00
76.8407 854.00
77.145 856.00
77.4492 783.00
77.7535 765.00
78.0577 776.00
78.362 719.00
78.6663 711.00
78.9705 699.00
79.2748 789.00
79.579 878.00
79.8833 891.00
80.1876 771.00
80.4918 907.00
80.7961 1094.00
81.1003 900.00
81.4046 801.00
81.7089 731.00
82.0131 752.00
82.3174 836.00
82.6217 877.00
82.9259 717.00
83.2302 755.00
83.5344 768.00
83.8387 727.00
84.143 771.00
84.4472 767.00
84.7515 789.00
85.0557 741.00
85.36 764.00
85.6643 774.00
85.9685 861.00
86.2728 773.00
86.577 867.00
86.8813 931.00
87.1856 997.00
87.4898 887.00
87.7941 836.00
88.0983 812.00
88.4026 755.00
88.7069 777.00
89.0111 811.00
89.3154 837.00
89.6196 862.00
89.9239 774.00
90.2282 780.00
90.5324 811.00
90.8367 828.00
91.1409 766.00
91.4452 784.00
91.7495 747.00
92.0537 780.00
92.358 789.00
92.6622 924.00
92.9665 873.00
93.2708 924.00
93.575 907.00
93.8793 907.00
94.1835 809.00
94.4878 743.00
94.7921 722.00
95.0963 781.00
95.4006 748.00
95.7048 828.00
96.0091 847.00
96.3134 818.00
96.6176 768.00
96.9219 783.00
97.2261 822.00
97.5304 809.00
97.8347 798.00
98.1389 740.00
98.4432 740.00
98.7474 745.00
99.0517 771.00
99.356 836.00
99.6602 900.00
99.9645 986.00
100.095 1020.00