File: data/xrd_creation/results/NSC_25.xy
9.903433 2681.00
10.2077 2520.00
10.512 2399.00
10.8162 2395.00
11.1205 2230.00
11.4247 2144.00
11.729 2103.00
12.0333 1995.00
12.3375 1993.00
12.6418 1934.00
12.946 1850.00
13.2503 1813.00
13.5546 1788.00
13.8588 1830.00
14.1631 1853.00
14.4673 1791.00
14.7716 1774.00
15.0759 2528.00
15.3801 4535.00
15.6844 1676.00
15.9886 1626.00
16.2929 1508.00
16.5972 1516.00
16.9014 1562.00
17.2057 1455.00
17.5099 1461.00
17.8142 1412.00
18.1185 1396.00
18.4227 1436.00
18.727 1374.00
19.0312 1419.00
19.3355 1367.00
19.6398 1904.00
19.944 1899.00
20.2483 1740.00
20.5525 3718.00
20.8568 6574.00
21.1611 4207.00
21.4653 1662.00
21.7696 2371.00
22.0738 8010.00
22.3781 2103.00
22.6824 1445.00
22.9866 1398.00
23.2909 1396.00
23.5951 2267.00
23.8994 1886.00
24.2037 1293.00
24.5079 1321.00
24.8122 1434.00
25.1164 2557.00
25.4207 14819.00
25.725 2284.00
26.0292 3786.00
26.3335 8994.00
26.6378 1403.00
26.942 1396.00
27.2463 1176.00
27.5505 1178.00
27.8548 1154.00
28.1591 1206.00
28.4633 2104.00
28.7676 1428.00
29.0718 1130.00
29.3761 1051.00
29.6804 1070.00
29.9846 1132.00
30.2889 1835.00
30.5931 9793.00
30.8974 1523.00
31.2017 1240.00
31.5059 2803.00
31.8102 1537.00
32.1144 1023.00
32.4187 997.00
32.723 1074.00
33.0272 1349.00
33.3315 3400.00
33.6357 11870.00
33.94 1585.00
34.2443 3308.00
34.5485 1177.00
34.8528 1035.00
35.157 1257.00
35.4613 1304.00
35.7656 1848.00
36.0698 1712.00
36.3741 1562.00
36.6783 957.00
36.9826 896.00
37.2869 896.00
37.5911 1057.00
37.8954 2100.00
38.1996 2103.00
38.5039 3693.00
38.8082 3240.00
39.1124 1197.00
39.4167 975.00
39.7209 2846.00
40.0252 1093.00
40.3295 933.00
40.6337 1494.00
40.938 1210.00
41.2422 970.00
41.5465 1026.00
41.8508 1423.00
42.155 2323.00
42.4593 1633.00
42.7635 970.00
43.0678 936.00
43.3721 975.00
43.6763 840.00
43.9806 1358.00
44.2849 1426.00
44.5891 833.00
44.8934 1380.00
45.1976 1717.00
45.5019 1028.00
45.8062 790.00
46.1104 1014.00
46.4147 1934.00
46.7189 1619.00
47.0232 938.00
47.3275 823.00
47.6317 1171.00
47.936 1148.00
48.2402 3220.00
48.5445 1993.00
48.8488 1972.00
49.153 1295.00
49.4573 953.00
49.7615 1962.00
50.0658 2174.00
50.3701 903.00
50.6743 903.00
50.9786 1291.00
51.2828 1099.00
51.5871 1465.00
51.8914 3855.00
52.1956 2062.00
52.4999 917.00
52.8041 954.00
53.1084 1273.00
53.4127 1162.00
53.7169 1389.00
54.0212 775.00
54.3254 926.00
54.6297 1035.00
54.934 2315.00
55.2382 2137.00
55.5425 1246.00
55.8467 1359.00
56.151 1406.00
56.4553 1023.00
56.7595 806.00
57.0638 936.00
57.368 889.00
57.6723 879.00
57.9766 809.00
58.2808 977.00
58.5851 2024.00
58.8893 1962.00
59.1936 2025.00
59.4979 939.00
59.8021 1322.00
60.1064 2604.00
60.4106 2519.00
60.7149 2598.00
61.0192 1147.00
61.3234 1097.00
61.6277 1325.00
61.932 1816.00
62.2362 1314.00
62.5405 939.00
62.8447 806.00
63.149 1025.00
63.4533 1416.00
63.7575 962.00
64.0618 980.00
64.366 1270.00
64.6703 2473.00
64.9745 1136.00
65.2788 960.00
65.5831 1296.00
65.8873 1498.00
66.1916 3153.00
66.4959 4187.00
66.8001 1574.00
67.1044 1356.00
67.4086 1312.00
67.7129 943.00
68.0172 985.00
68.3214 845.00
68.6257 813.00
68.9299 1142.00
69.2342 1889.00
69.5385 1835.00
69.8427 1614.00
70.147 1004.00
70.4512 1383.00
70.7555 1611.00
71.0598 1556.00
71.364 943.00
71.6683 802.00
71.9725 688.00
72.2768 720.00
72.5811 710.00
72.8853 723.00
73.1896 877.00
73.4938 1374.00
73.7981 1325.00
74.1024 1157.00
74.4066 815.00
74.7109 768.00
75.0151 945.00
75.3194 1022.00
75.6237 1050.00
75.9279 836.00
76.2322 749.00
76.5364 847.00
76.8407 804.00
77.145 721.00
77.4492 981.00
77.7535 1550.00
78.0577 1511.00
78.362 1007.00
78.6663 1016.00
78.9705 969.00
79.2748 1258.00
79.579 1202.00
79.8833 1061.00
80.1876 1325.00
80.4918 1087.00
80.7961 798.00
81.1003 794.00
81.4046 657.00
81.7089 703.00
82.0131 761.00
82.3174 1045.00
82.6217 1233.00
82.9259 948.00
83.2302 777.00
83.5344 766.00
83.8387 814.00
84.143 802.00
84.4472 888.00
84.7515 849.00
85.0557 862.00
85.36 785.00
85.6643 705.00
85.9685 817.00
86.2728 959.00
86.577 1079.00
86.8813 923.00
87.1856 800.00
87.4898 895.00
87.7941 1275.00
88.0983 1016.00
88.4026 741.00
88.7069 888.00
89.0111 787.00
89.3154 741.00
89.6196 732.00
89.9239 835.00
90.2282 807.00
90.5324 700.00
90.8367 643.00
91.1409 796.00
91.4452 812.00
91.7495 1052.00
92.0537 1072.00
92.358 1015.00
92.6622 1312.00
92.9665 1279.00
93.2708 1287.00
93.575 1054.00
93.8793 791.00
94.1835 793.00
94.4878 801.00
94.7921 779.00
95.0963 748.00
95.4006 767.00
95.7048 831.00
96.0091 904.00
96.3134 965.00
96.6176 843.00
96.9219 824.00
97.2261 831.00
97.5304 746.00
97.8347 756.00
98.1389 796.00
98.4432 1018.00
98.7474 1004.00
99.0517 922.00
99.356 931.00
99.6602 1068.00
99.9645 1045.00
100.095 1046.00