File: data/xrd_creation/results/NSC_96.xy
9.903433 2631.00
10.2077 2522.00
10.512 2447.00
10.8162 2320.00
11.1205 2192.00
11.4247 2047.00
11.729 1976.00
12.0333 1954.00
12.3375 1842.00
12.6418 1748.00
12.946 1627.00
13.2503 1625.00
13.5546 1602.00
13.8588 1458.00
14.1631 1524.00
14.4673 1387.00
14.7716 1362.00
15.0759 1314.00
15.3801 1289.00
15.6844 1260.00
15.9886 1231.00
16.2929 1167.00
16.5972 1206.00
16.9014 1183.00
17.2057 1107.00
17.5099 1133.00
17.8142 1105.00
18.1185 1049.00
18.4227 1029.00
18.727 1074.00
19.0312 931.00
19.3355 933.00
19.6398 1013.00
19.944 894.00
20.2483 969.00
20.5525 976.00
20.8568 845.00
21.1611 843.00
21.4653 788.00
21.7696 834.00
22.0738 772.00
22.3781 793.00
22.6824 757.00
22.9866 779.00
23.2909 746.00
23.5951 792.00
23.8994 788.00
24.2037 698.00
24.5079 725.00
24.8122 674.00
25.1164 626.00
25.4207 626.00
25.725 662.00
26.0292 626.00
26.3335 680.00
26.6378 621.00
26.942 577.00
27.2463 636.00
27.5505 604.00
27.8548 595.00
28.1591 618.00
28.4633 579.00
28.7676 644.00
29.0718 523.00
29.3761 540.00
29.6804 573.00
29.9846 541.00
30.2889 510.00
30.5931 535.00
30.8974 483.00
31.2017 496.00
31.5059 508.00
31.8102 495.00
32.1144 481.00
32.4187 461.00
32.723 443.00
33.0272 432.00
33.3315 459.00
33.6357 456.00
33.94 435.00
34.2443 427.00
34.5485 412.00
34.8528 419.00
35.157 408.00
35.4613 422.00
35.7656 433.00
36.0698 401.00
36.3741 448.00
36.6783 388.00
36.9826 398.00
37.2869 373.00
37.5911 368.00
37.8954 415.00
38.1996 355.00
38.5039 373.00
38.8082 368.00
39.1124 382.00
39.4167 335.00
39.7209 320.00
40.0252 338.00
40.3295 360.00
40.6337 322.00
40.938 305.00
41.2422 323.00
41.5465 335.00
41.8508 275.00
42.155 288.00
42.4593 331.00
42.7635 334.00
43.0678 294.00
43.3721 310.00
43.6763 322.00
43.9806 280.00
44.2849 259.00
44.5891 269.00
44.8934 278.00
45.1976 268.00
45.5019 280.00
45.8062 259.00
46.1104 282.00
46.4147 283.00
46.7189 277.00
47.0232 285.00
47.3275 289.00
47.6317 268.00
47.936 239.00
48.2402 278.00
48.5445 233.00
48.8488 279.00
49.153 245.00
49.4573 247.00
49.7615 241.00
50.0658 249.00
50.3701 245.00
50.6743 226.00
50.9786 250.00
51.2828 275.00
51.5871 257.00
51.8914 245.00
52.1956 261.00
52.4999 225.00
52.8041 205.00
53.1084 214.00
53.4127 223.00
53.7169 260.00
54.0212 236.00
54.3254 218.00
54.6297 220.00
54.934 232.00
55.2382 200.00
55.5425 234.00
55.8467 214.00
56.151 201.00
56.4553 209.00
56.7595 200.00
57.0638 226.00
57.368 208.00
57.6723 197.00
57.9766 220.00
58.2808 183.00
58.5851 183.00
58.8893 213.00
59.1936 213.00
59.4979 189.00
59.8021 192.00
60.1064 199.00
60.4106 208.00
60.7149 181.00
61.0192 187.00
61.3234 199.00
61.6277 201.00
61.932 183.00
62.2362 164.00
62.5405 174.00
62.8447 206.00
63.149 207.00
63.4533 210.00
63.7575 161.00
64.0618 159.00
64.366 180.00
64.6703 187.00
64.9745 193.00
65.2788 175.00
65.5831 196.00
65.8873 204.00
66.1916 186.00
66.4959 169.00
66.8001 181.00
67.1044 173.00
67.4086 135.00
67.7129 177.00
68.0172 162.00
68.3214 177.00
68.6257 195.00
68.9299 175.00
69.2342 206.00
69.5385 192.00
69.8427 177.00
70.147 153.00
70.4512 183.00
70.7555 191.00
71.0598 166.00
71.364 178.00
71.6683 168.00
71.9725 176.00
72.2768 192.00
72.5811 195.00
72.8853 182.00
73.1896 197.00
73.4938 215.00
73.7981 202.00
74.1024 156.00
74.4066 188.00
74.7109 183.00
75.0151 220.00
75.3194 151.00
75.6237 193.00
75.9279 217.00
76.2322 213.00
76.5364 193.00
76.8407 204.00
77.145 209.00
77.4492 176.00
77.7535 206.00
78.0577 193.00
78.362 200.00
78.6663 206.00
78.9705 189.00
79.2748 197.00
79.579 205.00
79.8833 239.00
80.1876 199.00
80.4918 217.00
80.7961 215.00
81.1003 231.00
81.4046 227.00
81.7089 195.00
82.0131 229.00
82.3174 213.00
82.6217 184.00
82.9259 213.00
83.2302 211.00
83.5344 212.00
83.8387 238.00
84.143 206.00
84.4472 213.00
84.7515 221.00
85.0557 217.00
85.36 240.00
85.6643 211.00
85.9685 171.00
86.2728 196.00
86.577 195.00
86.8813 193.00
87.1856 213.00
87.4898 197.00
87.7941 178.00
88.0983 189.00
88.4026 161.00
88.7069 195.00
89.0111 181.00
89.3154 178.00
89.6196 199.00
89.9239 158.00
90.2282 180.00
90.5324 173.00
90.8367 181.00
91.1409 182.00
91.4452 201.00
91.7495 197.00
92.0537 175.00
92.358 177.00
92.6622 153.00
92.9665 182.00
93.2708 175.00
93.575 153.00
93.8793 163.00
94.1835 180.00
94.4878 174.00
94.7921 199.00
95.0963 165.00
95.4006 190.00
95.7048 196.00
96.0091 180.00
96.3134 167.00
96.6176 202.00
96.9219 164.00
97.2261 189.00
97.5304 174.00
97.8347 154.00
98.1389 186.00
98.4432 178.00
98.7474 187.00
99.0517 175.00
99.356 175.00
99.6602 192.00
99.9645 177.00
100.095 149.00