File: data/xrd_creation/results/NSC_213.xy
9.903433 2819.00
10.2077 2576.00
10.512 2533.00
10.8162 2521.00
11.1205 2388.00
11.4247 2288.00
11.729 2193.00
12.0333 2128.00
12.3375 2054.00
12.6418 2014.00
12.946 2015.00
13.2503 1829.00
13.5546 1823.00
13.8588 1863.00
14.1631 1723.00
14.4673 1730.00
14.7716 1717.00
15.0759 1643.00
15.3801 1666.00
15.6844 1683.00
15.9886 1650.00
16.2929 1561.00
16.5972 1534.00
16.9014 1574.00
17.2057 1616.00
17.5099 1894.00
17.8142 1533.00
18.1185 1464.00
18.4227 1541.00
18.727 1437.00
19.0312 1433.00
19.3355 1392.00
19.6398 1387.00
19.944 1788.00
20.2483 1607.00
20.5525 1481.00
20.8568 1465.00
21.1611 1378.00
21.4653 1534.00
21.7696 1300.00
22.0738 1337.00
22.3781 1230.00
22.6824 1276.00
22.9866 1257.00
23.2909 1271.00
23.5951 1252.00
23.8994 1568.00
24.2037 2410.00
24.5079 2059.00
24.8122 1391.00
25.1164 1262.00
25.4207 1382.00
25.725 1132.00
26.0292 1166.00
26.3335 1226.00
26.6378 1104.00
26.942 1113.00
27.2463 1117.00
27.5505 1227.00
27.8548 1648.00
28.1591 6004.00
28.4633 4661.00
28.7676 1486.00
29.0718 1104.00
29.3761 1041.00
29.6804 1041.00
29.9846 1149.00
30.2889 1187.00
30.5931 2786.00
30.8974 1324.00
31.2017 1778.00
31.5059 5017.00
31.8102 3067.00
32.1144 1191.00
32.4187 1077.00
32.723 1270.00
33.0272 1271.00
33.3315 1138.00
33.6357 977.00
33.94 1217.00
34.2443 2681.00
34.5485 2512.00
34.8528 1212.00
35.157 1324.00
35.4613 2800.00
35.7656 1182.00
36.0698 1261.00
36.3741 864.00
36.6783 772.00
36.9826 766.00
37.2869 787.00
37.5911 815.00
37.8954 958.00
38.1996 734.00
38.5039 988.00
38.8082 1070.00
39.1124 768.00
39.4167 725.00
39.7209 650.00
40.0252 770.00
40.3295 741.00
40.6337 896.00
40.938 1419.00
41.2422 1113.00
41.5465 1067.00
41.8508 769.00
42.155 594.00
42.4593 614.00
42.7635 578.00
43.0678 622.00
43.3721 607.00
43.6763 621.00
43.9806 570.00
44.2849 591.00
44.5891 664.00
44.8934 719.00
45.1976 785.00
45.5019 782.00
45.8062 979.00
46.1104 579.00
46.4147 608.00
46.7189 545.00
47.0232 587.00
47.3275 578.00
47.6317 541.00
47.936 612.00
48.2402 628.00
48.5445 544.00
48.8488 575.00
49.153 895.00
49.4573 1426.00
49.7615 934.00
50.0658 1022.00
50.3701 1649.00
50.6743 1272.00
50.9786 1365.00
51.2828 727.00
51.5871 755.00
51.8914 583.00
52.1956 523.00
52.4999 586.00
52.8041 562.00
53.1084 505.00
53.4127 512.00
53.7169 529.00
54.0212 762.00
54.3254 940.00
54.6297 815.00
54.934 607.00
55.2382 762.00
55.5425 1071.00
55.8467 1264.00
56.151 958.00
56.4553 725.00
56.7595 512.00
57.0638 601.00
57.368 672.00
57.6723 767.00
57.9766 624.00
58.2808 749.00
58.5851 711.00
58.8893 587.00
59.1936 529.00
59.4979 537.00
59.8021 673.00
60.1064 846.00
60.4106 914.00
60.7149 738.00
61.0192 503.00
61.3234 529.00
61.6277 664.00
61.932 722.00
62.2362 849.00
62.5405 664.00
62.8447 696.00
63.149 738.00
63.4533 673.00
63.7575 461.00
64.0618 498.00
64.366 485.00
64.6703 568.00
64.9745 466.00
65.2788 494.00
65.5831 551.00
65.8873 651.00
66.1916 726.00
66.4959 479.00
66.8001 377.00
67.1044 383.00
67.4086 403.00
67.7129 409.00
68.0172 389.00
68.3214 385.00
68.6257 413.00
68.9299 426.00
69.2342 432.00
69.5385 483.00
69.8427 408.00
70.147 447.00
70.4512 395.00
70.7555 403.00
71.0598 419.00
71.364 496.00
71.6683 508.00
71.9725 448.00
72.2768 398.00
72.5811 454.00
72.8853 444.00
73.1896 431.00
73.4938 407.00
73.7981 359.00
74.1024 362.00
74.4066 350.00
74.7109 412.00
75.0151 493.00
75.3194 503.00
75.6237 522.00
75.9279 445.00
76.2322 389.00
76.5364 435.00
76.8407 423.00
77.145 411.00
77.4492 411.00
77.7535 442.00
78.0577 467.00
78.362 450.00
78.6663 428.00
78.9705 420.00
79.2748 457.00
79.579 481.00
79.8833 402.00
80.1876 370.00
80.4918 377.00
80.7961 383.00
81.1003 362.00
81.4046 394.00
81.7089 382.00
82.0131 519.00
82.3174 448.00
82.6217 433.00
82.9259 439.00
83.2302 503.00
83.5344 481.00
83.8387 514.00
84.143 450.00
84.4472 467.00
84.7515 433.00
85.0557 400.00
85.36 397.00
85.6643 418.00
85.9685 403.00
86.2728 413.00
86.577 367.00
86.8813 378.00
87.1856 380.00
87.4898 365.00
87.7941 369.00
88.0983 428.00
88.4026 444.00
88.7069 446.00
89.0111 438.00
89.3154 428.00
89.6196 433.00
89.9239 448.00
90.2282 414.00
90.5324 400.00
90.8367 360.00
91.1409 347.00
91.4452 363.00
91.7495 335.00
92.0537 336.00
92.358 343.00
92.6622 305.00
92.9665 309.00
93.2708 345.00
93.575 333.00
93.8793 355.00
94.1835 334.00
94.4878 406.00
94.7921 390.00
95.0963 395.00
95.4006 395.00
95.7048 413.00
96.0091 389.00
96.3134 347.00
96.6176 370.00
96.9219 432.00
97.2261 463.00
97.5304 404.00
97.8347 427.00
98.1389 380.00
98.4432 370.00
98.7474 409.00
99.0517 396.00
99.356 417.00
99.6602 389.00
99.9645 436.00
100.095 439.00