File: data/xrd_creation/results/NSC_129.xy
9.903433 2782.00
10.2077 2786.00
10.512 2579.00
10.8162 2532.00
11.1205 2452.00
11.4247 2431.00
11.729 2369.00
12.0333 2221.00
12.3375 2251.00
12.6418 2103.00
12.946 2208.00
13.2503 2019.00
13.5546 2020.00
13.8588 2016.00
14.1631 2121.00
14.4673 2913.00
14.7716 2504.00
15.0759 3469.00
15.3801 1927.00
15.6844 1894.00
15.9886 1860.00
16.2929 1813.00
16.5972 1783.00
16.9014 1805.00
17.2057 1822.00
17.5099 1754.00
17.8142 1725.00
18.1185 1795.00
18.4227 1774.00
18.727 2239.00
19.0312 2743.00
19.3355 1677.00
19.6398 1816.00
19.944 2965.00
20.2483 2716.00
20.5525 3842.00
20.8568 6568.00
21.1611 2253.00
21.4653 4172.00
21.7696 7991.00
22.0738 2744.00
22.3781 1792.00
22.6824 1650.00
22.9866 1653.00
23.2909 1694.00
23.5951 1652.00
23.8994 3080.00
24.2037 2563.00
24.5079 4089.00
24.8122 4664.00
25.1164 4114.00
25.4207 1956.00
25.725 1598.00
26.0292 1565.00
26.3335 1666.00
26.6378 2331.00
26.942 2153.00
27.2463 1443.00
27.5505 1625.00
27.8548 1550.00
28.1591 1485.00
28.4633 1466.00
28.7676 2349.00
29.0718 2349.00
29.3761 1620.00
29.6804 2246.00
29.9846 3923.00
30.2889 2866.00
30.5931 1903.00
30.8974 2915.00
31.2017 1762.00
31.5059 1589.00
31.8102 2292.00
32.1144 2497.00
32.4187 1562.00
32.723 2010.00
33.0272 4187.00
33.3315 3278.00
33.6357 1830.00
33.94 1826.00
34.2443 1478.00
34.5485 1457.00
34.8528 1341.00
35.157 1364.00
35.4613 1544.00
35.7656 2298.00
36.0698 2615.00
36.3741 4008.00
36.6783 2027.00
36.9826 1844.00
37.2869 2264.00
37.5911 2613.00
37.8954 1909.00
38.1996 2047.00
38.5039 1378.00
38.8082 1284.00
39.1124 1262.00
39.4167 1305.00
39.7209 1607.00
40.0252 1369.00
40.3295 1312.00
40.6337 1382.00
40.938 1287.00
41.2422 1272.00
41.5465 1224.00
41.8508 1578.00
42.155 1445.00
42.4593 1298.00
42.7635 1221.00
43.0678 1227.00
43.3721 1377.00
43.6763 2296.00
43.9806 1541.00
44.2849 1578.00
44.5891 1402.00
44.8934 1253.00
45.1976 1360.00
45.5019 1627.00
45.8062 1950.00
46.1104 1533.00
46.4147 1373.00
46.7189 1588.00
47.0232 1786.00
47.3275 1683.00
47.6317 1887.00
47.936 1705.00
48.2402 1759.00
48.5445 2078.00
48.8488 2011.00
49.153 1841.00
49.4573 1791.00
49.7615 2797.00
50.0658 1506.00
50.3701 1540.00
50.6743 1775.00
50.9786 1876.00
51.2828 1580.00
51.5871 1459.00
51.8914 1411.00
52.1956 1643.00
52.4999 1552.00
52.8041 1410.00
53.1084 1316.00
53.4127 1301.00
53.7169 1340.00
54.0212 1532.00
54.3254 1985.00
54.6297 1937.00
54.934 2363.00
55.2382 1731.00
55.5425 1457.00
55.8467 1457.00
56.151 1738.00
56.4553 1682.00
56.7595 1352.00
57.0638 1340.00
57.368 1458.00
57.6723 1559.00
57.9766 1631.00
58.2808 2221.00
58.5851 2714.00
58.8893 1890.00
59.1936 1648.00
59.4979 1689.00
59.8021 1490.00
60.1064 1274.00
60.4106 1279.00
60.7149 1438.00
61.0192 1435.00
61.3234 1461.00
61.6277 1501.00
61.932 1497.00
62.2362 1428.00
62.5405 1361.00
62.8447 1374.00
63.149 1805.00
63.4533 1932.00
63.7575 1721.00
64.0618 1728.00
64.366 1772.00
64.6703 1501.00
64.9745 1456.00
65.2788 1597.00
65.5831 1584.00
65.8873 1536.00
66.1916 1418.00
66.4959 1232.00
66.8001 1417.00
67.1044 1456.00
67.4086 1788.00
67.7129 1718.00
68.0172 1481.00
68.3214 1486.00
68.6257 1740.00
68.9299 1480.00
69.2342 1430.00
69.5385 1280.00
69.8427 1277.00
70.147 1416.00
70.4512 1306.00
70.7555 1357.00
71.0598 1235.00
71.364 1247.00
71.6683 1248.00
71.9725 1260.00
72.2768 1409.00
72.5811 1291.00
72.8853 1444.00
73.1896 1245.00
73.4938 1172.00
73.7981 1285.00
74.1024 1110.00
74.4066 1184.00
74.7109 1199.00
75.0151 1356.00
75.3194 1347.00
75.6237 1451.00
75.9279 1541.00
76.2322 1417.00
76.5364 1311.00
76.8407 1349.00
77.145 1407.00
77.4492 1207.00
77.7535 1157.00
78.0577 1232.00
78.362 1305.00
78.6663 1244.00
78.9705 1266.00
79.2748 1237.00
79.579 1346.00
79.8833 1388.00
80.1876 1219.00
80.4918 1279.00
80.7961 1247.00
81.1003 1263.00
81.4046 1148.00
81.7089 1138.00
82.0131 1213.00
82.3174 1173.00
82.6217 1267.00
82.9259 1165.00
83.2302 1205.00
83.5344 1205.00
83.8387 1275.00
84.143 1376.00
84.4472 1299.00
84.7515 1372.00
85.0557 1360.00
85.36 1310.00
85.6643 1205.00
85.9685 1269.00
86.2728 1302.00
86.577 1236.00
86.8813 1253.00
87.1856 1199.00
87.4898 1178.00
87.7941 1200.00
88.0983 1183.00
88.4026 1176.00
88.7069 1194.00
89.0111 1287.00
89.3154 1341.00
89.6196 1263.00
89.9239 1164.00
90.2282 1223.00
90.5324 1270.00
90.8367 1272.00
91.1409 1399.00
91.4452 1376.00
91.7495 1353.00
92.0537 1453.00
92.358 1355.00
92.6622 1220.00
92.9665 1222.00
93.2708 1230.00
93.575 1227.00
93.8793 1180.00
94.1835 1190.00
94.4878 1170.00
94.7921 1159.00
95.0963 1249.00
95.4006 1238.00
95.7048 1245.00
96.0091 1248.00
96.3134 1196.00
96.6176 1219.00
96.9219 1280.00
97.2261 1217.00
97.5304 1208.00
97.8347 1258.00
98.1389 1201.00
98.4432 1170.00
98.7474 1193.00
99.0517 1149.00
99.356 1197.00
99.6602 1192.00
99.9645 1189.00
100.095 1175.00