File: data/xrd_creation/results/NSC_59.xy
9.903433 2990.00
10.2077 2810.00
10.512 2787.00
10.8162 2660.00
11.1205 2641.00
11.4247 2563.00
11.729 2458.00
12.0333 2319.00
12.3375 2248.00
12.6418 2335.00
12.946 2196.00
13.2503 2127.00
13.5546 2246.00
13.8588 3559.00
14.1631 2176.00
14.4673 2073.00
14.7716 2005.00
15.0759 2081.00
15.3801 1945.00
15.6844 1873.00
15.9886 1997.00
16.2929 1895.00
16.5972 1912.00
16.9014 1888.00
17.2057 1818.00
17.5099 1793.00
17.8142 1876.00
18.1185 1794.00
18.4227 1678.00
18.727 1827.00
19.0312 2020.00
19.3355 7546.00
19.6398 2659.00
19.944 3558.00
20.2483 8542.00
20.5525 1928.00
20.8568 1724.00
21.1611 1612.00
21.4653 1632.00
21.7696 1708.00
22.0738 1552.00
22.3781 1502.00
22.6824 1678.00
22.9866 2087.00
23.2909 10064.00
23.5951 2691.00
23.8994 1700.00
24.2037 1616.00
24.5079 1580.00
24.8122 1492.00
25.1164 1534.00
25.4207 1357.00
25.725 1510.00
26.0292 1589.00
26.3335 1472.00
26.6378 1338.00
26.942 1375.00
27.2463 1396.00
27.5505 1457.00
27.8548 1889.00
28.1591 7357.00
28.4633 1860.00
28.7676 1349.00
29.0718 1356.00
29.3761 1290.00
29.6804 1271.00
29.9846 1430.00
30.2889 1418.00
30.5931 1555.00
30.8974 4715.00
31.2017 7815.00
31.5059 2514.00
31.8102 1278.00
32.1144 1190.00
32.4187 1298.00
32.723 1278.00
33.0272 1301.00
33.3315 1325.00
33.6357 1441.00
33.94 1332.00
34.2443 1189.00
34.5485 1393.00
34.8528 3139.00
35.157 2906.00
35.4613 4400.00
35.7656 1496.00
36.0698 1176.00
36.3741 1114.00
36.6783 1143.00
36.9826 1099.00
37.2869 1149.00
37.5911 1067.00
37.8954 1101.00
38.1996 1008.00
38.5039 1150.00
38.8082 1046.00
39.1124 1143.00
39.4167 1536.00
39.7209 1264.00
40.0252 1064.00
40.3295 1076.00
40.6337 1157.00
40.938 1562.00
41.2422 1793.00
41.5465 1280.00
41.8508 1194.00
42.155 1078.00
42.4593 1074.00
42.7635 1945.00
43.0678 1601.00
43.3721 1105.00
43.6763 1176.00
43.9806 1011.00
44.2849 1067.00
44.5891 1958.00
44.8934 2391.00
45.1976 1214.00
45.5019 1098.00
45.8062 1993.00
46.1104 1625.00
46.4147 1690.00
46.7189 1195.00
47.0232 1036.00
47.3275 1113.00
47.6317 2208.00
47.936 3219.00
48.2402 1487.00
48.5445 1410.00
48.8488 1183.00
49.153 1090.00
49.4573 954.00
49.7615 933.00
50.0658 1148.00
50.3701 1072.00
50.6743 1202.00
50.9786 2249.00
51.2828 2415.00
51.5871 1634.00
51.8914 1082.00
52.1956 950.00
52.4999 982.00
52.8041 1007.00
53.1084 978.00
53.4127 934.00
53.7169 977.00
54.0212 1678.00
54.3254 1349.00
54.6297 1124.00
54.934 1913.00
55.2382 3282.00
55.5425 2404.00
55.8467 1362.00
56.151 1047.00
56.4553 1021.00
56.7595 1079.00
57.0638 1084.00
57.368 918.00
57.6723 1187.00
57.9766 1347.00
58.2808 1325.00
58.5851 1066.00
58.8893 949.00
59.1936 956.00
59.4979 1427.00
59.8021 1891.00
60.1064 1278.00
60.4106 1062.00
60.7149 1560.00
61.0192 2025.00
61.3234 1384.00
61.6277 1149.00
61.932 1458.00
62.2362 1368.00
62.5405 1256.00
62.8447 1114.00
63.149 1274.00
63.4533 1517.00
63.7575 1510.00
64.0618 1155.00
64.366 929.00
64.6703 968.00
64.9745 1072.00
65.2788 1018.00
65.5831 1114.00
65.8873 1454.00
66.1916 1210.00
66.4959 933.00
66.8001 939.00
67.1044 1186.00
67.4086 1271.00
67.7129 1196.00
68.0172 1011.00
68.3214 918.00
68.6257 1073.00
68.9299 1063.00
69.2342 898.00
69.5385 855.00
69.8427 862.00
70.147 872.00
70.4512 915.00
70.7555 1206.00
71.0598 1352.00
71.364 1017.00
71.6683 837.00
71.9725 870.00
72.2768 778.00
72.5811 786.00
72.8853 810.00
73.1896 1008.00
73.4938 1163.00
73.7981 1142.00
74.1024 967.00
74.4066 969.00
74.7109 1195.00
75.0151 1308.00
75.3194 1226.00
75.6237 926.00
75.9279 927.00
76.2322 809.00
76.5364 817.00
76.8407 854.00
77.145 877.00
77.4492 878.00
77.7535 770.00
78.0577 909.00
78.362 1077.00
78.6663 1203.00
78.9705 1139.00
79.2748 952.00
79.579 812.00
79.8833 864.00
80.1876 855.00
80.4918 1008.00
80.7961 1070.00
81.1003 988.00
81.4046 819.00
81.7089 780.00
82.0131 812.00
82.3174 789.00
82.6217 819.00
82.9259 980.00
83.2302 1025.00
83.5344 1045.00
83.8387 908.00
84.143 856.00
84.4472 933.00
84.7515 943.00
85.0557 1000.00
85.36 1028.00
85.6643 980.00
85.9685 1002.00
86.2728 971.00
86.577 861.00
86.8813 822.00
87.1856 812.00
87.4898 833.00
87.7941 875.00
88.0983 867.00
88.4026 862.00
88.7069 867.00
89.0111 951.00
89.3154 1194.00
89.6196 1031.00
89.9239 950.00
90.2282 857.00
90.5324 829.00
90.8367 831.00
91.1409 934.00
91.4452 974.00
91.7495 910.00
92.0537 835.00
92.358 842.00
92.6622 833.00
92.9665 846.00
93.2708 857.00
93.575 916.00
93.8793 926.00
94.1835 906.00
94.4878 888.00
94.7921 1014.00
95.0963 989.00
95.4006 905.00
95.7048 862.00
96.0091 960.00
96.3134 984.00
96.6176 975.00
96.9219 837.00
97.2261 787.00
97.5304 734.00
97.8347 744.00
98.1389 709.00
98.4432 762.00
98.7474 890.00
99.0517 900.00
99.356 856.00
99.6602 907.00
99.9645 1028.00
100.095 1034.00