File: data/xrd_creation/results/NSC_23.xy
9.903433 2922.00
10.2077 2929.00
10.512 2945.00
10.8162 2706.00
11.1205 2670.00
11.4247 2581.00
11.729 2484.00
12.0333 2271.00
12.3375 2324.00
12.6418 2407.00
12.946 2234.00
13.2503 2132.00
13.5546 2137.00
13.8588 2254.00
14.1631 2126.00
14.4673 2367.00
14.7716 2787.00
15.0759 2107.00
15.3801 2057.00
15.6844 2012.00
15.9886 2093.00
16.2929 2077.00
16.5972 2047.00
16.9014 2046.00
17.2057 1956.00
17.5099 2084.00
17.8142 1913.00
18.1185 1949.00
18.4227 1926.00
18.727 1856.00
19.0312 1907.00
19.3355 2538.00
19.6398 1968.00
19.944 1847.00
20.2483 2001.00
20.5525 2137.00
20.8568 2869.00
21.1611 3960.00
21.4653 2942.00
21.7696 2029.00
22.0738 2505.00
22.3781 4338.00
22.6824 1929.00
22.9866 1740.00
23.2909 1579.00
23.5951 1777.00
23.8994 2075.00
24.2037 2006.00
24.5079 2065.00
24.8122 1578.00
25.1164 1624.00
25.4207 1622.00
25.725 2003.00
26.0292 1632.00
26.3335 1664.00
26.6378 1626.00
26.942 1740.00
27.2463 1584.00
27.5505 1783.00
27.8548 2227.00
28.1591 5289.00
28.4633 2734.00
28.7676 1689.00
29.0718 1722.00
29.3761 1660.00
29.6804 1614.00
29.9846 1566.00
30.2889 1853.00
30.5931 4095.00
30.8974 3052.00
31.2017 2206.00
31.5059 4147.00
31.8102 2000.00
32.1144 2015.00
32.4187 1704.00
32.723 2141.00
33.0272 3364.00
33.3315 2788.00
33.6357 2643.00
33.94 3176.00
34.2443 3030.00
34.5485 2031.00
34.8528 1523.00
35.157 1723.00
35.4613 1922.00
35.7656 1677.00
36.0698 1529.00
36.3741 1313.00
36.6783 1608.00
36.9826 1460.00
37.2869 1321.00
37.5911 1217.00
37.8954 1300.00
38.1996 1251.00
38.5039 1506.00
38.8082 1457.00
39.1124 1228.00
39.4167 1485.00
39.7209 1604.00
40.0252 1326.00
40.3295 1354.00
40.6337 1755.00
40.938 2420.00
41.2422 1789.00
41.5465 1722.00
41.8508 1300.00
42.155 1246.00
42.4593 1198.00
42.7635 1395.00
43.0678 1458.00
43.3721 1601.00
43.6763 1267.00
43.9806 1244.00
44.2849 1330.00
44.5891 1526.00
44.8934 1710.00
45.1976 1599.00
45.5019 1973.00
45.8062 1759.00
46.1104 1512.00
46.4147 1453.00
46.7189 1571.00
47.0232 1835.00
47.3275 1580.00
47.6317 1444.00
47.936 1454.00
48.2402 1382.00
48.5445 1259.00
48.8488 1389.00
49.153 1782.00
49.4573 1704.00
49.7615 1254.00
50.0658 1793.00
50.3701 1913.00
50.6743 1746.00
50.9786 1435.00
51.2828 1477.00
51.5871 1393.00
51.8914 1506.00
52.1956 1479.00
52.4999 1445.00
52.8041 1385.00
53.1084 1422.00
53.4127 1511.00
53.7169 1721.00
54.0212 1810.00
54.3254 1525.00
54.6297 1367.00
54.934 1416.00
55.2382 1666.00
55.5425 1815.00
55.8467 1598.00
56.151 1567.00
56.4553 1275.00
56.7595 1238.00
57.0638 1547.00
57.368 1834.00
57.6723 1558.00
57.9766 1588.00
58.2808 1628.00
58.5851 1399.00
58.8893 1362.00
59.1936 1306.00
59.4979 1406.00
59.8021 1893.00
60.1064 2054.00
60.4106 1606.00
60.7149 1401.00
61.0192 1399.00
61.3234 1557.00
61.6277 1247.00
61.932 1348.00
62.2362 1330.00
62.5405 1324.00
62.8447 1579.00
63.149 1277.00
63.4533 1133.00
63.7575 1096.00
64.0618 1193.00
64.366 1325.00
64.6703 1284.00
64.9745 1211.00
65.2788 1234.00
65.5831 1423.00
65.8873 1470.00
66.1916 1195.00
66.4959 1131.00
66.8001 1084.00
67.1044 1105.00
67.4086 1041.00
67.7129 1083.00
68.0172 1032.00
68.3214 999.00
68.6257 976.00
68.9299 1088.00
69.2342 1100.00
69.5385 1017.00
69.8427 1059.00
70.147 1113.00
70.4512 1180.00
70.7555 1071.00
71.0598 1209.00
71.364 1252.00
71.6683 1154.00
71.9725 1164.00
72.2768 1080.00
72.5811 1077.00
72.8853 980.00
73.1896 999.00
73.4938 1011.00
73.7981 1018.00
74.1024 1022.00
74.4066 1054.00
74.7109 1107.00
75.0151 1050.00
75.3194 1168.00
75.6237 1143.00
75.9279 1033.00
76.2322 1116.00
76.5364 1106.00
76.8407 1035.00
77.145 965.00
77.4492 1006.00
77.7535 993.00
78.0577 1025.00
78.362 976.00
78.6663 979.00
78.9705 1026.00
79.2748 1071.00
79.579 991.00
79.8833 1009.00
80.1876 945.00
80.4918 965.00
80.7961 908.00
81.1003 911.00
81.4046 983.00
81.7089 960.00
82.0131 1012.00
82.3174 1035.00
82.6217 1063.00
82.9259 1094.00
83.2302 1128.00
83.5344 1110.00
83.8387 1094.00
84.143 1097.00
84.4472 958.00
84.7515 986.00
85.0557 1004.00
85.36 902.00
85.6643 933.00
85.9685 940.00
86.2728 893.00
86.577 981.00
86.8813 1000.00
87.1856 907.00
87.4898 950.00
87.7941 1094.00
88.0983 1086.00
88.4026 1112.00
88.7069 1058.00
89.0111 1013.00
89.3154 999.00
89.6196 1106.00
89.9239 1115.00
90.2282 1061.00
90.5324 1036.00
90.8367 968.00
91.1409 1020.00
91.4452 1024.00
91.7495 952.00
92.0537 1000.00
92.358 902.00
92.6622 922.00
92.9665 926.00
93.2708 924.00
93.575 975.00
93.8793 983.00
94.1835 1000.00
94.4878 940.00
94.7921 953.00
95.0963 938.00
95.4006 1056.00
95.7048 963.00
96.0091 1000.00
96.3134 963.00
96.6176 1063.00
96.9219 1076.00
97.2261 1007.00
97.5304 973.00
97.8347 962.00
98.1389 974.00
98.4432 980.00
98.7474 999.00
99.0517 1056.00
99.356 1009.00
99.6602 936.00
99.9645 979.00
100.095 958.00