File: data/xrd_creation/results/NSC_44.xy
9.903433 3294.00
10.2077 3184.00
10.512 3402.00
10.8162 2986.00
11.1205 2797.00
11.4247 2830.00
11.729 2709.00
12.0333 2756.00
12.3375 2612.00
12.6418 2559.00
12.946 2557.00
13.2503 2512.00
13.5546 2374.00
13.8588 2369.00
14.1631 2333.00
14.4673 2341.00
14.7716 2295.00
15.0759 2324.00
15.3801 2170.00
15.6844 2166.00
15.9886 2104.00
16.2929 2043.00
16.5972 2107.00
16.9014 1985.00
17.2057 1994.00
17.5099 2019.00
17.8142 2138.00
18.1185 2283.00
18.4227 1786.00
18.727 1834.00
19.0312 1802.00
19.3355 1824.00
19.6398 1883.00
19.944 1728.00
20.2483 1943.00
20.5525 1926.00
20.8568 4991.00
21.1611 2457.00
21.4653 3122.00
21.7696 3914.00
22.0738 1644.00
22.3781 1677.00
22.6824 1655.00
22.9866 1686.00
23.2909 2413.00
23.5951 2453.00
23.8994 1658.00
24.2037 2778.00
24.5079 1591.00
24.8122 1448.00
25.1164 1482.00
25.4207 1473.00
25.725 1470.00
26.0292 1418.00
26.3335 1354.00
26.6378 1321.00
26.942 1404.00
27.2463 1399.00
27.5505 3843.00
27.8548 1479.00
28.1591 1475.00
28.4633 1402.00
28.7676 1361.00
29.0718 1397.00
29.3761 1436.00
29.6804 1954.00
29.9846 3839.00
30.2889 1818.00
30.5931 2017.00
30.8974 15869.00
31.2017 2092.00
31.5059 1697.00
31.8102 1335.00
32.1144 1280.00
32.4187 1501.00
32.723 1276.00
33.0272 1264.00
33.3315 1441.00
33.6357 1284.00
33.94 1350.00
34.2443 3181.00
34.5485 7999.00
34.8528 1409.00
35.157 2077.00
35.4613 1452.00
35.7656 5533.00
36.0698 1276.00
36.3741 1295.00
36.6783 1122.00
36.9826 1073.00
37.2869 1092.00
37.5911 1177.00
37.8954 1866.00
38.1996 1091.00
38.5039 1278.00
38.8082 2311.00
39.1124 1232.00
39.4167 1862.00
39.7209 1086.00
40.0252 1130.00
40.3295 994.00
40.6337 905.00
40.938 944.00
41.2422 897.00
41.5465 935.00
41.8508 1013.00
42.155 1619.00
42.4593 1249.00
42.7635 998.00
43.0678 1053.00
43.3721 939.00
43.6763 1321.00
43.9806 1149.00
44.2849 894.00
44.5891 876.00
44.8934 829.00
45.1976 800.00
45.5019 912.00
45.8062 1258.00
46.1104 1431.00
46.4147 930.00
46.7189 856.00
47.0232 815.00
47.3275 1058.00
47.6317 916.00
47.936 743.00
48.2402 832.00
48.5445 936.00
48.8488 883.00
49.153 1144.00
49.4573 2362.00
49.7615 921.00
50.0658 800.00
50.3701 798.00
50.6743 801.00
50.9786 1045.00
51.2828 5867.00
51.5871 1045.00
51.8914 740.00
52.1956 842.00
52.4999 772.00
52.8041 801.00
53.1084 920.00
53.4127 848.00
53.7169 778.00
54.0212 831.00
54.3254 819.00
54.6297 917.00
54.934 714.00
55.2382 717.00
55.5425 735.00
55.8467 712.00
56.151 1110.00
56.4553 873.00
56.7595 735.00
57.0638 755.00
57.368 927.00
57.6723 758.00
57.9766 865.00
58.2808 731.00
58.5851 701.00
58.8893 662.00
59.1936 884.00
59.4979 1478.00
59.8021 1035.00
60.1064 738.00
60.4106 804.00
60.7149 1292.00
61.0192 2857.00
61.3234 1695.00
61.6277 1641.00
61.932 695.00
62.2362 803.00
62.5405 1073.00
62.8447 673.00
63.149 620.00
63.4533 685.00
63.7575 924.00
64.0618 995.00
64.366 703.00
64.6703 655.00
64.9745 642.00
65.2788 762.00
65.5831 1006.00
65.8873 723.00
66.1916 634.00
66.4959 592.00
66.8001 764.00
67.1044 676.00
67.4086 631.00
67.7129 745.00
68.0172 937.00
68.3214 886.00
68.6257 677.00
68.9299 656.00
69.2342 531.00
69.5385 577.00
69.8427 664.00
70.147 560.00
70.4512 508.00
70.7555 467.00
71.0598 490.00
71.364 470.00
71.6683 554.00
71.9725 679.00
72.2768 966.00
72.5811 536.00
72.8853 483.00
73.1896 461.00
73.4938 449.00
73.7981 630.00
74.1024 596.00
74.4066 576.00
74.7109 606.00
75.0151 562.00
75.3194 773.00
75.6237 550.00
75.9279 503.00
76.2322 546.00
76.5364 688.00
76.8407 690.00
77.145 501.00
77.4492 512.00
77.7535 517.00
78.0577 551.00
78.362 489.00
78.6663 496.00
78.9705 492.00
79.2748 647.00
79.579 575.00
79.8833 517.00
80.1876 556.00
80.4918 520.00
80.7961 538.00
81.1003 481.00
81.4046 578.00
81.7089 549.00
82.0131 801.00
82.3174 891.00
82.6217 655.00
82.9259 531.00
83.2302 707.00
83.5344 809.00
83.8387 483.00
84.143 494.00
84.4472 484.00
84.7515 475.00
85.0557 456.00
85.36 538.00
85.6643 516.00
85.9685 854.00
86.2728 779.00
86.577 470.00
86.8813 438.00
87.1856 431.00
87.4898 474.00
87.7941 421.00
88.0983 397.00
88.4026 471.00
88.7069 505.00
89.0111 443.00
89.3154 464.00
89.6196 417.00
89.9239 544.00
90.2282 535.00
90.5324 456.00
90.8367 405.00
91.1409 415.00
91.4452 428.00
91.7495 441.00
92.0537 436.00
92.358 465.00
92.6622 594.00
92.9665 517.00
93.2708 435.00
93.575 399.00
93.8793 400.00
94.1835 384.00
94.4878 413.00
94.7921 433.00
95.0963 477.00
95.4006 548.00
95.7048 517.00
96.0091 421.00
96.3134 465.00
96.6176 797.00
96.9219 584.00
97.2261 463.00
97.5304 443.00
97.8347 479.00
98.1389 529.00
98.4432 419.00
98.7474 400.00
99.0517 412.00
99.356 547.00
99.6602 517.00
99.9645 440.00
100.095 392.00