File: data/xrd_creation/results/NSC_186.xy
9.903433 2719.00
10.2077 2583.00
10.512 2455.00
10.8162 2377.00
11.1205 2281.00
11.4247 2127.00
11.729 2071.00
12.0333 1976.00
12.3375 2005.00
12.6418 1937.00
12.946 1796.00
13.2503 1745.00
13.5546 1757.00
13.8588 1716.00
14.1631 1664.00
14.4673 1649.00
14.7716 1570.00
15.0759 1531.00
15.3801 1575.00
15.6844 1562.00
15.9886 1579.00
16.2929 1584.00
16.5972 1917.00
16.9014 3721.00
17.2057 2408.00
17.5099 1568.00
17.8142 1515.00
18.1185 1348.00
18.4227 1343.00
18.727 1364.00
19.0312 1309.00
19.3355 1304.00
19.6398 1300.00
19.944 1343.00
20.2483 1566.00
20.5525 4629.00
20.8568 14758.00
21.1611 3125.00
21.4653 1343.00
21.7696 1316.00
22.0738 1264.00
22.3781 1248.00
22.6824 1177.00
22.9866 1170.00
23.2909 1140.00
23.5951 1159.00
23.8994 1177.00
24.2037 1088.00
24.5079 1119.00
24.8122 1482.00
25.1164 3252.00
25.4207 1397.00
25.725 1078.00
26.0292 1201.00
26.3335 1208.00
26.6378 1280.00
26.942 1321.00
27.2463 1163.00
27.5505 977.00
27.8548 1024.00
28.1591 962.00
28.4633 994.00
28.7676 1062.00
29.0718 1331.00
29.3761 6531.00
29.6804 7307.00
29.9846 1205.00
30.2889 1025.00
30.5931 945.00
30.8974 1064.00
31.2017 934.00
31.5059 929.00
31.8102 910.00
32.1144 863.00
32.4187 889.00
32.723 876.00
33.0272 891.00
33.3315 1147.00
33.6357 1237.00
33.94 2603.00
34.2443 20144.00
34.5485 12415.00
34.8528 4269.00
35.157 4742.00
35.4613 1308.00
35.7656 2161.00
36.0698 3046.00
36.3741 1346.00
36.6783 1217.00
36.9826 1423.00
37.2869 4780.00
37.5911 2576.00
37.8954 1012.00
38.1996 878.00
38.5039 921.00
38.8082 931.00
39.1124 1257.00
39.4167 861.00
39.7209 770.00
40.0252 916.00
40.3295 2010.00
40.6337 2324.00
40.938 829.00
41.2422 778.00
41.5465 759.00
41.8508 724.00
42.155 777.00
42.4593 895.00
42.7635 719.00
43.0678 729.00
43.3721 743.00
43.6763 780.00
43.9806 773.00
44.2849 730.00
44.5891 680.00
44.8934 747.00
45.1976 723.00
45.5019 938.00
45.8062 1405.00
46.1104 855.00
46.4147 661.00
46.7189 722.00
47.0232 756.00
47.3275 762.00
47.6317 770.00
47.936 1113.00
48.2402 3221.00
48.5445 1237.00
48.8488 881.00
49.153 3221.00
49.4573 3544.00
49.7615 1784.00
50.0658 758.00
50.3701 740.00
50.6743 809.00
50.9786 757.00
51.2828 837.00
51.5871 1007.00
51.8914 1025.00
52.1956 3684.00
52.4999 2103.00
52.8041 883.00
53.1084 748.00
53.4127 732.00
53.7169 1078.00
54.0212 2486.00
54.3254 1046.00
54.6297 754.00
54.934 720.00
55.2382 666.00
55.5425 693.00
55.8467 902.00
56.151 770.00
56.4553 749.00
56.7595 801.00
57.0638 792.00
57.368 688.00
57.6723 698.00
57.9766 658.00
58.2808 701.00
58.5851 685.00
58.8893 798.00
59.1936 645.00
59.4979 714.00
59.8021 740.00
60.1064 935.00
60.4106 1222.00
60.7149 939.00
61.0192 2058.00
61.3234 8318.00
61.6277 4046.00
61.932 1021.00
62.2362 804.00
62.5405 837.00
62.8447 757.00
63.149 670.00
63.4533 726.00
63.7575 673.00
64.0618 942.00
64.366 1742.00
64.6703 1023.00
64.9745 751.00
65.2788 1347.00
65.5831 3378.00
65.8873 3952.00
66.1916 1424.00
66.4959 633.00
66.8001 602.00
67.1044 798.00
67.4086 693.00
67.7129 644.00
68.0172 675.00
68.3214 812.00
68.6257 662.00
68.9299 544.00
69.2342 553.00
69.5385 568.00
69.8427 513.00
70.147 529.00
70.4512 548.00
70.7555 518.00
71.0598 524.00
71.364 558.00
71.6683 729.00
71.9725 1435.00
72.2768 1679.00
72.5811 748.00
72.8853 628.00
73.1896 618.00
73.4938 665.00
73.7981 782.00
74.1024 591.00
74.4066 514.00
74.7109 605.00
75.0151 644.00
75.3194 530.00
75.6237 682.00
75.9279 1258.00
76.2322 1189.00
76.5364 660.00
76.8407 502.00
77.145 462.00
77.4492 512.00
77.7535 523.00
78.0577 548.00
78.362 514.00
78.6663 530.00
78.9705 500.00
79.2748 630.00
79.579 662.00
79.8833 521.00
80.1876 522.00
80.4918 500.00
80.7961 551.00
81.1003 569.00
81.4046 529.00
81.7089 623.00
82.0131 988.00
82.3174 2061.00
82.6217 1362.00
82.9259 638.00
83.2302 486.00
83.5344 524.00
83.8387 593.00
84.143 635.00
84.4472 700.00
84.7515 524.00
85.0557 507.00
85.36 473.00
85.6643 519.00
85.9685 695.00
86.2728 636.00
86.577 632.00
86.8813 733.00
87.1856 1364.00
87.4898 1252.00
87.7941 709.00
88.0983 621.00
88.4026 804.00
88.7069 740.00
89.0111 572.00
89.3154 493.00
89.6196 494.00
89.9239 427.00
90.2282 464.00
90.5324 467.00
90.8367 544.00
91.1409 585.00
91.4452 483.00
91.7495 496.00
92.0537 673.00
92.358 685.00
92.6622 593.00
92.9665 519.00
93.2708 467.00
93.575 458.00
93.8793 467.00
94.1835 435.00
94.4878 462.00
94.7921 450.00
95.0963 465.00
95.4006 486.00
95.7048 584.00
96.0091 822.00
96.3134 724.00
96.6176 596.00
96.9219 511.00
97.2261 482.00
97.5304 494.00
97.8347 476.00
98.1389 487.00
98.4432 508.00
98.7474 473.00
99.0517 533.00
99.356 558.00
99.6602 504.00
99.9645 444.00
100.095 471.00