File: data/xrd_creation/results/NSC_193.xy
9.903433 2661.00
10.2077 2491.00
10.512 2453.00
10.8162 2383.00
11.1205 2404.00
11.4247 2474.00
11.729 2249.00
12.0333 2005.00
12.3375 2112.00
12.6418 1930.00
12.946 1925.00
13.2503 1725.00
13.5546 1724.00
13.8588 1683.00
14.1631 1646.00
14.4673 1574.00
14.7716 1639.00
15.0759 1675.00
15.3801 1653.00
15.6844 1623.00
15.9886 1666.00
16.2929 1777.00
16.5972 1608.00
16.9014 1479.00
17.2057 1542.00
17.5099 1495.00
17.8142 1552.00
18.1185 1581.00
18.4227 1388.00
18.727 1386.00
19.0312 1381.00
19.3355 1462.00
19.6398 1334.00
19.944 1367.00
20.2483 1318.00
20.5525 1259.00
20.8568 1246.00
21.1611 1327.00
21.4653 1254.00
21.7696 1307.00
22.0738 1272.00
22.3781 1204.00
22.6824 1223.00
22.9866 1217.00
23.2909 1190.00
23.5951 1166.00
23.8994 1195.00
24.2037 1268.00
24.5079 1331.00
24.8122 1177.00
25.1164 1140.00
25.4207 1295.00
25.725 1467.00
26.0292 1401.00
26.3335 1457.00
26.6378 3282.00
26.942 1215.00
27.2463 1216.00
27.5505 1472.00
27.8548 1220.00
28.1591 1209.00
28.4633 1190.00
28.7676 1092.00
29.0718 1055.00
29.3761 1007.00
29.6804 1061.00
29.9846 1097.00
30.2889 1046.00
30.5931 1079.00
30.8974 1011.00
31.2017 1046.00
31.5059 1100.00
31.8102 1043.00
32.1144 1091.00
32.4187 988.00
32.723 1213.00
33.0272 1469.00
33.3315 1083.00
33.6357 1352.00
33.94 3178.00
34.2443 1448.00
34.5485 1362.00
34.8528 1015.00
35.157 815.00
35.4613 866.00
35.7656 871.00
36.0698 820.00
36.3741 807.00
36.6783 849.00
36.9826 831.00
37.2869 786.00
37.5911 777.00
37.8954 1217.00
38.1996 918.00
38.5039 729.00
38.8082 778.00
39.1124 850.00
39.4167 691.00
39.7209 670.00
40.0252 722.00
40.3295 718.00
40.6337 652.00
40.938 692.00
41.2422 764.00
41.5465 707.00
41.8508 717.00
42.155 714.00
42.4593 753.00
42.7635 717.00
43.0678 715.00
43.3721 738.00
43.6763 676.00
43.9806 693.00
44.2849 666.00
44.5891 678.00
44.8934 638.00
45.1976 692.00
45.5019 688.00
45.8062 668.00
46.1104 692.00
46.4147 722.00
46.7189 725.00
47.0232 707.00
47.3275 719.00
47.6317 741.00
47.936 670.00
48.2402 700.00
48.5445 636.00
48.8488 685.00
49.153 700.00
49.4573 708.00
49.7615 728.00
50.0658 792.00
50.3701 716.00
50.6743 692.00
50.9786 734.00
51.2828 774.00
51.5871 1054.00
51.8914 2310.00
52.1956 872.00
52.4999 668.00
52.8041 700.00
53.1084 640.00
53.4127 671.00
53.7169 626.00
54.0212 722.00
54.3254 648.00
54.6297 840.00
54.934 928.00
55.2382 637.00
55.5425 628.00
55.8467 624.00
56.151 675.00
56.4553 634.00
56.7595 612.00
57.0638 659.00
57.368 689.00
57.6723 724.00
57.9766 890.00
58.2808 696.00
58.5851 709.00
58.8893 702.00
59.1936 682.00
59.4979 747.00
59.8021 757.00
60.1064 731.00
60.4106 654.00
60.7149 611.00
61.0192 602.00
61.3234 589.00
61.6277 678.00
61.932 962.00
62.2362 768.00
62.5405 614.00
62.8447 683.00
63.149 612.00
63.4533 593.00
63.7575 615.00
64.0618 578.00
64.366 601.00
64.6703 868.00
64.9745 813.00
65.2788 658.00
65.5831 590.00
65.8873 922.00
66.1916 885.00
66.4959 631.00
66.8001 596.00
67.1044 551.00
67.4086 530.00
67.7129 559.00
68.0172 521.00
68.3214 553.00
68.6257 521.00
68.9299 552.00
69.2342 534.00
69.5385 529.00
69.8427 582.00
70.147 514.00
70.4512 523.00
70.7555 535.00
71.0598 564.00
71.364 697.00
71.6683 596.00
71.9725 580.00
72.2768 499.00
72.5811 521.00
72.8853 501.00
73.1896 548.00
73.4938 481.00
73.7981 491.00
74.1024 500.00
74.4066 508.00
74.7109 485.00
75.0151 448.00
75.3194 486.00
75.6237 502.00
75.9279 528.00
76.2322 500.00
76.5364 493.00
76.8407 456.00
77.145 472.00
77.4492 464.00
77.7535 480.00
78.0577 472.00
78.362 488.00
78.6663 680.00
78.9705 721.00
79.2748 513.00
79.579 496.00
79.8833 490.00
80.1876 463.00
80.4918 470.00
80.7961 468.00
81.1003 524.00
81.4046 546.00
81.7089 495.00
82.0131 504.00
82.3174 482.00
82.6217 445.00
82.9259 458.00
83.2302 468.00
83.5344 515.00
83.8387 646.00
84.143 537.00
84.4472 470.00
84.7515 481.00
85.0557 515.00
85.36 485.00
85.6643 480.00
85.9685 508.00
86.2728 474.00
86.577 457.00
86.8813 517.00
87.1856 487.00
87.4898 558.00
87.7941 478.00
88.0983 474.00
88.4026 486.00
88.7069 450.00
89.0111 459.00
89.3154 487.00
89.6196 558.00
89.9239 708.00
90.2282 577.00
90.5324 525.00
90.8367 627.00
91.1409 670.00
91.4452 575.00
91.7495 464.00
92.0537 434.00
92.358 481.00
92.6622 444.00
92.9665 470.00
93.2708 567.00
93.575 570.00
93.8793 482.00
94.1835 497.00
94.4878 442.00
94.7921 440.00
95.0963 475.00
95.4006 418.00
95.7048 490.00
96.0091 536.00
96.3134 521.00
96.6176 525.00
96.9219 469.00
97.2261 464.00
97.5304 472.00
97.8347 429.00
98.1389 492.00
98.4432 465.00
98.7474 432.00
99.0517 474.00
99.356 441.00
99.6602 483.00
99.9645 453.00
100.095 434.00