File: data/xrd_creation/results/NSC_126.xy
9.903433 2970.00
10.2077 2818.00
10.512 2818.00
10.8162 2718.00
11.1205 2704.00
11.4247 2585.00
11.729 2534.00
12.0333 2471.00
12.3375 2418.00
12.6418 2349.00
12.946 2378.00
13.2503 2271.00
13.5546 2275.00
13.8588 2522.00
14.1631 3716.00
14.4673 2298.00
14.7716 2224.00
15.0759 2205.00
15.3801 2171.00
15.6844 2092.00
15.9886 2113.00
16.2929 2137.00
16.5972 2027.00
16.9014 2025.00
17.2057 2084.00
17.5099 1935.00
17.8142 2028.00
18.1185 1940.00
18.4227 1997.00
18.727 2005.00
19.0312 1986.00
19.3355 2541.00
19.6398 6431.00
19.944 2769.00
20.2483 5048.00
20.5525 6439.00
20.8568 2235.00
21.1611 2063.00
21.4653 2058.00
21.7696 2269.00
22.0738 2517.00
22.3781 1948.00
22.6824 1880.00
22.9866 1990.00
23.2909 2713.00
23.5951 14203.00
23.8994 2197.00
24.2037 1991.00
24.5079 1911.00
24.8122 2224.00
25.1164 1796.00
25.4207 1779.00
25.725 1826.00
26.0292 1773.00
26.3335 1834.00
26.6378 3503.00
26.942 1838.00
27.2463 1722.00
27.5505 1762.00
27.8548 1688.00
28.1591 2202.00
28.4633 14338.00
28.7676 1882.00
29.0718 1745.00
29.3761 1742.00
29.6804 1599.00
29.9846 1676.00
30.2889 1649.00
30.5931 1891.00
30.8974 1879.00
31.2017 3301.00
31.5059 13541.00
31.8102 2127.00
32.1144 1699.00
32.4187 1661.00
32.723 1630.00
33.0272 1624.00
33.3315 1628.00
33.6357 1619.00
33.94 2427.00
34.2443 1660.00
34.5485 1660.00
34.8528 1772.00
35.157 7043.00
35.4613 4379.00
35.7656 2200.00
36.0698 2321.00
36.3741 1882.00
36.6783 1685.00
36.9826 1532.00
37.2869 1564.00
37.5911 1933.00
37.8954 1599.00
38.1996 1445.00
38.5039 1517.00
38.8082 1556.00
39.1124 1513.00
39.4167 1632.00
39.7209 2070.00
40.0252 1661.00
40.3295 1522.00
40.6337 1502.00
40.938 1580.00
41.2422 2395.00
41.5465 2311.00
41.8508 1872.00
42.155 1994.00
42.4593 1653.00
42.7635 1619.00
43.0678 3920.00
43.3721 1593.00
43.6763 2116.00
43.9806 1448.00
44.2849 1415.00
44.5891 1514.00
44.8934 2235.00
45.1976 3125.00
45.5019 1512.00
45.8062 1642.00
46.1104 3060.00
46.4147 1581.00
46.7189 2698.00
47.0232 1618.00
47.3275 1496.00
47.6317 1817.00
47.936 3953.00
48.2402 2396.00
48.5445 1927.00
48.8488 1565.00
49.153 1475.00
49.4573 1387.00
49.7615 1522.00
50.0658 1598.00
50.3701 1664.00
50.6743 1724.00
50.9786 1482.00
51.2828 2621.00
51.5871 3445.00
51.8914 1903.00
52.1956 1379.00
52.4999 1462.00
52.8041 1528.00
53.1084 1413.00
53.4127 1446.00
53.7169 1477.00
54.0212 1570.00
54.3254 3065.00
54.6297 1643.00
54.934 1875.00
55.2382 3524.00
55.5425 4751.00
55.8467 1622.00
56.151 1433.00
56.4553 1453.00
56.7595 1712.00
57.0638 1498.00
57.368 1445.00
57.6723 1556.00
57.9766 1507.00
58.2808 2261.00
58.5851 2043.00
58.8893 1418.00
59.1936 1396.00
59.4979 1456.00
59.8021 2156.00
60.1064 2826.00
60.4106 1568.00
60.7149 1584.00
61.0192 4288.00
61.3234 1668.00
61.6277 1431.00
61.932 1500.00
62.2362 1988.00
62.5405 2561.00
62.8447 1388.00
63.149 1992.00
63.4533 2453.00
63.7575 2097.00
64.0618 1841.00
64.366 1404.00
64.6703 1378.00
64.9745 1478.00
65.2788 1807.00
65.5831 1623.00
65.8873 1516.00
66.1916 2331.00
66.4959 1869.00
66.8001 1396.00
67.1044 1908.00
67.4086 1783.00
67.7129 2285.00
68.0172 1712.00
68.3214 1393.00
68.6257 1519.00
68.9299 1754.00
69.2342 1366.00
69.5385 1364.00
69.8427 1377.00
70.147 1347.00
70.4512 1236.00
70.7555 1617.00
71.0598 2215.00
71.364 1468.00
71.6683 1337.00
71.9725 1343.00
72.2768 1410.00
72.5811 1339.00
72.8853 1327.00
73.1896 1378.00
73.4938 1468.00
73.7981 2131.00
74.1024 1558.00
74.4066 1398.00
74.7109 1781.00
75.0151 2135.00
75.3194 1639.00
75.6237 1703.00
75.9279 1446.00
76.2322 1317.00
76.5364 1439.00
76.8407 1423.00
77.145 1456.00
77.4492 1462.00
77.7535 1340.00
78.0577 1298.00
78.362 1824.00
78.6663 1952.00
78.9705 1812.00
79.2748 1530.00
79.579 1456.00
79.8833 1425.00
80.1876 1333.00
80.4918 1338.00
80.7961 1732.00
81.1003 1817.00
81.4046 1314.00
81.7089 1292.00
82.0131 1271.00
82.3174 1376.00
82.6217 1391.00
82.9259 1367.00
83.2302 2482.00
83.5344 1684.00
83.8387 1319.00
84.143 1267.00
84.4472 1402.00
84.7515 1540.00
85.0557 1475.00
85.36 1576.00
85.6643 1346.00
85.9685 1487.00
86.2728 1402.00
86.577 1398.00
86.8813 1508.00
87.1856 1466.00
87.4898 1297.00
87.7941 1402.00
88.0983 1377.00
88.4026 1309.00
88.7069 1432.00
89.0111 1699.00
89.3154 2567.00
89.6196 1897.00
89.9239 1348.00
90.2282 1479.00
90.5324 1466.00
90.8367 1328.00
91.1409 1408.00
91.4452 1877.00
91.7495 1628.00
92.0537 1399.00
92.358 1527.00
92.6622 1387.00
92.9665 1312.00
93.2708 1351.00
93.575 1509.00
93.8793 1612.00
94.1835 1404.00
94.4878 1404.00
94.7921 1491.00
95.0963 1568.00
95.4006 1428.00
95.7048 1688.00
96.0091 1572.00
96.3134 1782.00
96.6176 1505.00
96.9219 1441.00
97.2261 1343.00
97.5304 1265.00
97.8347 1324.00
98.1389 1353.00
98.4432 1321.00
98.7474 1490.00
99.0517 1364.00
99.356 1427.00
99.6602 1421.00
99.9645 1555.00
100.095 1684.00