File: data/xrd_creation/results/NSC_160.xy
9.903433 2617.00
10.2077 2532.00
10.512 2370.00
10.8162 2301.00
11.1205 2187.00
11.4247 2171.00
11.729 2014.00
12.0333 2045.00
12.3375 1898.00
12.6418 1917.00
12.946 1827.00
13.2503 1748.00
13.5546 1636.00
13.8588 1637.00
14.1631 1634.00
14.4673 1544.00
14.7716 1544.00
15.0759 1556.00
15.3801 1474.00
15.6844 1440.00
15.9886 1520.00
16.2929 1520.00
16.5972 1435.00
16.9014 1371.00
17.2057 1354.00
17.5099 1434.00
17.8142 1328.00
18.1185 1322.00
18.4227 1278.00
18.727 1317.00
19.0312 1295.00
19.3355 1178.00
19.6398 1195.00
19.944 1219.00
20.2483 1345.00
20.5525 4540.00
20.8568 5170.00
21.1611 9481.00
21.4653 1466.00
21.7696 1248.00
22.0738 1137.00
22.3781 1128.00
22.6824 1123.00
22.9866 1096.00
23.2909 1130.00
23.5951 1925.00
23.8994 1154.00
24.2037 1044.00
24.5079 992.00
24.8122 1011.00
25.1164 1306.00
25.4207 1305.00
25.725 982.00
26.0292 965.00
26.3335 955.00
26.6378 1289.00
26.942 1664.00
27.2463 942.00
27.5505 895.00
27.8548 914.00
28.1591 856.00
28.4633 892.00
28.7676 894.00
29.0718 889.00
29.3761 977.00
29.6804 1069.00
29.9846 1908.00
30.2889 8499.00
30.5931 1587.00
30.8974 981.00
31.2017 1027.00
31.5059 1036.00
31.8102 1945.00
32.1144 936.00
32.4187 978.00
32.723 1380.00
33.0272 6801.00
33.3315 2421.00
33.6357 1529.00
33.94 2261.00
34.2443 12458.00
34.5485 4289.00
34.8528 17090.00
35.157 2314.00
35.4613 1400.00
35.7656 1009.00
36.0698 1248.00
36.3741 2818.00
36.6783 1009.00
36.9826 1018.00
37.2869 2529.00
37.5911 1438.00
37.8954 894.00
38.1996 886.00
38.5039 772.00
38.8082 778.00
39.1124 754.00
39.4167 1143.00
39.7209 1285.00
40.0252 971.00
40.3295 1390.00
40.6337 833.00
40.938 692.00
41.2422 722.00
41.5465 799.00
41.8508 1229.00
42.155 1918.00
42.4593 734.00
42.7635 898.00
43.0678 1325.00
43.3721 745.00
43.6763 623.00
43.9806 625.00
44.2849 628.00
44.5891 590.00
44.8934 610.00
45.1976 709.00
45.5019 1514.00
45.8062 921.00
46.1104 1589.00
46.4147 2293.00
46.7189 756.00
47.0232 620.00
47.3275 680.00
47.6317 1157.00
47.936 766.00
48.2402 2252.00
48.5445 1241.00
48.8488 620.00
49.153 703.00
49.4573 681.00
49.7615 588.00
50.0658 814.00
50.3701 846.00
50.6743 921.00
50.9786 655.00
51.2828 773.00
51.5871 1370.00
51.8914 3018.00
52.1956 1356.00
52.4999 739.00
52.8041 576.00
53.1084 536.00
53.4127 586.00
53.7169 637.00
54.0212 1189.00
54.3254 907.00
54.6297 1032.00
54.934 889.00
55.2382 2258.00
55.5425 1024.00
55.8467 619.00
56.151 643.00
56.4553 784.00
56.7595 1217.00
57.0638 1961.00
57.368 3168.00
57.6723 1356.00
57.9766 730.00
58.2808 606.00
58.5851 552.00
58.8893 579.00
59.1936 613.00
59.4979 708.00
59.8021 675.00
60.1064 1140.00
60.4106 825.00
60.7149 599.00
61.0192 694.00
61.3234 1207.00
61.6277 4181.00
61.932 1693.00
62.2362 853.00
62.5405 1123.00
62.8447 2396.00
63.149 1885.00
63.4533 2243.00
63.7575 1847.00
64.0618 750.00
64.366 596.00
64.6703 713.00
64.9745 847.00
65.2788 829.00
65.5831 1456.00
65.8873 920.00
66.1916 619.00
66.4959 724.00
66.8001 674.00
67.1044 545.00
67.4086 639.00
67.7129 862.00
68.0172 1213.00
68.3214 2164.00
68.6257 1688.00
68.9299 1206.00
69.2342 915.00
69.5385 569.00
69.8427 512.00
70.147 465.00
70.4512 484.00
70.7555 527.00
71.0598 487.00
71.364 547.00
71.6683 770.00
71.9725 1297.00
72.2768 853.00
72.5811 565.00
72.8853 540.00
73.1896 646.00
73.4938 1202.00
73.7981 762.00
74.1024 448.00
74.4066 433.00
74.7109 439.00
75.0151 443.00
75.3194 478.00
75.6237 592.00
75.9279 607.00
76.2322 576.00
76.5364 562.00
76.8407 577.00
77.145 530.00
77.4492 511.00
77.7535 544.00
78.0577 479.00
78.362 492.00
78.6663 499.00
78.9705 528.00
79.2748 480.00
79.579 396.00
79.8833 469.00
80.1876 477.00
80.4918 405.00
80.7961 525.00
81.1003 624.00
81.4046 763.00
81.7089 681.00
82.0131 498.00
82.3174 486.00
82.6217 460.00
82.9259 522.00
83.2302 446.00
83.5344 386.00
83.8387 394.00
84.143 444.00
84.4472 404.00
84.7515 511.00
85.0557 449.00
85.36 419.00
85.6643 474.00
85.9685 742.00
86.2728 874.00
86.577 994.00
86.8813 1122.00
87.1856 762.00
87.4898 441.00
87.7941 458.00
88.0983 453.00
88.4026 435.00
88.7069 412.00
89.0111 431.00
89.3154 437.00
89.6196 546.00
89.9239 457.00
90.2282 467.00
90.5324 433.00
90.8367 407.00
91.1409 391.00
91.4452 440.00
91.7495 628.00
92.0537 624.00
92.358 545.00
92.6622 477.00
92.9665 429.00
93.2708 485.00
93.575 565.00
93.8793 915.00
94.1835 1141.00
94.4878 850.00
94.7921 564.00
95.0963 465.00
95.4006 582.00
95.7048 584.00
96.0091 585.00
96.3134 585.00
96.6176 458.00
96.9219 462.00
97.2261 427.00
97.5304 418.00
97.8347 446.00
98.1389 527.00
98.4432 704.00
98.7474 712.00
99.0517 552.00
99.356 467.00
99.6602 389.00
99.9645 451.00
100.095 403.00