File: data/xrd_creation/results/NSC_72.xy
9.903433 3112.00
10.2077 2848.00
10.512 3169.00
10.8162 2532.00
11.1205 2501.00
11.4247 2369.00
11.729 2407.00
12.0333 2197.00
12.3375 2245.00
12.6418 2238.00
12.946 2594.00
13.2503 2779.00
13.5546 1953.00
13.8588 2004.00
14.1631 1855.00
14.4673 1839.00
14.7716 1793.00
15.0759 1788.00
15.3801 1711.00
15.6844 1814.00
15.9886 1963.00
16.2929 1732.00
16.5972 1730.00
16.9014 1739.00
17.2057 1674.00
17.5099 1603.00
17.8142 1699.00
18.1185 1714.00
18.4227 1561.00
18.727 1576.00
19.0312 1662.00
19.3355 1591.00
19.6398 1707.00
19.944 3734.00
20.2483 2215.00
20.5525 1926.00
20.8568 7344.00
21.1611 9548.00
21.4653 2023.00
21.7696 1496.00
22.0738 1354.00
22.3781 1384.00
22.6824 1477.00
22.9866 1484.00
23.2909 2064.00
23.5951 1732.00
23.8994 1744.00
24.2037 1518.00
24.5079 1288.00
24.8122 1249.00
25.1164 1973.00
25.4207 1561.00
25.725 1493.00
26.0292 1596.00
26.3335 1749.00
26.6378 1708.00
26.942 1268.00
27.2463 1138.00
27.5505 1190.00
27.8548 1113.00
28.1591 1029.00
28.4633 1047.00
28.7676 1070.00
29.0718 1167.00
29.3761 1696.00
29.6804 1120.00
29.9846 1090.00
30.2889 1254.00
30.5931 1061.00
30.8974 961.00
31.2017 1023.00
31.5059 1133.00
31.8102 1388.00
32.1144 1552.00
32.4187 2319.00
32.723 2677.00
33.0272 2607.00
33.3315 1361.00
33.6357 1294.00
33.94 1462.00
34.2443 3896.00
34.5485 4910.00
34.8528 6554.00
35.157 3341.00
35.4613 1248.00
35.7656 1365.00
36.0698 1318.00
36.3741 1172.00
36.6783 1434.00
36.9826 1032.00
37.2869 912.00
37.5911 900.00
37.8954 860.00
38.1996 904.00
38.5039 1343.00
38.8082 842.00
39.1124 800.00
39.4167 793.00
39.7209 819.00
40.0252 1201.00
40.3295 1552.00
40.6337 1971.00
40.938 1855.00
41.2422 955.00
41.5465 865.00
41.8508 892.00
42.155 877.00
42.4593 1230.00
42.7635 1311.00
43.0678 1057.00
43.3721 1030.00
43.6763 1128.00
43.9806 823.00
44.2849 865.00
44.5891 1511.00
44.8934 1260.00
45.1976 877.00
45.5019 659.00
45.8062 685.00
46.1104 734.00
46.4147 908.00
46.7189 719.00
47.0232 794.00
47.3275 1065.00
47.6317 864.00
47.936 980.00
48.2402 940.00
48.5445 863.00
48.8488 927.00
49.153 1300.00
49.4573 1271.00
49.7615 1126.00
50.0658 1139.00
50.3701 1505.00
50.6743 1194.00
50.9786 760.00
51.2828 657.00
51.5871 630.00
51.8914 744.00
52.1956 888.00
52.4999 765.00
52.8041 739.00
53.1084 685.00
53.4127 955.00
53.7169 940.00
54.0212 871.00
54.3254 915.00
54.6297 975.00
54.934 1055.00
55.2382 820.00
55.5425 896.00
55.8467 830.00
56.151 843.00
56.4553 652.00
56.7595 794.00
57.0638 708.00
57.368 709.00
57.6723 717.00
57.9766 815.00
58.2808 806.00
58.5851 618.00
58.8893 747.00
59.1936 742.00
59.4979 752.00
59.8021 628.00
60.1064 875.00
60.4106 868.00
60.7149 747.00
61.0192 682.00
61.3234 763.00
61.6277 1046.00
61.932 1435.00
62.2362 1497.00
62.5405 1254.00
62.8447 1092.00
63.149 953.00
63.4533 655.00
63.7575 675.00
64.0618 697.00
64.366 651.00
64.6703 571.00
64.9745 603.00
65.2788 803.00
65.5831 742.00
65.8873 627.00
66.1916 613.00
66.4959 717.00
66.8001 667.00
67.1044 689.00
67.4086 729.00
67.7129 534.00
68.0172 515.00
68.3214 480.00
68.6257 490.00
68.9299 654.00
69.2342 711.00
69.5385 669.00
69.8427 701.00
70.147 572.00
70.4512 552.00
70.7555 467.00
71.0598 523.00
71.364 552.00
71.6683 537.00
71.9725 506.00
72.2768 649.00
72.5811 632.00
72.8853 597.00
73.1896 610.00
73.4938 621.00
73.7981 619.00
74.1024 647.00
74.4066 686.00
74.7109 636.00
75.0151 580.00
75.3194 530.00
75.6237 486.00
75.9279 498.00
76.2322 478.00
76.5364 451.00
76.8407 512.00
77.145 495.00
77.4492 567.00
77.7535 563.00
78.0577 554.00
78.362 507.00
78.6663 497.00
78.9705 535.00
79.2748 535.00
79.579 466.00
79.8833 406.00
80.1876 432.00
80.4918 444.00
80.7961 444.00
81.1003 404.00
81.4046 477.00
81.7089 463.00
82.0131 444.00
82.3174 564.00
82.6217 498.00
82.9259 457.00
83.2302 443.00
83.5344 515.00
83.8387 538.00
84.143 514.00
84.4472 560.00
84.7515 600.00
85.0557 543.00
85.36 461.00
85.6643 434.00
85.9685 401.00
86.2728 407.00
86.577 448.00
86.8813 402.00
87.1856 377.00
87.4898 444.00
87.7941 427.00
88.0983 495.00
88.4026 509.00
88.7069 493.00
89.0111 395.00
89.3154 466.00
89.6196 425.00
89.9239 467.00
90.2282 415.00
90.5324 525.00
90.8367 506.00
91.1409 422.00
91.4452 406.00
91.7495 448.00
92.0537 417.00
92.358 443.00
92.6622 426.00
92.9665 370.00
93.2708 466.00
93.575 503.00
93.8793 485.00
94.1835 454.00
94.4878 460.00
94.7921 497.00
95.0963 451.00
95.4006 441.00
95.7048 414.00
96.0091 471.00
96.3134 415.00
96.6176 391.00
96.9219 403.00
97.2261 392.00
97.5304 403.00
97.8347 413.00
98.1389 426.00
98.4432 441.00
98.7474 444.00
99.0517 486.00
99.356 495.00
99.6602 430.00
99.9645 453.00
100.095 397.00