File: data/xrd_creation/results/NSC_94.xy
9.903433 2766.00
10.2077 2671.00
10.512 2526.00
10.8162 2375.00
11.1205 2403.00
11.4247 2290.00
11.729 2255.00
12.0333 2013.00
12.3375 2030.00
12.6418 1970.00
12.946 1907.00
13.2503 1848.00
13.5546 1823.00
13.8588 1843.00
14.1631 2248.00
14.4673 2460.00
14.7716 1618.00
15.0759 1646.00
15.3801 1549.00
15.6844 1610.00
15.9886 1581.00
16.2929 1530.00
16.5972 1492.00
16.9014 1415.00
17.2057 1456.00
17.5099 1381.00
17.8142 1399.00
18.1185 1350.00
18.4227 1354.00
18.727 1357.00
19.0312 1393.00
19.3355 1406.00
19.6398 2747.00
19.944 4168.00
20.2483 1471.00
20.5525 1962.00
20.8568 6972.00
21.1611 1538.00
21.4653 1243.00
21.7696 1209.00
22.0738 1132.00
22.3781 1111.00
22.6824 1046.00
22.9866 1058.00
23.2909 1086.00
23.5951 1230.00
23.8994 3053.00
24.2037 1818.00
24.5079 1122.00
24.8122 982.00
25.1164 940.00
25.4207 913.00
25.725 884.00
26.0292 949.00
26.3335 907.00
26.6378 1261.00
26.942 829.00
27.2463 778.00
27.5505 748.00
27.8548 777.00
28.1591 892.00
28.4633 892.00
28.7676 1973.00
29.0718 2810.00
29.3761 897.00
29.6804 751.00
29.9846 714.00
30.2889 769.00
30.5931 769.00
30.8974 780.00
31.2017 794.00
31.5059 1351.00
31.8102 6695.00
32.1144 1097.00
32.4187 1204.00
32.723 643.00
33.0272 614.00
33.3315 621.00
33.6357 678.00
33.94 1042.00
34.2443 759.00
34.5485 655.00
34.8528 627.00
35.157 608.00
35.4613 647.00
35.7656 1110.00
36.0698 1891.00
36.3741 1450.00
36.6783 2258.00
36.9826 668.00
37.2869 588.00
37.5911 573.00
37.8954 616.00
38.1996 556.00
38.5039 716.00
38.8082 482.00
39.1124 502.00
39.4167 494.00
39.7209 482.00
40.0252 538.00
40.3295 879.00
40.6337 532.00
40.938 458.00
41.2422 508.00
41.5465 547.00
41.8508 1064.00
42.155 649.00
42.4593 1048.00
42.7635 558.00
43.0678 596.00
43.3721 437.00
43.6763 470.00
43.9806 1351.00
44.2849 711.00
44.5891 505.00
44.8934 520.00
45.1976 624.00
45.5019 521.00
45.8062 1608.00
46.1104 569.00
46.4147 441.00
46.7189 463.00
47.0232 657.00
47.3275 2340.00
47.6317 571.00
47.936 391.00
48.2402 433.00
48.5445 514.00
48.8488 596.00
49.153 2204.00
49.4573 833.00
49.7615 479.00
50.0658 571.00
50.3701 425.00
50.6743 401.00
50.9786 402.00
51.2828 403.00
51.5871 454.00
51.8914 785.00
52.1956 2353.00
52.4999 752.00
52.8041 402.00
53.1084 569.00
53.4127 348.00
53.7169 369.00
54.0212 351.00
54.3254 396.00
54.6297 404.00
54.934 420.00
55.2382 425.00
55.5425 956.00
55.8467 451.00
56.151 414.00
56.4553 488.00
56.7595 1209.00
57.0638 1113.00
57.368 1693.00
57.6723 458.00
57.9766 419.00
58.2808 426.00
58.5851 613.00
58.8893 661.00
59.1936 365.00
59.4979 336.00
59.8021 402.00
60.1064 523.00
60.4106 332.00
60.7149 369.00
61.0192 539.00
61.3234 1247.00
61.6277 397.00
61.932 478.00
62.2362 559.00
62.5405 503.00
62.8447 1730.00
63.149 1074.00
63.4533 445.00
63.7575 363.00
64.0618 373.00
64.366 470.00
64.6703 411.00
64.9745 402.00
65.2788 624.00
65.5831 955.00
65.8873 889.00
66.1916 515.00
66.4959 349.00
66.8001 331.00
67.1044 804.00
67.4086 702.00
67.7129 401.00
68.0172 332.00
68.3214 308.00
68.6257 282.00
68.9299 291.00
69.2342 434.00
69.5385 963.00
69.8427 421.00
70.147 339.00
70.4512 317.00
70.7555 327.00
71.0598 426.00
71.364 409.00
71.6683 334.00
71.9725 325.00
72.2768 318.00
72.5811 271.00
72.8853 256.00
73.1896 370.00
73.4938 768.00
73.7981 437.00
74.1024 362.00
74.4066 302.00
74.7109 310.00
75.0151 577.00
75.3194 582.00
75.6237 420.00
75.9279 390.00
76.2322 464.00
76.5364 302.00
76.8407 268.00
77.145 275.00
77.4492 406.00
77.7535 583.00
78.0577 460.00
78.362 313.00
78.6663 329.00
78.9705 396.00
79.2748 360.00
79.579 350.00
79.8833 312.00
80.1876 372.00
80.4918 307.00
80.7961 297.00
81.1003 564.00
81.4046 658.00
81.7089 442.00
82.0131 296.00
82.3174 291.00
82.6217 547.00
82.9259 613.00
83.2302 368.00
83.5344 325.00
83.8387 311.00
84.143 244.00
84.4472 274.00
84.7515 284.00
85.0557 371.00
85.36 280.00
85.6643 275.00
85.9685 278.00
86.2728 533.00
86.577 499.00
86.8813 312.00
87.1856 370.00
87.4898 614.00
87.7941 633.00
88.0983 350.00
88.4026 315.00
88.7069 368.00
89.0111 318.00
89.3154 312.00
89.6196 272.00
89.9239 293.00
90.2282 382.00
90.5324 379.00
90.8367 408.00
91.1409 352.00
91.4452 346.00
91.7495 312.00
92.0537 281.00
92.358 517.00
92.6622 522.00
92.9665 455.00
93.2708 307.00
93.575 306.00
93.8793 313.00
94.1835 414.00
94.4878 346.00
94.7921 326.00
95.0963 424.00
95.4006 468.00
95.7048 337.00
96.0091 357.00
96.3134 373.00
96.6176 337.00
96.9219 274.00
97.2261 307.00
97.5304 344.00
97.8347 687.00
98.1389 492.00
98.4432 370.00
98.7474 291.00
99.0517 280.00
99.356 233.00
99.6602 298.00
99.9645 572.00
100.095 576.00