File: data/xrd_creation/results/NSC_173.xy
9.903433 2699.00
10.2077 2643.00
10.512 2462.00
10.8162 2467.00
11.1205 2362.00
11.4247 2285.00
11.729 2295.00
12.0333 2203.00
12.3375 2026.00
12.6418 2018.00
12.946 2048.00
13.2503 1835.00
13.5546 1952.00
13.8588 1902.00
14.1631 2283.00
14.4673 3755.00
14.7716 1881.00
15.0759 1739.00
15.3801 1724.00
15.6844 1648.00
15.9886 1643.00
16.2929 1620.00
16.5972 1622.00
16.9014 1570.00
17.2057 1604.00
17.5099 1501.00
17.8142 1506.00
18.1185 1484.00
18.4227 1525.00
18.727 1543.00
19.0312 1509.00
19.3355 1668.00
19.6398 2406.00
19.944 6407.00
20.2483 5398.00
20.5525 5820.00
20.8568 11263.00
21.1611 1703.00
21.4653 1605.00
21.7696 1654.00
22.0738 1738.00
22.3781 1432.00
22.6824 1337.00
22.9866 1428.00
23.2909 1659.00
23.5951 1941.00
23.8994 4625.00
24.2037 4376.00
24.5079 1333.00
24.8122 1367.00
25.1164 1342.00
25.4207 1258.00
25.725 1284.00
26.0292 1179.00
26.3335 1182.00
26.6378 1245.00
26.942 1218.00
27.2463 1224.00
27.5505 1506.00
27.8548 1507.00
28.1591 1349.00
28.4633 1734.00
28.7676 4078.00
29.0718 5003.00
29.3761 1200.00
29.6804 1172.00
29.9846 1144.00
30.2889 1085.00
30.5931 1075.00
30.8974 1184.00
31.2017 1279.00
31.5059 2538.00
31.8102 5677.00
32.1144 6724.00
32.4187 1332.00
32.723 1133.00
33.0272 1076.00
33.3315 1008.00
33.6357 1044.00
33.94 1070.00
34.2443 1246.00
34.5485 1457.00
34.8528 1103.00
35.157 1149.00
35.4613 2138.00
35.7656 4294.00
36.0698 4094.00
36.3741 3737.00
36.6783 1046.00
36.9826 997.00
37.2869 982.00
37.5911 962.00
37.8954 995.00
38.1996 939.00
38.5039 959.00
38.8082 969.00
39.1124 984.00
39.4167 983.00
39.7209 941.00
40.0252 1080.00
40.3295 1222.00
40.6337 1439.00
40.938 981.00
41.2422 980.00
41.5465 1487.00
41.8508 1568.00
42.155 1786.00
42.4593 1493.00
42.7635 1123.00
43.0678 1047.00
43.3721 1227.00
43.6763 1561.00
43.9806 1931.00
44.2849 1087.00
44.5891 1078.00
44.8934 936.00
45.1976 1104.00
45.5019 1455.00
45.8062 2082.00
46.1104 1775.00
46.4147 1391.00
46.7189 1853.00
47.0232 2120.00
47.3275 1344.00
47.6317 1504.00
47.936 1189.00
48.2402 1308.00
48.5445 1669.00
48.8488 2575.00
49.153 2165.00
49.4573 1175.00
49.7615 1019.00
50.0658 872.00
50.3701 828.00
50.6743 857.00
50.9786 914.00
51.2828 988.00
51.5871 1287.00
51.8914 1442.00
52.1956 1911.00
52.4999 2328.00
52.8041 1304.00
53.1084 975.00
53.4127 808.00
53.7169 869.00
54.0212 861.00
54.3254 967.00
54.6297 1629.00
54.934 1088.00
55.2382 1409.00
55.5425 1615.00
55.8467 1814.00
56.151 2468.00
56.4553 2957.00
56.7595 1820.00
57.0638 1083.00
57.368 859.00
57.6723 925.00
57.9766 974.00
58.2808 890.00
58.5851 945.00
58.8893 988.00
59.1936 1162.00
59.4979 1356.00
59.8021 1165.00
60.1064 965.00
60.4106 1060.00
60.7149 1240.00
61.0192 1579.00
61.3234 1704.00
61.6277 1260.00
61.932 1416.00
62.2362 1800.00
62.5405 1285.00
62.8447 1070.00
63.149 1124.00
63.4533 1213.00
63.7575 1410.00
64.0618 1374.00
64.366 1349.00
64.6703 1441.00
64.9745 1448.00
65.2788 1197.00
65.5831 943.00
65.8873 822.00
66.1916 838.00
66.4959 998.00
66.8001 1029.00
67.1044 997.00
67.4086 1183.00
67.7129 1320.00
68.0172 1131.00
68.3214 1108.00
68.6257 1181.00
68.9299 1138.00
69.2342 1296.00
69.5385 981.00
69.8427 945.00
70.147 997.00
70.4512 881.00
70.7555 736.00
71.0598 809.00
71.364 845.00
71.6683 864.00
71.9725 958.00
72.2768 1124.00
72.5811 1180.00
72.8853 813.00
73.1896 777.00
73.4938 818.00
73.7981 767.00
74.1024 812.00
74.4066 814.00
74.7109 862.00
75.0151 1014.00
75.3194 1136.00
75.6237 1023.00
75.9279 1014.00
76.2322 1107.00
76.5364 1227.00
76.8407 1027.00
77.145 905.00
77.4492 820.00
77.7535 794.00
78.0577 813.00
78.362 799.00
78.6663 803.00
78.9705 859.00
79.2748 924.00
79.579 1040.00
79.8833 1067.00
80.1876 1178.00
80.4918 1122.00
80.7961 931.00
81.1003 847.00
81.4046 899.00
81.7089 857.00
82.0131 855.00
82.3174 876.00
82.6217 995.00
82.9259 939.00
83.2302 819.00
83.5344 787.00
83.8387 770.00
84.143 833.00
84.4472 861.00
84.7515 909.00
85.0557 1034.00
85.36 961.00
85.6643 855.00
85.9685 874.00
86.2728 842.00
86.577 911.00
86.8813 902.00
87.1856 885.00
87.4898 836.00
87.7941 860.00
88.0983 842.00
88.4026 859.00
88.7069 860.00
89.0111 818.00
89.3154 840.00
89.6196 872.00
89.9239 906.00
90.2282 940.00
90.5324 936.00
90.8367 1046.00
91.1409 1042.00
91.4452 1006.00
91.7495 972.00
92.0537 815.00
92.358 874.00
92.6622 873.00
92.9665 858.00
93.2708 889.00
93.575 948.00
93.8793 931.00
94.1835 882.00
94.4878 834.00
94.7921 868.00
95.0963 794.00
95.4006 822.00
95.7048 865.00
96.0091 980.00
96.3134 932.00
96.6176 973.00
96.9219 927.00
97.2261 1011.00
97.5304 981.00
97.8347 973.00
98.1389 931.00
98.4432 907.00
98.7474 869.00
99.0517 825.00
99.356 733.00
99.6602 744.00
99.9645 748.00
100.095 758.00