File: data/xrd_creation/results/NSC_40.xy
9.903433 3269.00
10.2077 3149.00
10.512 3093.00
10.8162 3021.00
11.1205 2934.00
11.4247 2956.00
11.729 2987.00
12.0333 2614.00
12.3375 2736.00
12.6418 2938.00
12.946 3081.00
13.2503 3042.00
13.5546 2921.00
13.8588 3128.00
14.1631 2868.00
14.4673 2619.00
14.7716 2605.00
15.0759 2513.00
15.3801 2496.00
15.6844 2433.00
15.9886 2409.00
16.2929 2547.00
16.5972 2454.00
16.9014 2376.00
17.2057 2434.00
17.5099 2422.00
17.8142 2840.00
18.1185 2366.00
18.4227 2282.00
18.727 2385.00
19.0312 2314.00
19.3355 2788.00
19.6398 4707.00
19.944 5371.00
20.2483 2542.00
20.5525 2383.00
20.8568 2597.00
21.1611 2464.00
21.4653 2247.00
21.7696 2694.00
22.0738 2734.00
22.3781 2236.00
22.6824 2205.00
22.9866 2639.00
23.2909 3515.00
23.5951 2425.00
23.8994 2251.00
24.2037 2730.00
24.5079 2619.00
24.8122 3241.00
25.1164 2033.00
25.4207 1940.00
25.725 1953.00
26.0292 1951.00
26.3335 1941.00
26.6378 1886.00
26.942 1902.00
27.2463 1947.00
27.5505 2024.00
27.8548 2958.00
28.1591 2838.00
28.4633 12175.00
28.7676 2829.00
29.0718 2225.00
29.3761 2134.00
29.6804 1821.00
29.9846 1977.00
30.2889 2034.00
30.5931 2529.00
30.8974 8622.00
31.2017 6215.00
31.5059 3245.00
31.8102 8322.00
32.1144 2140.00
32.4187 1845.00
32.723 1754.00
33.0272 1819.00
33.3315 1837.00
33.6357 1857.00
33.94 1932.00
34.2443 3195.00
34.5485 6689.00
34.8528 2950.00
35.157 2012.00
35.4613 2455.00
35.7656 3545.00
36.0698 1882.00
36.3741 1697.00
36.6783 1553.00
36.9826 1556.00
37.2869 1536.00
37.5911 1619.00
37.8954 1623.00
38.1996 1511.00
38.5039 1470.00
38.8082 1875.00
39.1124 1636.00
39.4167 1560.00
39.7209 1689.00
40.0252 1578.00
40.3295 1610.00
40.6337 1525.00
40.938 2156.00
41.2422 2082.00
41.5465 1968.00
41.8508 2132.00
42.155 2092.00
42.4593 1667.00
42.7635 1523.00
43.0678 1522.00
43.3721 1473.00
43.6763 1537.00
43.9806 1497.00
44.2849 1528.00
44.5891 1689.00
44.8934 2009.00
45.1976 2155.00
45.5019 1762.00
45.8062 2289.00
46.1104 1790.00
46.4147 1636.00
46.7189 1825.00
47.0232 2988.00
47.3275 2022.00
47.6317 1550.00
47.936 1522.00
48.2402 1525.00
48.5445 1559.00
48.8488 1523.00
49.153 1791.00
49.4573 2703.00
49.7615 2116.00
50.0658 1587.00
50.3701 3217.00
50.6743 2431.00
50.9786 2777.00
51.2828 3263.00
51.5871 2087.00
51.8914 1582.00
52.1956 1456.00
52.4999 1459.00
52.8041 1469.00
53.1084 1499.00
53.4127 1682.00
53.7169 2189.00
54.0212 1891.00
54.3254 2601.00
54.6297 1608.00
54.934 1601.00
55.2382 1557.00
55.5425 2426.00
55.8467 2256.00
56.151 2010.00
56.4553 1862.00
56.7595 1421.00
57.0638 1448.00
57.368 1816.00
57.6723 1743.00
57.9766 1524.00
58.2808 1787.00
58.5851 1903.00
58.8893 1620.00
59.1936 1696.00
59.4979 2334.00
59.8021 1760.00
60.1064 2385.00
60.4106 2153.00
60.7149 1743.00
61.0192 2160.00
61.3234 1909.00
61.6277 2273.00
61.932 1760.00
62.2362 2085.00
62.5405 1699.00
62.8447 1596.00
63.149 2204.00
63.4533 1418.00
63.7575 1402.00
64.0618 1452.00
64.366 1487.00
64.6703 1564.00
64.9745 1411.00
65.2788 1683.00
65.5831 1691.00
65.8873 2022.00
66.1916 1866.00
66.4959 1503.00
66.8001 1499.00
67.1044 1362.00
67.4086 1228.00
67.7129 1296.00
68.0172 1277.00
68.3214 1326.00
68.6257 1376.00
68.9299 1466.00
69.2342 1605.00
69.5385 1360.00
69.8427 1324.00
70.147 1238.00
70.4512 1335.00
70.7555 1202.00
71.0598 1294.00
71.364 1587.00
71.6683 1486.00
71.9725 1360.00
72.2768 1534.00
72.5811 1456.00
72.8853 1405.00
73.1896 1304.00
73.4938 1290.00
73.7981 1300.00
74.1024 1328.00
74.4066 1243.00
74.7109 1327.00
75.0151 1332.00
75.3194 1638.00
75.6237 1539.00
75.9279 1393.00
76.2322 1256.00
76.5364 1273.00
76.8407 1465.00
77.145 1290.00
77.4492 1392.00
77.7535 1311.00
78.0577 1336.00
78.362 1251.00
78.6663 1367.00
78.9705 1317.00
79.2748 1368.00
79.579 1258.00
79.8833 1173.00
80.1876 1260.00
80.4918 1287.00
80.7961 1395.00
81.1003 1283.00
81.4046 1240.00
81.7089 1400.00
82.0131 1404.00
82.3174 1278.00
82.6217 1308.00
82.9259 1287.00
83.2302 1414.00
83.5344 1444.00
83.8387 1259.00
84.143 1379.00
84.4472 1318.00
84.7515 1329.00
85.0557 1255.00
85.36 1160.00
85.6643 1203.00
85.9685 1375.00
86.2728 1318.00
86.577 1345.00
86.8813 1262.00
87.1856 1294.00
87.4898 1305.00
87.7941 1392.00
88.0983 1401.00
88.4026 1492.00
88.7069 1422.00
89.0111 1324.00
89.3154 1241.00
89.6196 1223.00
89.9239 1436.00
90.2282 1365.00
90.5324 1281.00
90.8367 1255.00
91.1409 1177.00
91.4452 1323.00
91.7495 1241.00
92.0537 1319.00
92.358 1180.00
92.6622 1318.00
92.9665 1235.00
93.2708 1286.00
93.575 1238.00
93.8793 1275.00
94.1835 1276.00
94.4878 1187.00
94.7921 1224.00
95.0963 1315.00
95.4006 1351.00
95.7048 1287.00
96.0091 1278.00
96.3134 1338.00
96.6176 1502.00
96.9219 1542.00
97.2261 1412.00
97.5304 1228.00
97.8347 1208.00
98.1389 1279.00
98.4432 1271.00
98.7474 1273.00
99.0517 1315.00
99.356 1437.00
99.6602 1376.00
99.9645 1315.00
100.095 1300.00