File: data/xrd_creation/results/NSC_111.xy
9.903433 2812.00
10.2077 2625.00
10.512 2612.00
10.8162 2479.00
11.1205 2363.00
11.4247 2207.00
11.729 2096.00
12.0333 2071.00
12.3375 1976.00
12.6418 1867.00
12.946 1871.00
13.2503 1789.00
13.5546 1742.00
13.8588 1746.00
14.1631 2077.00
14.4673 2415.00
14.7716 1619.00
15.0759 1596.00
15.3801 1592.00
15.6844 1550.00
15.9886 1551.00
16.2929 1487.00
16.5972 1420.00
16.9014 1450.00
17.2057 1427.00
17.5099 1443.00
17.8142 1286.00
18.1185 1358.00
18.4227 1324.00
18.727 1363.00
19.0312 1276.00
19.3355 1382.00
19.6398 2365.00
19.944 4601.00
20.2483 1520.00
20.5525 1802.00
20.8568 6257.00
21.1611 1686.00
21.4653 1275.00
21.7696 1210.00
22.0738 1170.00
22.3781 1081.00
22.6824 1067.00
22.9866 1035.00
23.2909 1107.00
23.5951 1130.00
23.8994 2704.00
24.2037 2688.00
24.5079 1026.00
24.8122 1058.00
25.1164 991.00
25.4207 893.00
25.725 889.00
26.0292 939.00
26.3335 887.00
26.6378 1031.00
26.942 888.00
27.2463 832.00
27.5505 776.00
27.8548 814.00
28.1591 884.00
28.4633 861.00
28.7676 1743.00
29.0718 3330.00
29.3761 818.00
29.6804 853.00
29.9846 751.00
30.2889 783.00
30.5931 743.00
30.8974 740.00
31.2017 836.00
31.5059 1159.00
31.8102 6201.00
32.1144 1259.00
32.4187 1163.00
32.723 668.00
33.0272 685.00
33.3315 686.00
33.6357 680.00
33.94 914.00
34.2443 905.00
34.5485 555.00
34.8528 577.00
35.157 592.00
35.4613 685.00
35.7656 970.00
36.0698 2100.00
36.3741 1350.00
36.6783 2567.00
36.9826 636.00
37.2869 596.00
37.5911 587.00
37.8954 604.00
38.1996 549.00
38.5039 655.00
38.8082 530.00
39.1124 518.00
39.4167 537.00
39.7209 458.00
40.0252 509.00
40.3295 884.00
40.6337 543.00
40.938 490.00
41.2422 536.00
41.5465 501.00
41.8508 764.00
42.155 866.00
42.4593 969.00
42.7635 573.00
43.0678 575.00
43.3721 489.00
43.6763 477.00
43.9806 1125.00
44.2849 851.00
44.5891 473.00
44.8934 489.00
45.1976 606.00
45.5019 488.00
45.8062 1414.00
46.1104 750.00
46.4147 448.00
46.7189 429.00
47.0232 573.00
47.3275 2203.00
47.6317 720.00
47.936 469.00
48.2402 447.00
48.5445 540.00
48.8488 533.00
49.153 1796.00
49.4573 1128.00
49.7615 451.00
50.0658 530.00
50.3701 495.00
50.6743 419.00
50.9786 371.00
51.2828 415.00
51.5871 410.00
51.8914 647.00
52.1956 1828.00
52.4999 1167.00
52.8041 429.00
53.1084 533.00
53.4127 399.00
53.7169 354.00
54.0212 366.00
54.3254 428.00
54.6297 412.00
54.934 394.00
55.2382 398.00
55.5425 828.00
55.8467 511.00
56.151 424.00
56.4553 389.00
56.7595 1099.00
57.0638 1184.00
57.368 1732.00
57.6723 525.00
57.9766 436.00
58.2808 403.00
58.5851 478.00
58.8893 816.00
59.1936 410.00
59.4979 361.00
59.8021 398.00
60.1064 564.00
60.4106 343.00
60.7149 369.00
61.0192 460.00
61.3234 1326.00
61.6277 477.00
61.932 428.00
62.2362 535.00
62.5405 513.00
62.8447 1666.00
63.149 1264.00
63.4533 503.00
63.7575 344.00
64.0618 356.00
64.366 464.00
64.6703 386.00
64.9745 366.00
65.2788 558.00
65.5831 970.00
65.8873 867.00
66.1916 514.00
66.4959 366.00
66.8001 354.00
67.1044 596.00
67.4086 818.00
67.7129 403.00
68.0172 404.00
68.3214 293.00
68.6257 279.00
68.9299 289.00
69.2342 404.00
69.5385 1025.00
69.8427 461.00
70.147 313.00
70.4512 275.00
70.7555 328.00
71.0598 453.00
71.364 351.00
71.6683 301.00
71.9725 316.00
72.2768 318.00
72.5811 298.00
72.8853 263.00
73.1896 331.00
73.4938 760.00
73.7981 410.00
74.1024 320.00
74.4066 300.00
74.7109 304.00
75.0151 410.00
75.3194 626.00
75.6237 417.00
75.9279 410.00
76.2322 491.00
76.5364 361.00
76.8407 260.00
77.145 292.00
77.4492 375.00
77.7535 614.00
78.0577 414.00
78.362 287.00
78.6663 312.00
78.9705 365.00
79.2748 380.00
79.579 328.00
79.8833 288.00
80.1876 324.00
80.4918 302.00
80.7961 287.00
81.1003 584.00
81.4046 625.00
81.7089 463.00
82.0131 276.00
82.3174 303.00
82.6217 471.00
82.9259 696.00
83.2302 379.00
83.5344 280.00
83.8387 289.00
84.143 282.00
84.4472 261.00
84.7515 229.00
85.0557 323.00
85.36 291.00
85.6643 304.00
85.9685 341.00
86.2728 540.00
86.577 531.00
86.8813 291.00
87.1856 288.00
87.4898 556.00
87.7941 742.00
88.0983 393.00
88.4026 334.00
88.7069 412.00
89.0111 320.00
89.3154 281.00
89.6196 259.00
89.9239 265.00
90.2282 345.00
90.5324 375.00
90.8367 379.00
91.1409 330.00
91.4452 330.00
91.7495 342.00
92.0537 301.00
92.358 474.00
92.6622 534.00
92.9665 403.00
93.2708 289.00
93.575 246.00
93.8793 256.00
94.1835 521.00
94.4878 409.00
94.7921 285.00
95.0963 435.00
95.4006 445.00
95.7048 343.00
96.0091 340.00
96.3134 404.00
96.6176 324.00
96.9219 290.00
97.2261 276.00
97.5304 350.00
97.8347 654.00
98.1389 450.00
98.4432 331.00
98.7474 267.00
99.0517 267.00
99.356 280.00
99.6602 322.00
99.9645 584.00
100.095 599.00