File: data/xrd_creation/results/NSC_120.xy
9.903433 2629.00
10.2077 2555.00
10.512 2442.00
10.8162 2392.00
11.1205 2323.00
11.4247 2301.00
11.729 2127.00
12.0333 1927.00
12.3375 1924.00
12.6418 1875.00
12.946 1799.00
13.2503 1821.00
13.5546 1760.00
13.8588 1680.00
14.1631 1649.00
14.4673 1914.00
14.7716 2884.00
15.0759 1541.00
15.3801 1541.00
15.6844 1510.00
15.9886 1502.00
16.2929 1431.00
16.5972 1379.00
16.9014 1369.00
17.2057 1349.00
17.5099 1400.00
17.8142 1297.00
18.1185 1328.00
18.4227 1282.00
18.727 1228.00
19.0312 1156.00
19.3355 1272.00
19.6398 1136.00
19.944 1222.00
20.2483 1475.00
20.5525 4703.00
20.8568 1520.00
21.1611 4540.00
21.4653 1392.00
21.7696 1227.00
22.0738 1788.00
22.3781 1048.00
22.6824 1145.00
22.9866 1155.00
23.2909 1034.00
23.5951 1006.00
23.8994 1141.00
24.2037 1841.00
24.5079 11681.00
24.8122 2280.00
25.1164 1045.00
25.4207 1101.00
25.725 1183.00
26.0292 1040.00
26.3335 857.00
26.6378 819.00
26.942 841.00
27.2463 841.00
27.5505 824.00
27.8548 870.00
28.1591 936.00
28.4633 804.00
28.7676 793.00
29.0718 772.00
29.3761 1234.00
29.6804 4084.00
29.9846 731.00
30.2889 698.00
30.5931 670.00
30.8974 660.00
31.2017 736.00
31.5059 756.00
31.8102 683.00
32.1144 749.00
32.4187 1270.00
32.723 12573.00
33.0272 1160.00
33.3315 671.00
33.6357 865.00
33.94 598.00
34.2443 591.00
34.5485 595.00
34.8528 592.00
35.157 540.00
35.4613 798.00
35.7656 606.00
36.0698 669.00
36.3741 628.00
36.6783 819.00
36.9826 3596.00
37.2869 558.00
37.5911 466.00
37.8954 523.00
38.1996 625.00
38.5039 465.00
38.8082 466.00
39.1124 439.00
39.4167 467.00
39.7209 473.00
40.0252 447.00
40.3295 449.00
40.6337 437.00
40.938 412.00
41.2422 498.00
41.5465 883.00
41.8508 436.00
42.155 395.00
42.4593 400.00
42.7635 442.00
43.0678 695.00
43.3721 1160.00
43.6763 635.00
43.9806 857.00
44.2849 393.00
44.5891 515.00
44.8934 1379.00
45.1976 458.00
45.5019 515.00
45.8062 394.00
46.1104 356.00
46.4147 409.00
46.7189 653.00
47.0232 2021.00
47.3275 401.00
47.6317 397.00
47.936 799.00
48.2402 368.00
48.5445 432.00
48.8488 624.00
49.153 368.00
49.4573 429.00
49.7615 703.00
50.0658 2896.00
50.3701 728.00
50.6743 990.00
50.9786 385.00
51.2828 370.00
51.5871 351.00
51.8914 352.00
52.1956 379.00
52.4999 321.00
52.8041 571.00
53.1084 384.00
53.4127 488.00
53.7169 1847.00
54.0212 1634.00
54.3254 382.00
54.6297 341.00
54.934 384.00
55.2382 396.00
55.5425 358.00
55.8467 353.00
56.151 325.00
56.4553 581.00
56.7595 946.00
57.0638 399.00
57.368 954.00
57.6723 2817.00
57.9766 1015.00
58.2808 402.00
58.5851 327.00
58.8893 562.00
59.1936 1035.00
59.4979 391.00
59.8021 310.00
60.1064 291.00
60.4106 322.00
60.7149 346.00
61.0192 1241.00
61.3234 503.00
61.6277 311.00
61.932 284.00
62.2362 366.00
62.5405 1014.00
62.8447 747.00
63.149 367.00
63.4533 459.00
63.7575 1086.00
64.0618 602.00
64.366 308.00
64.6703 298.00
64.9745 409.00
65.2788 1198.00
65.5831 441.00
65.8873 594.00
66.1916 837.00
66.4959 478.00
66.8001 746.00
67.1044 301.00
67.4086 293.00
67.7129 378.00
68.0172 350.00
68.3214 549.00
68.6257 686.00
68.9299 343.00
69.2342 451.00
69.5385 489.00
69.8427 259.00
70.147 339.00
70.4512 332.00
70.7555 386.00
71.0598 333.00
71.364 356.00
71.6683 421.00
71.9725 529.00
72.2768 312.00
72.5811 268.00
72.8853 258.00
73.1896 276.00
73.4938 296.00
73.7981 320.00
74.1024 760.00
74.4066 414.00
74.7109 264.00
75.0151 281.00
75.3194 394.00
75.6237 406.00
75.9279 206.00
76.2322 242.00
76.5364 276.00
76.8407 266.00
77.145 414.00
77.4492 437.00
77.7535 289.00
78.0577 459.00
78.362 712.00
78.6663 417.00
78.9705 583.00
79.2748 612.00
79.579 336.00
79.8833 232.00
80.1876 300.00
80.4918 261.00
80.7961 269.00
81.1003 328.00
81.4046 198.00
81.7089 250.00
82.0131 399.00
82.3174 303.00
82.6217 301.00
82.9259 284.00
83.2302 329.00
83.5344 275.00
83.8387 192.00
84.143 192.00
84.4472 246.00
84.7515 337.00
85.0557 356.00
85.36 224.00
85.6643 223.00
85.9685 214.00
86.2728 268.00
86.577 297.00
86.8813 319.00
87.1856 624.00
87.4898 430.00
87.7941 261.00
88.0983 222.00
88.4026 278.00
88.7069 542.00
89.0111 405.00
89.3154 517.00
89.6196 347.00
89.9239 258.00
90.2282 224.00
90.5324 256.00
90.8367 273.00
91.1409 225.00
91.4452 455.00
91.7495 335.00
92.0537 230.00
92.358 392.00
92.6622 273.00
92.9665 230.00
93.2708 291.00
93.575 364.00
93.8793 555.00
94.1835 384.00
94.4878 290.00
94.7921 270.00
95.0963 275.00
95.4006 305.00
95.7048 247.00
96.0091 295.00
96.3134 338.00
96.6176 324.00
96.9219 313.00
97.2261 280.00
97.5304 230.00
97.8347 205.00
98.1389 235.00
98.4432 277.00
98.7474 298.00
99.0517 362.00
99.356 287.00
99.6602 292.00
99.9645 523.00
100.095 605.00