File: data/xrd_creation/results/NSC_131.xy
9.903433 2806.00
10.2077 2683.00
10.512 2504.00
10.8162 2402.00
11.1205 2548.00
11.4247 2175.00
11.729 2315.00
12.0333 2170.00
12.3375 2050.00
12.6418 2034.00
12.946 1969.00
13.2503 1976.00
13.5546 1931.00
13.8588 1910.00
14.1631 2012.00
14.4673 2406.00
14.7716 2265.00
15.0759 2210.00
15.3801 1854.00
15.6844 1816.00
15.9886 1757.00
16.2929 1723.00
16.5972 1676.00
16.9014 1694.00
17.2057 1684.00
17.5099 1597.00
17.8142 1646.00
18.1185 1632.00
18.4227 1632.00
18.727 1709.00
19.0312 2888.00
19.3355 1622.00
19.6398 1671.00
19.944 2827.00
20.2483 4394.00
20.5525 2556.00
20.8568 5926.00
21.1611 4167.00
21.4653 2217.00
21.7696 3406.00
22.0738 4994.00
22.3781 1634.00
22.6824 1561.00
22.9866 1534.00
23.2909 1495.00
23.5951 1451.00
23.8994 2073.00
24.2037 4178.00
24.5079 3651.00
24.8122 2105.00
25.1164 2812.00
25.4207 2108.00
25.725 1458.00
26.0292 1444.00
26.3335 1339.00
26.6378 1415.00
26.942 2724.00
27.2463 1398.00
27.5505 1330.00
27.8548 1289.00
28.1591 1282.00
28.4633 1321.00
28.7676 1614.00
29.0718 3070.00
29.3761 2514.00
29.6804 1600.00
29.9846 1575.00
30.2889 2553.00
30.5931 1847.00
30.8974 1392.00
31.2017 2404.00
31.5059 1377.00
31.8102 2394.00
32.1144 4294.00
32.4187 2576.00
32.723 1751.00
33.0272 2070.00
33.3315 3010.00
33.6357 1508.00
33.94 1702.00
34.2443 1247.00
34.5485 1333.00
34.8528 1160.00
35.157 1154.00
35.4613 1228.00
35.7656 1613.00
36.0698 2854.00
36.3741 2658.00
36.6783 3897.00
36.9826 1770.00
37.2869 1405.00
37.5911 2047.00
37.8954 1353.00
38.1996 1802.00
38.5039 1474.00
38.8082 1114.00
39.1124 1092.00
39.4167 1060.00
39.7209 1116.00
40.0252 1366.00
40.3295 1237.00
40.6337 1286.00
40.938 1137.00
41.2422 1000.00
41.5465 1135.00
41.8508 1210.00
42.155 1466.00
42.4593 1462.00
42.7635 1327.00
43.0678 1220.00
43.3721 1249.00
43.6763 1964.00
43.9806 1492.00
44.2849 1399.00
44.5891 1411.00
44.8934 1200.00
45.1976 1128.00
45.5019 1239.00
45.8062 1670.00
46.1104 1730.00
46.4147 1399.00
46.7189 1192.00
47.0232 1328.00
47.3275 1553.00
47.6317 1660.00
47.936 1730.00
48.2402 1261.00
48.5445 1408.00
48.8488 1685.00
49.153 1819.00
49.4573 1937.00
49.7615 1678.00
50.0658 2041.00
50.3701 1289.00
50.6743 1180.00
50.9786 1123.00
51.2828 1325.00
51.5871 1419.00
51.8914 1140.00
52.1956 1352.00
52.4999 1749.00
52.8041 1541.00
53.1084 1321.00
53.4127 1164.00
53.7169 1124.00
54.0212 1128.00
54.3254 1222.00
54.6297 1315.00
54.934 1254.00
55.2382 1681.00
55.5425 1300.00
55.8467 1197.00
56.151 1214.00
56.4553 1410.00
56.7595 1566.00
57.0638 1539.00
57.368 1494.00
57.6723 1536.00
57.9766 1406.00
58.2808 1293.00
58.5851 1442.00
58.8893 1711.00
59.1936 1422.00
59.4979 1461.00
59.8021 1429.00
60.1064 1324.00
60.4106 1178.00
60.7149 1094.00
61.0192 1282.00
61.3234 1315.00
61.6277 1329.00
61.932 1168.00
62.2362 1295.00
62.5405 1307.00
62.8447 1397.00
63.149 1524.00
63.4533 1656.00
63.7575 1594.00
64.0618 1358.00
64.366 1247.00
64.6703 1348.00
64.9745 1322.00
65.2788 1437.00
65.5831 1509.00
65.8873 1511.00
66.1916 1287.00
66.4959 1171.00
66.8001 1061.00
67.1044 1113.00
67.4086 1167.00
67.7129 1307.00
68.0172 1325.00
68.3214 1140.00
68.6257 1268.00
68.9299 1383.00
69.2342 1303.00
69.5385 1149.00
69.8427 1150.00
70.147 1125.00
70.4512 1113.00
70.7555 1044.00
71.0598 1004.00
71.364 1002.00
71.6683 960.00
71.9725 982.00
72.2768 985.00
72.5811 1052.00
72.8853 1145.00
73.1896 1173.00
73.4938 1050.00
73.7981 1029.00
74.1024 969.00
74.4066 1066.00
74.7109 1041.00
75.0151 1014.00
75.3194 1070.00
75.6237 1066.00
75.9279 1097.00
76.2322 1090.00
76.5364 1146.00
76.8407 1072.00
77.145 1140.00
77.4492 1163.00
77.7535 1072.00
78.0577 1014.00
78.362 997.00
78.6663 1036.00
78.9705 1072.00
79.2748 1035.00
79.579 1020.00
79.8833 1031.00
80.1876 1025.00
80.4918 1025.00
80.7961 1024.00
81.1003 1002.00
81.4046 1119.00
81.7089 984.00
82.0131 1025.00
82.3174 1109.00
82.6217 1004.00
82.9259 1005.00
83.2302 1068.00
83.5344 1007.00
83.8387 974.00
84.143 954.00
84.4472 999.00
84.7515 994.00
85.0557 991.00
85.36 988.00
85.6643 1121.00
85.9685 1042.00
86.2728 962.00
86.577 1040.00
86.8813 1028.00
87.1856 1076.00
87.4898 1089.00
87.7941 1064.00
88.0983 1051.00
88.4026 1024.00
88.7069 1020.00
89.0111 958.00
89.3154 995.00
89.6196 1006.00
89.9239 1087.00
90.2282 1006.00
90.5324 1016.00
90.8367 1041.00
91.1409 1082.00
91.4452 1069.00
91.7495 1036.00
92.0537 1082.00
92.358 1043.00
92.6622 1160.00
92.9665 1133.00
93.2708 1016.00
93.575 1041.00
93.8793 1014.00
94.1835 1014.00
94.4878 979.00
94.7921 979.00
95.0963 1024.00
95.4006 1052.00
95.7048 974.00
96.0091 1037.00
96.3134 956.00
96.6176 1005.00
96.9219 1014.00
97.2261 1007.00
97.5304 1010.00
97.8347 995.00
98.1389 985.00
98.4432 1019.00
98.7474 1048.00
99.0517 985.00
99.356 973.00
99.6602 929.00
99.9645 994.00
100.095 1014.00