File: data/xrd_creation/results/NSC_49.xy
9.903433 2733.00
10.2077 2757.00
10.512 2582.00
10.8162 2412.00
11.1205 2368.00
11.4247 2356.00
11.729 2829.00
12.0333 2125.00
12.3375 2049.00
12.6418 1996.00
12.946 2121.00
13.2503 2077.00
13.5546 2255.00
13.8588 1746.00
14.1631 1671.00
14.4673 1599.00
14.7716 1605.00
15.0759 1473.00
15.3801 1554.00
15.6844 1489.00
15.9886 1487.00
16.2929 1451.00
16.5972 1461.00
16.9014 1448.00
17.2057 1483.00
17.5099 1393.00
17.8142 1351.00
18.1185 1362.00
18.4227 1313.00
18.727 1464.00
19.0312 2101.00
19.3355 2398.00
19.6398 2394.00
19.944 1366.00
20.2483 1301.00
20.5525 1221.00
20.8568 1143.00
21.1611 1165.00
21.4653 1089.00
21.7696 1106.00
22.0738 1089.00
22.3781 1264.00
22.6824 3103.00
22.9866 1512.00
23.2909 1116.00
23.5951 1071.00
23.8994 1049.00
24.2037 1086.00
24.5079 937.00
24.8122 1002.00
25.1164 940.00
25.4207 904.00
25.725 929.00
26.0292 921.00
26.3335 882.00
26.6378 931.00
26.942 936.00
27.2463 1035.00
27.5505 1671.00
27.8548 1219.00
28.1591 1547.00
28.4633 927.00
28.7676 817.00
29.0718 872.00
29.3761 855.00
29.6804 786.00
29.9846 1090.00
30.2889 1934.00
30.5931 3221.00
30.8974 1130.00
31.2017 1324.00
31.5059 1123.00
31.8102 807.00
32.1144 685.00
32.4187 655.00
32.723 730.00
33.0272 721.00
33.3315 750.00
33.6357 964.00
33.94 1631.00
34.2443 2143.00
34.5485 838.00
34.8528 654.00
35.157 693.00
35.4613 684.00
35.7656 599.00
36.0698 620.00
36.3741 604.00
36.6783 525.00
36.9826 604.00
37.2869 568.00
37.5911 549.00
37.8954 579.00
38.1996 559.00
38.5039 567.00
38.8082 571.00
39.1124 588.00
39.4167 517.00
39.7209 572.00
40.0252 540.00
40.3295 533.00
40.6337 631.00
40.938 592.00
41.2422 662.00
41.5465 690.00
41.8508 622.00
42.155 572.00
42.4593 531.00
42.7635 511.00
43.0678 563.00
43.3721 566.00
43.6763 618.00
43.9806 516.00
44.2849 608.00
44.5891 677.00
44.8934 569.00
45.1976 477.00
45.5019 515.00
45.8062 568.00
46.1104 630.00
46.4147 889.00
46.7189 950.00
47.0232 652.00
47.3275 463.00
47.6317 499.00
47.936 454.00
48.2402 510.00
48.5445 425.00
48.8488 483.00
49.153 571.00
49.4573 426.00
49.7615 478.00
50.0658 641.00
50.3701 723.00
50.6743 573.00
50.9786 473.00
51.2828 469.00
51.5871 457.00
51.8914 427.00
52.1956 438.00
52.4999 436.00
52.8041 536.00
53.1084 539.00
53.4127 759.00
53.7169 547.00
54.0212 478.00
54.3254 439.00
54.6297 407.00
54.934 406.00
55.2382 431.00
55.5425 414.00
55.8467 389.00
56.151 393.00
56.4553 372.00
56.7595 397.00
57.0638 398.00
57.368 424.00
57.6723 412.00
57.9766 445.00
58.2808 402.00
58.5851 489.00
58.8893 562.00
59.1936 572.00
59.4979 420.00
59.8021 402.00
60.1064 403.00
60.4106 402.00
60.7149 435.00
61.0192 395.00
61.3234 531.00
61.6277 445.00
61.932 464.00
62.2362 383.00
62.5405 392.00
62.8447 400.00
63.149 373.00
63.4533 330.00
63.7575 341.00
64.0618 372.00
64.366 322.00
64.6703 358.00
64.9745 367.00
65.2788 373.00
65.5831 355.00
65.8873 403.00
66.1916 392.00
66.4959 356.00
66.8001 341.00
67.1044 299.00
67.4086 292.00
67.7129 289.00
68.0172 286.00
68.3214 370.00
68.6257 335.00
68.9299 355.00
69.2342 321.00
69.5385 327.00
69.8427 289.00
70.147 305.00
70.4512 281.00
70.7555 298.00
71.0598 349.00
71.364 307.00
71.6683 321.00
71.9725 326.00
72.2768 375.00
72.5811 362.00
72.8853 336.00
73.1896 329.00
73.4938 316.00
73.7981 302.00
74.1024 330.00
74.4066 326.00
74.7109 346.00
75.0151 267.00
75.3194 297.00
75.6237 318.00
75.9279 275.00
76.2322 320.00
76.5364 335.00
76.8407 332.00
77.145 300.00
77.4492 298.00
77.7535 333.00
78.0577 303.00
78.362 305.00
78.6663 282.00
78.9705 329.00
79.2748 311.00
79.579 345.00
79.8833 320.00
80.1876 357.00
80.4918 385.00
80.7961 319.00
81.1003 338.00
81.4046 325.00
81.7089 320.00
82.0131 365.00
82.3174 339.00
82.6217 351.00
82.9259 355.00
83.2302 347.00
83.5344 322.00
83.8387 292.00
84.143 303.00
84.4472 317.00
84.7515 298.00
85.0557 335.00
85.36 302.00
85.6643 332.00
85.9685 351.00
86.2728 340.00
86.577 352.00
86.8813 344.00
87.1856 302.00
87.4898 312.00
87.7941 329.00
88.0983 296.00
88.4026 324.00
88.7069 277.00
89.0111 296.00
89.3154 266.00
89.6196 281.00
89.9239 276.00
90.2282 277.00
90.5324 288.00
90.8367 293.00
91.1409 284.00
91.4452 301.00
91.7495 307.00
92.0537 231.00
92.358 335.00
92.6622 289.00
92.9665 296.00
93.2708 309.00
93.575 306.00
93.8793 295.00
94.1835 269.00
94.4878 275.00
94.7921 294.00
95.0963 278.00
95.4006 294.00
95.7048 280.00
96.0091 284.00
96.3134 263.00
96.6176 276.00
96.9219 284.00
97.2261 277.00
97.5304 232.00
97.8347 251.00
98.1389 294.00
98.4432 248.00
98.7474 273.00
99.0517 288.00
99.356 311.00
99.6602 296.00
99.9645 287.00
100.095 282.00