File: data/xrd_creation/results/NSC_102.xy
9.903433 2692.00
10.2077 2487.00
10.512 2391.00
10.8162 2275.00
11.1205 2240.00
11.4247 2014.00
11.729 1985.00
12.0333 1958.00
12.3375 1873.00
12.6418 1794.00
12.946 1675.00
13.2503 1588.00
13.5546 1563.00
13.8588 1432.00
14.1631 1430.00
14.4673 1467.00
14.7716 1372.00
15.0759 1391.00
15.3801 1296.00
15.6844 1321.00
15.9886 1299.00
16.2929 1222.00
16.5972 1209.00
16.9014 1219.00
17.2057 1179.00
17.5099 1113.00
17.8142 1091.00
18.1185 1207.00
18.4227 1095.00
18.727 1027.00
19.0312 1049.00
19.3355 1011.00
19.6398 996.00
19.944 973.00
20.2483 890.00
20.5525 970.00
20.8568 890.00
21.1611 934.00
21.4653 863.00
21.7696 878.00
22.0738 826.00
22.3781 841.00
22.6824 821.00
22.9866 805.00
23.2909 763.00
23.5951 748.00
23.8994 820.00
24.2037 739.00
24.5079 761.00
24.8122 728.00
25.1164 720.00
25.4207 748.00
25.725 667.00
26.0292 735.00
26.3335 1102.00
26.6378 895.00
26.942 671.00
27.2463 709.00
27.5505 683.00
27.8548 704.00
28.1591 703.00
28.4633 649.00
28.7676 638.00
29.0718 635.00
29.3761 607.00
29.6804 577.00
29.9846 571.00
30.2889 620.00
30.5931 545.00
30.8974 559.00
31.2017 533.00
31.5059 522.00
31.8102 566.00
32.1144 493.00
32.4187 529.00
32.723 518.00
33.0272 515.00
33.3315 527.00
33.6357 965.00
33.94 742.00
34.2443 561.00
34.5485 453.00
34.8528 466.00
35.157 424.00
35.4613 443.00
35.7656 464.00
36.0698 459.00
36.3741 456.00
36.6783 360.00
36.9826 424.00
37.2869 400.00
37.5911 431.00
37.8954 643.00
38.1996 414.00
38.5039 369.00
38.8082 410.00
39.1124 391.00
39.4167 377.00
39.7209 355.00
40.0252 349.00
40.3295 373.00
40.6337 346.00
40.938 346.00
41.2422 374.00
41.5465 366.00
41.8508 326.00
42.155 341.00
42.4593 344.00
42.7635 313.00
43.0678 326.00
43.3721 316.00
43.6763 337.00
43.9806 323.00
44.2849 336.00
44.5891 283.00
44.8934 291.00
45.1976 311.00
45.5019 351.00
45.8062 264.00
46.1104 281.00
46.4147 310.00
46.7189 303.00
47.0232 299.00
47.3275 290.00
47.6317 263.00
47.936 297.00
48.2402 270.00
48.5445 297.00
48.8488 305.00
49.153 291.00
49.4573 291.00
49.7615 296.00
50.0658 308.00
50.3701 307.00
50.6743 296.00
50.9786 309.00
51.2828 332.00
51.5871 649.00
51.8914 502.00
52.1956 289.00
52.4999 271.00
52.8041 265.00
53.1084 268.00
53.4127 265.00
53.7169 290.00
54.0212 236.00
54.3254 284.00
54.6297 390.00
54.934 274.00
55.2382 258.00
55.5425 290.00
55.8467 247.00
56.151 279.00
56.4553 204.00
56.7595 231.00
57.0638 233.00
57.368 239.00
57.6723 306.00
57.9766 295.00
58.2808 198.00
58.5851 215.00
58.8893 242.00
59.1936 240.00
59.4979 207.00
59.8021 225.00
60.1064 179.00
60.4106 198.00
60.7149 212.00
61.0192 220.00
61.3234 203.00
61.6277 271.00
61.932 317.00
62.2362 225.00
62.5405 213.00
62.8447 224.00
63.149 210.00
63.4533 206.00
63.7575 211.00
64.0618 205.00
64.366 206.00
64.6703 317.00
64.9745 219.00
65.2788 231.00
65.5831 201.00
65.8873 316.00
66.1916 250.00
66.4959 202.00
66.8001 208.00
67.1044 177.00
67.4086 188.00
67.7129 189.00
68.0172 210.00
68.3214 220.00
68.6257 188.00
68.9299 190.00
69.2342 205.00
69.5385 231.00
69.8427 172.00
70.147 218.00
70.4512 190.00
70.7555 225.00
71.0598 232.00
71.364 279.00
71.6683 209.00
71.9725 203.00
72.2768 206.00
72.5811 181.00
72.8853 202.00
73.1896 204.00
73.4938 194.00
73.7981 212.00
74.1024 200.00
74.4066 215.00
74.7109 198.00
75.0151 213.00
75.3194 211.00
75.6237 225.00
75.9279 216.00
76.2322 241.00
76.5364 201.00
76.8407 244.00
77.145 225.00
77.4492 237.00
77.7535 225.00
78.0577 221.00
78.362 231.00
78.6663 284.00
78.9705 268.00
79.2748 219.00
79.579 189.00
79.8833 232.00
80.1876 242.00
80.4918 233.00
80.7961 236.00
81.1003 259.00
81.4046 237.00
81.7089 246.00
82.0131 246.00
82.3174 218.00
82.6217 227.00
82.9259 234.00
83.2302 247.00
83.5344 271.00
83.8387 319.00
84.143 246.00
84.4472 237.00
84.7515 224.00
85.0557 216.00
85.36 245.00
85.6643 205.00
85.9685 214.00
86.2728 205.00
86.577 193.00
86.8813 204.00
87.1856 218.00
87.4898 192.00
87.7941 208.00
88.0983 190.00
88.4026 190.00
88.7069 199.00
89.0111 207.00
89.3154 201.00
89.6196 214.00
89.9239 257.00
90.2282 209.00
90.5324 237.00
90.8367 226.00
91.1409 220.00
91.4452 204.00
91.7495 195.00
92.0537 180.00
92.358 212.00
92.6622 187.00
92.9665 196.00
93.2708 208.00
93.575 208.00
93.8793 192.00
94.1835 166.00
94.4878 197.00
94.7921 208.00
95.0963 179.00
95.4006 187.00
95.7048 181.00
96.0091 182.00
96.3134 214.00
96.6176 218.00
96.9219 178.00
97.2261 194.00
97.5304 189.00
97.8347 199.00
98.1389 213.00
98.4432 196.00
98.7474 200.00
99.0517 185.00
99.356 177.00
99.6602 192.00
99.9645 185.00
100.095 200.00