File: data/xrd_creation/results/NSC_135.xy
9.903433 2571.00
10.2077 2595.00
10.512 2517.00
10.8162 2394.00
11.1205 2335.00
11.4247 2174.00
11.729 2140.00
12.0333 2096.00
12.3375 2023.00
12.6418 1934.00
12.946 1926.00
13.2503 1819.00
13.5546 1829.00
13.8588 1885.00
14.1631 2447.00
14.4673 3919.00
14.7716 1751.00
15.0759 1607.00
15.3801 1685.00
15.6844 1635.00
15.9886 1659.00
16.2929 1607.00
16.5972 1535.00
16.9014 1685.00
17.2057 1593.00
17.5099 1527.00
17.8142 1520.00
18.1185 1542.00
18.4227 1496.00
18.727 1526.00
19.0312 1450.00
19.3355 1722.00
19.6398 3619.00
19.944 11114.00
20.2483 3226.00
20.5525 7000.00
20.8568 3625.00
21.1611 1542.00
21.4653 1451.00
21.7696 1644.00
22.0738 2023.00
22.3781 1415.00
22.6824 1457.00
22.9866 1377.00
23.2909 1625.00
23.5951 2767.00
23.8994 8280.00
24.2037 1460.00
24.5079 1312.00
24.8122 1309.00
25.1164 1286.00
25.4207 1338.00
25.725 1409.00
26.0292 2066.00
26.3335 3252.00
26.6378 2703.00
26.942 1497.00
27.2463 1210.00
27.5505 1155.00
27.8548 1149.00
28.1591 1351.00
28.4633 2532.00
28.7676 8198.00
29.0718 1326.00
29.3761 1163.00
29.6804 1104.00
29.9846 1139.00
30.2889 1111.00
30.5931 1183.00
30.8974 1151.00
31.2017 1562.00
31.5059 4189.00
31.8102 8554.00
32.1144 1395.00
32.4187 1066.00
32.723 1079.00
33.0272 1056.00
33.3315 1057.00
33.6357 1049.00
33.94 1232.00
34.2443 1830.00
34.5485 1029.00
34.8528 1019.00
35.157 1337.00
35.4613 3418.00
35.7656 3049.00
36.0698 5138.00
36.3741 1339.00
36.6783 1079.00
36.9826 978.00
37.2869 999.00
37.5911 947.00
37.8954 946.00
38.1996 1127.00
38.5039 1209.00
38.8082 916.00
39.1124 960.00
39.4167 1023.00
39.7209 1157.00
40.0252 1301.00
40.3295 1396.00
40.6337 932.00
40.938 895.00
41.2422 903.00
41.5465 1250.00
41.8508 2231.00
42.155 1793.00
42.4593 1239.00
42.7635 942.00
43.0678 977.00
43.3721 1532.00
43.6763 1914.00
43.9806 964.00
44.2849 1121.00
44.5891 837.00
44.8934 928.00
45.1976 1319.00
45.5019 3021.00
45.8062 1201.00
46.1104 989.00
46.4147 1786.00
46.7189 1844.00
47.0232 1432.00
47.3275 1735.00
47.6317 859.00
47.936 846.00
48.2402 1448.00
48.5445 3991.00
48.8488 1675.00
49.153 1306.00
49.4573 1031.00
49.7615 919.00
50.0658 1002.00
50.3701 873.00
50.6743 790.00
50.9786 804.00
51.2828 1029.00
51.5871 1371.00
51.8914 3430.00
52.1956 1708.00
52.4999 1059.00
52.8041 847.00
53.1084 851.00
53.4127 914.00
53.7169 902.00
54.0212 789.00
54.3254 831.00
54.6297 1187.00
54.934 1716.00
55.2382 1076.00
55.5425 1341.00
55.8467 2801.00
56.151 3428.00
56.4553 1399.00
56.7595 883.00
57.0638 854.00
57.368 904.00
57.6723 965.00
57.9766 817.00
58.2808 891.00
58.5851 1111.00
58.8893 1595.00
59.1936 1492.00
59.4979 941.00
59.8021 1036.00
60.1064 998.00
60.4106 1526.00
60.7149 1980.00
61.0192 989.00
61.3234 986.00
61.6277 2060.00
61.932 2004.00
62.2362 1046.00
62.5405 993.00
62.8447 1383.00
63.149 1381.00
63.4533 1055.00
63.7575 1045.00
64.0618 1412.00
64.366 1737.00
64.6703 1512.00
64.9745 921.00
65.2788 859.00
65.5831 867.00
65.8873 1092.00
66.1916 1148.00
66.4959 1115.00
66.8001 1464.00
67.1044 1403.00
67.4086 1185.00
67.7129 1063.00
68.0172 1349.00
68.3214 1262.00
68.6257 1279.00
68.9299 927.00
69.2342 857.00
69.5385 1089.00
69.8427 1012.00
70.147 810.00
70.4512 836.00
70.7555 832.00
71.0598 819.00
71.364 796.00
71.6683 1238.00
71.9725 1420.00
72.2768 945.00
72.5811 805.00
72.8853 816.00
73.1896 798.00
73.4938 682.00
73.7981 794.00
74.1024 925.00
74.4066 1178.00
74.7109 1235.00
75.0151 934.00
75.3194 895.00
75.6237 1075.00
75.9279 1374.00
76.2322 1187.00
76.5364 925.00
76.8407 741.00
77.145 721.00
77.4492 793.00
77.7535 817.00
78.0577 888.00
78.362 858.00
78.6663 807.00
78.9705 884.00
79.2748 1140.00
79.579 1311.00
79.8833 1264.00
80.1876 1005.00
80.4918 838.00
80.7961 884.00
81.1003 901.00
81.4046 847.00
81.7089 1122.00
82.0131 1140.00
82.3174 854.00
82.6217 728.00
82.9259 696.00
83.2302 812.00
83.5344 835.00
83.8387 741.00
84.143 893.00
84.4472 1162.00
84.7515 932.00
85.0557 837.00
85.36 827.00
85.6643 848.00
85.9685 986.00
86.2728 963.00
86.577 971.00
86.8813 943.00
87.1856 915.00
87.4898 894.00
87.7941 848.00
88.0983 731.00
88.4026 735.00
88.7069 791.00
89.0111 951.00
89.3154 856.00
89.6196 812.00
89.9239 890.00
90.2282 1100.00
90.5324 1230.00
90.8367 1061.00
91.1409 898.00
91.4452 797.00
91.7495 760.00
92.0537 739.00
92.358 906.00
92.6622 1024.00
92.9665 1006.00
93.2708 864.00
93.575 886.00
93.8793 825.00
94.1835 804.00
94.4878 792.00
94.7921 884.00
95.0963 1002.00
95.4006 967.00
95.7048 809.00
96.0091 1046.00
96.3134 1038.00
96.6176 885.00
96.9219 905.00
97.2261 954.00
97.5304 936.00
97.8347 901.00
98.1389 870.00
98.4432 758.00
98.7474 757.00
99.0517 769.00
99.356 759.00
99.6602 852.00
99.9645 897.00
100.095 898.00