File: data/xrd_creation/results/NSC_34.xy
9.903433 2897.00
10.2077 2737.00
10.512 2638.00
10.8162 2664.00
11.1205 2490.00
11.4247 2478.00
11.729 2485.00
12.0333 2359.00
12.3375 2435.00
12.6418 2907.00
12.946 2358.00
13.2503 2163.00
13.5546 2077.00
13.8588 2313.00
14.1631 2738.00
14.4673 2042.00
14.7716 1995.00
15.0759 1943.00
15.3801 1943.00
15.6844 1938.00
15.9886 1987.00
16.2929 1901.00
16.5972 1930.00
16.9014 1945.00
17.2057 2005.00
17.5099 1953.00
17.8142 1847.00
18.1185 1852.00
18.4227 1838.00
18.727 1731.00
19.0312 1836.00
19.3355 2515.00
19.6398 4500.00
19.944 3190.00
20.2483 3323.00
20.5525 1904.00
20.8568 1850.00
21.1611 1920.00
21.4653 2297.00
21.7696 2058.00
22.0738 1748.00
22.3781 1664.00
22.6824 1796.00
22.9866 2522.00
23.2909 3614.00
23.5951 2043.00
23.8994 1668.00
24.2037 1753.00
24.5079 1683.00
24.8122 1632.00
25.1164 1610.00
25.4207 1551.00
25.725 1551.00
26.0292 1653.00
26.3335 1570.00
26.6378 1498.00
26.942 1433.00
27.2463 1518.00
27.5505 1544.00
27.8548 1859.00
28.1591 3805.00
28.4633 3411.00
28.7676 1624.00
29.0718 1724.00
29.3761 1865.00
29.6804 1372.00
29.9846 1433.00
30.2889 1620.00
30.5931 2269.00
30.8974 4941.00
31.2017 6380.00
31.5059 2615.00
31.8102 2212.00
32.1144 1380.00
32.4187 1322.00
32.723 1291.00
33.0272 1459.00
33.3315 1275.00
33.6357 1359.00
33.94 1483.00
34.2443 2252.00
34.5485 3169.00
34.8528 2849.00
35.157 2473.00
35.4613 2119.00
35.7656 1699.00
36.0698 1312.00
36.3741 1281.00
36.6783 1169.00
36.9826 1130.00
37.2869 1216.00
37.5911 1136.00
37.8954 1215.00
38.1996 1177.00
38.5039 1201.00
38.8082 1297.00
39.1124 1146.00
39.4167 1308.00
39.7209 1277.00
40.0252 1194.00
40.3295 1200.00
40.6337 1219.00
40.938 1510.00
41.2422 1436.00
41.5465 1429.00
41.8508 1449.00
42.155 1435.00
42.4593 1492.00
42.7635 1416.00
43.0678 1306.00
43.3721 1173.00
43.6763 1085.00
43.9806 1115.00
44.2849 1213.00
44.5891 1474.00
44.8934 1435.00
45.1976 1406.00
45.5019 1682.00
45.8062 1643.00
46.1104 1248.00
46.4147 1426.00
46.7189 1641.00
47.0232 1972.00
47.3275 2009.00
47.6317 2015.00
47.936 1482.00
48.2402 1357.00
48.5445 1349.00
48.8488 1172.00
49.153 1244.00
49.4573 1464.00
49.7615 1208.00
50.0658 1262.00
50.3701 1769.00
50.6743 1576.00
50.9786 1959.00
51.2828 2194.00
51.5871 1326.00
51.8914 1118.00
52.1956 1109.00
52.4999 1103.00
52.8041 1194.00
53.1084 1160.00
53.4127 1276.00
53.7169 1476.00
54.0212 1477.00
54.3254 1893.00
54.6297 1688.00
54.934 1411.00
55.2382 1243.00
55.5425 1366.00
55.8467 1218.00
56.151 1291.00
56.4553 1187.00
56.7595 1110.00
57.0638 1132.00
57.368 1205.00
57.6723 1141.00
57.9766 1259.00
58.2808 1245.00
58.5851 1145.00
58.8893 1137.00
59.1936 1524.00
59.4979 1804.00
59.8021 1464.00
60.1064 1749.00
60.4106 1566.00
60.7149 1645.00
61.0192 1562.00
61.3234 1278.00
61.6277 1242.00
61.932 1281.00
62.2362 1453.00
62.5405 1335.00
62.8447 1382.00
63.149 1384.00
63.4533 1143.00
63.7575 1139.00
64.0618 1037.00
64.366 1066.00
64.6703 1038.00
64.9745 1049.00
65.2788 1079.00
65.5831 1197.00
65.8873 1348.00
66.1916 1209.00
66.4959 1174.00
66.8001 1089.00
67.1044 1178.00
67.4086 1131.00
67.7129 1201.00
68.0172 1138.00
68.3214 966.00
68.6257 997.00
68.9299 1030.00
69.2342 994.00
69.5385 1137.00
69.8427 1089.00
70.147 1114.00
70.4512 1026.00
70.7555 981.00
71.0598 1055.00
71.364 1048.00
71.6683 1011.00
71.9725 1060.00
72.2768 1113.00
72.5811 1023.00
72.8853 991.00
73.1896 1019.00
73.4938 1100.00
73.7981 1124.00
74.1024 1026.00
74.4066 1063.00
74.7109 1011.00
75.0151 994.00
75.3194 1078.00
75.6237 1009.00
75.9279 1013.00
76.2322 936.00
76.5364 1072.00
76.8407 1016.00
77.145 943.00
77.4492 1059.00
77.7535 1040.00
78.0577 1012.00
78.362 898.00
78.6663 940.00
78.9705 982.00
79.2748 905.00
79.579 913.00
79.8833 917.00
80.1876 965.00
80.4918 1025.00
80.7961 1062.00
81.1003 971.00
81.4046 894.00
81.7089 1121.00
82.0131 1036.00
82.3174 1061.00
82.6217 969.00
82.9259 991.00
83.2302 1173.00
83.5344 1025.00
83.8387 1021.00
84.143 1022.00
84.4472 985.00
84.7515 938.00
85.0557 953.00
85.36 928.00
85.6643 917.00
85.9685 987.00
86.2728 971.00
86.577 940.00
86.8813 897.00
87.1856 926.00
87.4898 990.00
87.7941 1061.00
88.0983 1069.00
88.4026 1159.00
88.7069 1107.00
89.0111 968.00
89.3154 954.00
89.6196 911.00
89.9239 978.00
90.2282 1000.00
90.5324 999.00
90.8367 1005.00
91.1409 962.00
91.4452 882.00
91.7495 863.00
92.0537 885.00
92.358 880.00
92.6622 962.00
92.9665 940.00
93.2708 811.00
93.575 908.00
93.8793 931.00
94.1835 913.00
94.4878 987.00
94.7921 980.00
95.0963 980.00
95.4006 1015.00
95.7048 994.00
96.0091 876.00
96.3134 936.00
96.6176 993.00
96.9219 980.00
97.2261 978.00
97.5304 906.00
97.8347 973.00
98.1389 926.00
98.4432 976.00
98.7474 973.00
99.0517 966.00
99.356 959.00
99.6602 912.00
99.9645 986.00
100.095 921.00