File: data/xrd_creation/results/NSC_83.xy
9.903433 2776.00
10.2077 2640.00
10.512 2637.00
10.8162 2598.00
11.1205 2390.00
11.4247 2304.00
11.729 2133.00
12.0333 2100.00
12.3375 2150.00
12.6418 1967.00
12.946 2008.00
13.2503 1888.00
13.5546 1818.00
13.8588 1925.00
14.1631 1923.00
14.4673 1739.00
14.7716 1696.00
15.0759 1691.00
15.3801 1620.00
15.6844 1630.00
15.9886 1641.00
16.2929 1568.00
16.5972 1579.00
16.9014 1578.00
17.2057 1502.00
17.5099 1493.00
17.8142 1460.00
18.1185 1421.00
18.4227 1371.00
18.727 1419.00
19.0312 1381.00
19.3355 1427.00
19.6398 1498.00
19.944 1737.00
20.2483 2427.00
20.5525 1730.00
20.8568 1773.00
21.1611 2341.00
21.4653 2965.00
21.7696 1596.00
22.0738 1306.00
22.3781 1277.00
22.6824 1474.00
22.9866 1521.00
23.2909 1808.00
23.5951 2388.00
23.8994 3436.00
24.2037 1482.00
24.5079 1280.00
24.8122 2419.00
25.1164 2405.00
25.4207 1376.00
25.725 1169.00
26.0292 1183.00
26.3335 1159.00
26.6378 1296.00
26.942 1724.00
27.2463 1556.00
27.5505 2441.00
27.8548 1181.00
28.1591 1173.00
28.4633 1217.00
28.7676 1550.00
29.0718 1221.00
29.3761 1212.00
29.6804 1874.00
29.9846 1912.00
30.2889 1251.00
30.5931 1065.00
30.8974 1071.00
31.2017 1447.00
31.5059 2686.00
31.8102 1258.00
32.1144 2198.00
32.4187 5073.00
32.723 1640.00
33.0272 1034.00
33.3315 966.00
33.6357 957.00
33.94 927.00
34.2443 1118.00
34.5485 1648.00
34.8528 1055.00
35.157 1319.00
35.4613 3175.00
35.7656 1226.00
36.0698 920.00
36.3741 836.00
36.6783 749.00
36.9826 781.00
37.2869 845.00
37.5911 863.00
37.8954 699.00
38.1996 690.00
38.5039 830.00
38.8082 834.00
39.1124 721.00
39.4167 629.00
39.7209 709.00
40.0252 744.00
40.3295 641.00
40.6337 672.00
40.938 717.00
41.2422 1034.00
41.5465 787.00
41.8508 714.00
42.155 781.00
42.4593 735.00
42.7635 796.00
43.0678 2070.00
43.3721 1269.00
43.6763 897.00
43.9806 1095.00
44.2849 758.00
44.5891 664.00
44.8934 554.00
45.1976 603.00
45.5019 791.00
45.8062 776.00
46.1104 738.00
46.4147 1190.00
46.7189 760.00
47.0232 558.00
47.3275 613.00
47.6317 583.00
47.936 711.00
48.2402 861.00
48.5445 1076.00
48.8488 1818.00
49.153 838.00
49.4573 555.00
49.7615 535.00
50.0658 547.00
50.3701 520.00
50.6743 559.00
50.9786 823.00
51.2828 1032.00
51.5871 771.00
51.8914 546.00
52.1956 537.00
52.4999 648.00
52.8041 1046.00
53.1084 760.00
53.4127 828.00
53.7169 641.00
54.0212 541.00
54.3254 769.00
54.6297 658.00
54.934 554.00
55.2382 666.00
55.5425 935.00
55.8467 620.00
56.151 532.00
56.4553 511.00
56.7595 576.00
57.0638 718.00
57.368 668.00
57.6723 538.00
57.9766 532.00
58.2808 511.00
58.5851 528.00
58.8893 578.00
59.1936 556.00
59.4979 493.00
59.8021 641.00
60.1064 536.00
60.4106 569.00
60.7149 494.00
61.0192 568.00
61.3234 599.00
61.6277 959.00
61.932 975.00
62.2362 658.00
62.5405 482.00
62.8447 509.00
63.149 544.00
63.4533 588.00
63.7575 804.00
64.0618 810.00
64.366 606.00
64.6703 536.00
64.9745 528.00
65.2788 685.00
65.5831 633.00
65.8873 666.00
66.1916 560.00
66.4959 481.00
66.8001 539.00
67.1044 474.00
67.4086 411.00
67.7129 446.00
68.0172 466.00
68.3214 430.00
68.6257 492.00
68.9299 720.00
69.2342 774.00
69.5385 666.00
69.8427 515.00
70.147 559.00
70.4512 461.00
70.7555 395.00
71.0598 381.00
71.364 528.00
71.6683 447.00
71.9725 439.00
72.2768 463.00
72.5811 517.00
72.8853 592.00
73.1896 532.00
73.4938 414.00
73.7981 398.00
74.1024 397.00
74.4066 423.00
74.7109 457.00
75.0151 613.00
75.3194 564.00
75.6237 415.00
75.9279 387.00
76.2322 410.00
76.5364 498.00
76.8407 462.00
77.145 449.00
77.4492 368.00
77.7535 384.00
78.0577 319.00
78.362 321.00
78.6663 388.00
78.9705 351.00
79.2748 353.00
79.579 366.00
79.8833 368.00
80.1876 455.00
80.4918 405.00
80.7961 403.00
81.1003 407.00
81.4046 407.00
81.7089 386.00
82.0131 378.00
82.3174 368.00
82.6217 350.00
82.9259 341.00
83.2302 376.00
83.5344 425.00
83.8387 475.00
84.143 495.00
84.4472 476.00
84.7515 458.00
85.0557 356.00
85.36 329.00
85.6643 396.00
85.9685 433.00
86.2728 399.00
86.577 374.00
86.8813 331.00
87.1856 371.00
87.4898 377.00
87.7941 365.00
88.0983 325.00
88.4026 342.00
88.7069 337.00
89.0111 313.00
89.3154 292.00
89.6196 286.00
89.9239 311.00
90.2282 331.00
90.5324 321.00
90.8367 383.00
91.1409 398.00
91.4452 416.00
91.7495 372.00
92.0537 331.00
92.358 299.00
92.6622 318.00
92.9665 345.00
93.2708 337.00
93.575 325.00
93.8793 323.00
94.1835 322.00
94.4878 404.00
94.7921 387.00
95.0963 399.00
95.4006 357.00
95.7048 341.00
96.0091 318.00
96.3134 355.00
96.6176 336.00
96.9219 349.00
97.2261 353.00
97.5304 312.00
97.8347 380.00
98.1389 356.00
98.4432 342.00
98.7474 318.00
99.0517 311.00
99.356 319.00
99.6602 302.00
99.9645 300.00
100.095 340.00