File: data/xrd_creation/results/NSC_203.xy
9.903433 2844.00
10.2077 2719.00
10.512 2650.00
10.8162 2442.00
11.1205 2484.00
11.4247 2391.00
11.729 2229.00
12.0333 2139.00
12.3375 2140.00
12.6418 2076.00
12.946 2018.00
13.2503 1953.00
13.5546 2125.00
13.8588 2699.00
14.1631 2320.00
14.4673 1830.00
14.7716 1844.00
15.0759 1935.00
15.3801 1795.00
15.6844 1877.00
15.9886 1763.00
16.2929 1771.00
16.5972 1735.00
16.9014 1669.00
17.2057 1687.00
17.5099 1836.00
17.8142 1773.00
18.1185 1640.00
18.4227 1616.00
18.727 1621.00
19.0312 1828.00
19.3355 3170.00
19.6398 6712.00
19.944 6301.00
20.2483 1718.00
20.5525 1601.00
20.8568 1805.00
21.1611 1875.00
21.4653 1571.00
21.7696 1559.00
22.0738 1499.00
22.3781 1463.00
22.6824 1569.00
22.9866 2122.00
23.2909 2968.00
23.5951 1448.00
23.8994 1470.00
24.2037 1693.00
24.5079 1833.00
24.8122 1702.00
25.1164 1377.00
25.4207 1336.00
25.725 1307.00
26.0292 1336.00
26.3335 1254.00
26.6378 1353.00
26.942 1345.00
27.2463 1348.00
27.5505 1610.00
27.8548 3557.00
28.1591 2715.00
28.4633 3601.00
28.7676 2318.00
29.0718 1351.00
29.3761 1476.00
29.6804 1343.00
29.9846 1235.00
30.2889 1400.00
30.5931 2038.00
30.8974 4458.00
31.2017 5519.00
31.5059 2436.00
31.8102 3263.00
32.1144 1772.00
32.4187 1259.00
32.723 1265.00
33.0272 1175.00
33.3315 1225.00
33.6357 1231.00
33.94 1382.00
34.2443 2790.00
34.5485 7361.00
34.8528 2995.00
35.157 1344.00
35.4613 1428.00
35.7656 1733.00
36.0698 1241.00
36.3741 1366.00
36.6783 1094.00
36.9826 1044.00
37.2869 1019.00
37.5911 1025.00
37.8954 995.00
38.1996 984.00
38.5039 979.00
38.8082 1002.00
39.1124 1285.00
39.4167 1203.00
39.7209 1063.00
40.0252 1193.00
40.3295 1086.00
40.6337 1047.00
40.938 1206.00
41.2422 1530.00
41.5465 1597.00
41.8508 1633.00
42.155 1503.00
42.4593 1402.00
42.7635 1123.00
43.0678 981.00
43.3721 907.00
43.6763 930.00
43.9806 1037.00
44.2849 1285.00
44.5891 1517.00
44.8934 2125.00
45.1976 1573.00
45.5019 1009.00
45.8062 1091.00
46.1104 1206.00
46.4147 1370.00
46.7189 1572.00
47.0232 2587.00
47.3275 2065.00
47.6317 1198.00
47.936 919.00
48.2402 995.00
48.5445 1013.00
48.8488 880.00
49.153 1080.00
49.4573 1547.00
49.7615 1534.00
50.0658 1107.00
50.3701 1264.00
50.6743 2197.00
50.9786 2454.00
51.2828 1697.00
51.5871 1208.00
51.8914 1050.00
52.1956 910.00
52.4999 879.00
52.8041 996.00
53.1084 986.00
53.4127 1239.00
53.7169 2130.00
54.0212 2214.00
54.3254 1304.00
54.6297 1195.00
54.934 998.00
55.2382 1054.00
55.5425 1142.00
55.8467 1376.00
56.151 1208.00
56.4553 1128.00
56.7595 1037.00
57.0638 966.00
57.368 1061.00
57.6723 1207.00
57.9766 1053.00
58.2808 1084.00
58.5851 1224.00
58.8893 1516.00
59.1936 1726.00
59.4979 1869.00
59.8021 1738.00
60.1064 1284.00
60.4106 1353.00
60.7149 1205.00
61.0192 1086.00
61.3234 1079.00
61.6277 1705.00
61.932 1715.00
62.2362 1359.00
62.5405 1305.00
62.8447 1289.00
63.149 1221.00
63.4533 1217.00
63.7575 948.00
64.0618 855.00
64.366 848.00
64.6703 963.00
64.9745 953.00
65.2788 1124.00
65.5831 1228.00
65.8873 1268.00
66.1916 1250.00
66.4959 1309.00
66.8001 1291.00
67.1044 1106.00
67.4086 919.00
67.7129 805.00
68.0172 845.00
68.3214 702.00
68.6257 876.00
68.9299 1045.00
69.2342 1149.00
69.5385 945.00
69.8427 850.00
70.147 839.00
70.4512 836.00
70.7555 872.00
71.0598 844.00
71.364 888.00
71.6683 927.00
71.9725 949.00
72.2768 1037.00
72.5811 1267.00
72.8853 1241.00
73.1896 1071.00
73.4938 930.00
73.7981 859.00
74.1024 900.00
74.4066 842.00
74.7109 851.00
75.0151 840.00
75.3194 960.00
75.6237 872.00
75.9279 1085.00
76.2322 1065.00
76.5364 925.00
76.8407 867.00
77.145 939.00
77.4492 920.00
77.7535 793.00
78.0577 858.00
78.362 821.00
78.6663 796.00
78.9705 715.00
79.2748 837.00
79.579 881.00
79.8833 926.00
80.1876 868.00
80.4918 902.00
80.7961 1000.00
81.1003 1098.00
81.4046 993.00
81.7089 872.00
82.0131 851.00
82.3174 948.00
82.6217 993.00
82.9259 991.00
83.2302 870.00
83.5344 884.00
83.8387 862.00
84.143 793.00
84.4472 771.00
84.7515 849.00
85.0557 786.00
85.36 738.00
85.6643 818.00
85.9685 912.00
86.2728 811.00
86.577 924.00
86.8813 970.00
87.1856 1049.00
87.4898 1002.00
87.7941 945.00
88.0983 939.00
88.4026 913.00
88.7069 895.00
89.0111 834.00
89.3154 936.00
89.6196 914.00
89.9239 928.00
90.2282 928.00
90.5324 897.00
90.8367 863.00
91.1409 957.00
91.4452 881.00
91.7495 804.00
92.0537 790.00
92.358 791.00
92.6622 873.00
92.9665 929.00
93.2708 951.00
93.575 971.00
93.8793 980.00
94.1835 947.00
94.4878 823.00
94.7921 810.00
95.0963 837.00
95.4006 770.00
95.7048 841.00
96.0091 945.00
96.3134 878.00
96.6176 911.00
96.9219 819.00
97.2261 841.00
97.5304 933.00
97.8347 880.00
98.1389 762.00
98.4432 772.00
98.7474 837.00
99.0517 831.00
99.356 884.00
99.6602 906.00
99.9645 996.00
100.095 928.00