File: data/xrd_creation/results/NSC_54.xy
9.903433 2831.00
10.2077 2811.00
10.512 2718.00
10.8162 2627.00
11.1205 2432.00
11.4247 2358.00
11.729 2239.00
12.0333 2339.00
12.3375 2241.00
12.6418 2126.00
12.946 2208.00
13.2503 2051.00
13.5546 2103.00
13.8588 2075.00
14.1631 1994.00
14.4673 2075.00
14.7716 1969.00
15.0759 2045.00
15.3801 1949.00
15.6844 1953.00
15.9886 1936.00
16.2929 2034.00
16.5972 1923.00
16.9014 1948.00
17.2057 2078.00
17.5099 2055.00
17.8142 1962.00
18.1185 1941.00
18.4227 1959.00
18.727 1962.00
19.0312 1970.00
19.3355 1977.00
19.6398 1995.00
19.944 2013.00
20.2483 2081.00
20.5525 3802.00
20.8568 3019.00
21.1611 2138.00
21.4653 2003.00
21.7696 1963.00
22.0738 1906.00
22.3781 2049.00
22.6824 1976.00
22.9866 2116.00
23.2909 2054.00
23.5951 2094.00
23.8994 2614.00
24.2037 2115.00
24.5079 2048.00
24.8122 1991.00
25.1164 1927.00
25.4207 2022.00
25.725 1952.00
26.0292 1895.00
26.3335 1874.00
26.6378 1916.00
26.942 1917.00
27.2463 1863.00
27.5505 1940.00
27.8548 1854.00
28.1591 1890.00
28.4633 1858.00
28.7676 1777.00
29.0718 1788.00
29.3761 1904.00
29.6804 1866.00
29.9846 1774.00
30.2889 1809.00
30.5931 1881.00
30.8974 1750.00
31.2017 1758.00
31.5059 1772.00
31.8102 1777.00
32.1144 1769.00
32.4187 1670.00
32.723 1701.00
33.0272 1610.00
33.3315 1671.00
33.6357 1906.00
33.94 4769.00
34.2443 4391.00
34.5485 1707.00
34.8528 1640.00
35.157 1524.00
35.4613 1508.00
35.7656 1421.00
36.0698 1464.00
36.3741 1438.00
36.6783 1485.00
36.9826 1503.00
37.2869 1302.00
37.5911 1353.00
37.8954 1324.00
38.1996 1326.00
38.5039 1366.00
38.8082 1274.00
39.1124 1318.00
39.4167 1247.00
39.7209 1247.00
40.0252 1268.00
40.3295 1269.00
40.6337 1220.00
40.938 1235.00
41.2422 1210.00
41.5465 1222.00
41.8508 1216.00
42.155 1249.00
42.4593 1132.00
42.7635 1141.00
43.0678 1150.00
43.3721 1187.00
43.6763 1193.00
43.9806 1102.00
44.2849 1129.00
44.5891 1090.00
44.8934 1108.00
45.1976 1148.00
45.5019 1095.00
45.8062 1062.00
46.1104 1107.00
46.4147 1152.00
46.7189 1153.00
47.0232 1034.00
47.3275 1198.00
47.6317 1107.00
47.936 1116.00
48.2402 1145.00
48.5445 1261.00
48.8488 1747.00
49.153 1552.00
49.4573 1232.00
49.7615 1140.00
50.0658 1098.00
50.3701 1119.00
50.6743 1125.00
50.9786 1048.00
51.2828 1107.00
51.5871 1084.00
51.8914 1100.00
52.1956 1031.00
52.4999 1048.00
52.8041 1090.00
53.1084 1068.00
53.4127 1108.00
53.7169 1050.00
54.0212 1094.00
54.3254 1069.00
54.6297 1008.00
54.934 1032.00
55.2382 1116.00
55.5425 1112.00
55.8467 1047.00
56.151 1072.00
56.4553 1033.00
56.7595 1088.00
57.0638 1029.00
57.368 1043.00
57.6723 1033.00
57.9766 1093.00
58.2808 1075.00
58.5851 1075.00
58.8893 1068.00
59.1936 1042.00
59.4979 1039.00
59.8021 1054.00
60.1064 1105.00
60.4106 1077.00
60.7149 1422.00
61.0192 1700.00
61.3234 1253.00
61.6277 1122.00
61.932 1121.00
62.2362 1021.00
62.5405 1089.00
62.8447 1051.00
63.149 1061.00
63.4533 1044.00
63.7575 1065.00
64.0618 1034.00
64.366 1082.00
64.6703 1014.00
64.9745 1090.00
65.2788 1074.00
65.5831 1017.00
65.8873 1007.00
66.1916 1055.00
66.4959 972.00
66.8001 1026.00
67.1044 1007.00
67.4086 970.00
67.7129 997.00
68.0172 1005.00
68.3214 953.00
68.6257 914.00
68.9299 936.00
69.2342 945.00
69.5385 958.00
69.8427 937.00
70.147 892.00
70.4512 918.00
70.7555 873.00
71.0598 919.00
71.364 934.00
71.6683 1071.00
71.9725 995.00
72.2768 871.00
72.5811 832.00
72.8853 852.00
73.1896 873.00
73.4938 863.00
73.7981 808.00
74.1024 833.00
74.4066 846.00
74.7109 778.00
75.0151 827.00
75.3194 842.00
75.6237 835.00
75.9279 831.00
76.2322 728.00
76.5364 771.00
76.8407 787.00
77.145 765.00
77.4492 768.00
77.7535 746.00
78.0577 792.00
78.362 754.00
78.6663 716.00
78.9705 747.00
79.2748 731.00
79.579 788.00
79.8833 720.00
80.1876 743.00
80.4918 758.00
80.7961 760.00
81.1003 724.00
81.4046 834.00
81.7089 815.00
82.0131 857.00
82.3174 801.00
82.6217 720.00
82.9259 739.00
83.2302 732.00
83.5344 721.00
83.8387 789.00
84.143 722.00
84.4472 695.00
84.7515 732.00
85.0557 723.00
85.36 733.00
85.6643 683.00
85.9685 663.00
86.2728 713.00
86.577 700.00
86.8813 713.00
87.1856 745.00
87.4898 706.00
87.7941 683.00
88.0983 700.00
88.4026 702.00
88.7069 672.00
89.0111 724.00
89.3154 691.00
89.6196 684.00
89.9239 733.00
90.2282 684.00
90.5324 741.00
90.8367 679.00
91.1409 735.00
91.4452 705.00
91.7495 776.00
92.0537 685.00
92.358 657.00
92.6622 713.00
92.9665 680.00
93.2708 670.00
93.575 690.00
93.8793 733.00
94.1835 677.00
94.4878 668.00
94.7921 689.00
95.0963 762.00
95.4006 686.00
95.7048 655.00
96.0091 642.00
96.3134 730.00
96.6176 685.00
96.9219 695.00
97.2261 688.00
97.5304 655.00
97.8347 716.00
98.1389 721.00
98.4432 717.00
98.7474 715.00
99.0517 677.00
99.356 625.00
99.6602 721.00
99.9645 657.00
100.095 646.00