File: data/xrd_creation/results/NSC_164.xy
9.903433 2551.00
10.2077 2454.00
10.512 2501.00
10.8162 2362.00
11.1205 2227.00
11.4247 2219.00
11.729 2112.00
12.0333 1993.00
12.3375 1996.00
12.6418 1936.00
12.946 1815.00
13.2503 1788.00
13.5546 1760.00
13.8588 1719.00
14.1631 1703.00
14.4673 1942.00
14.7716 3256.00
15.0759 1699.00
15.3801 1738.00
15.6844 1584.00
15.9886 1552.00
16.2929 1576.00
16.5972 1560.00
16.9014 1493.00
17.2057 1452.00
17.5099 1478.00
17.8142 1386.00
18.1185 1485.00
18.4227 1487.00
18.727 1413.00
19.0312 1389.00
19.3355 1429.00
19.6398 1399.00
19.944 1739.00
20.2483 6465.00
20.5525 2032.00
20.8568 3252.00
21.1611 8102.00
21.4653 1578.00
21.7696 1492.00
22.0738 1402.00
22.3781 1266.00
22.6824 1278.00
22.9866 1297.00
23.2909 1220.00
23.5951 1319.00
23.8994 1530.00
24.2037 5258.00
24.5079 4626.00
24.8122 1408.00
25.1164 1318.00
25.4207 1291.00
25.725 1296.00
26.0292 1548.00
26.3335 3011.00
26.6378 1276.00
26.942 1184.00
27.2463 1131.00
27.5505 1103.00
27.8548 1091.00
28.1591 1117.00
28.4633 1147.00
28.7676 1183.00
29.0718 2233.00
29.3761 5360.00
29.6804 1272.00
29.9846 1114.00
30.2889 1063.00
30.5931 1083.00
30.8974 1033.00
31.2017 1056.00
31.5059 1121.00
31.8102 1271.00
32.1144 3942.00
32.4187 6997.00
32.723 1790.00
33.0272 1063.00
33.3315 1052.00
33.6357 1034.00
33.94 974.00
34.2443 1050.00
34.5485 1006.00
34.8528 1217.00
35.157 997.00
35.4613 966.00
35.7656 1005.00
36.0698 1769.00
36.3741 2480.00
36.6783 3947.00
36.9826 1421.00
37.2869 922.00
37.5911 923.00
37.8954 915.00
38.1996 949.00
38.5039 1130.00
38.8082 838.00
39.1124 831.00
39.4167 896.00
39.7209 1107.00
40.0252 856.00
40.3295 830.00
40.6337 960.00
40.938 1304.00
41.2422 901.00
41.5465 843.00
41.8508 859.00
42.155 1182.00
42.4593 1351.00
42.7635 1346.00
43.0678 925.00
43.3721 942.00
43.6763 856.00
43.9806 928.00
44.2849 1530.00
44.5891 1275.00
44.8934 942.00
45.1976 997.00
45.5019 884.00
45.8062 846.00
46.1104 1338.00
46.4147 2132.00
46.7189 1083.00
47.0232 886.00
47.3275 1489.00
47.6317 1356.00
47.936 1200.00
48.2402 1202.00
48.5445 953.00
48.8488 1058.00
49.153 1325.00
49.4573 2723.00
49.7615 1827.00
50.0658 1084.00
50.3701 1027.00
50.6743 891.00
50.9786 787.00
51.2828 783.00
51.5871 772.00
51.8914 766.00
52.1956 771.00
52.4999 1001.00
52.8041 1877.00
53.1084 1760.00
53.4127 1273.00
53.7169 972.00
54.0212 811.00
54.3254 742.00
54.6297 718.00
54.934 743.00
55.2382 742.00
55.5425 873.00
55.8467 1219.00
56.151 1196.00
56.4553 960.00
56.7595 1468.00
57.0638 2236.00
57.368 2083.00
57.6723 1076.00
57.9766 822.00
58.2808 818.00
58.5851 956.00
58.8893 1010.00
59.1936 975.00
59.4979 879.00
59.8021 1004.00
60.1064 1081.00
60.4106 1072.00
60.7149 810.00
61.0192 756.00
61.3234 894.00
61.6277 1325.00
61.932 1429.00
62.2362 980.00
62.5405 915.00
62.8447 1517.00
63.149 1413.00
63.4533 934.00
63.7575 908.00
64.0618 1172.00
64.366 1095.00
64.6703 949.00
64.9745 862.00
65.2788 1020.00
65.5831 1222.00
65.8873 1345.00
66.1916 1130.00
66.4959 855.00
66.8001 824.00
67.1044 934.00
67.4086 914.00
67.7129 815.00
68.0172 966.00
68.3214 1146.00
68.6257 813.00
68.9299 792.00
69.2342 825.00
69.5385 923.00
69.8427 948.00
70.147 876.00
70.4512 800.00
70.7555 816.00
71.0598 837.00
71.364 887.00
71.6683 739.00
71.9725 731.00
72.2768 673.00
72.5811 696.00
72.8853 845.00
73.1896 1023.00
73.4938 1085.00
73.7981 842.00
74.1024 801.00
74.4066 774.00
74.7109 706.00
75.0151 673.00
75.3194 708.00
75.6237 720.00
75.9279 969.00
76.2322 928.00
76.5364 826.00
76.8407 773.00
77.145 877.00
77.4492 1093.00
77.7535 1071.00
78.0577 943.00
78.362 739.00
78.6663 694.00
78.9705 727.00
79.2748 761.00
79.579 734.00
79.8833 702.00
80.1876 769.00
80.4918 717.00
80.7961 740.00
81.1003 856.00
81.4046 958.00
81.7089 786.00
82.0131 739.00
82.3174 672.00
82.6217 738.00
82.9259 688.00
83.2302 746.00
83.5344 859.00
83.8387 795.00
84.143 770.00
84.4472 674.00
84.7515 630.00
85.0557 698.00
85.36 667.00
85.6643 732.00
85.9685 814.00
86.2728 826.00
86.577 772.00
86.8813 759.00
87.1856 718.00
87.4898 781.00
87.7941 856.00
88.0983 812.00
88.4026 865.00
88.7069 824.00
89.0111 747.00
89.3154 744.00
89.6196 744.00
89.9239 717.00
90.2282 703.00
90.5324 728.00
90.8367 739.00
91.1409 724.00
91.4452 726.00
91.7495 706.00
92.0537 784.00
92.358 884.00
92.6622 938.00
92.9665 819.00
93.2708 783.00
93.575 686.00
93.8793 654.00
94.1835 767.00
94.4878 734.00
94.7921 795.00
95.0963 804.00
95.4006 719.00
95.7048 742.00
96.0091 730.00
96.3134 666.00
96.6176 704.00
96.9219 720.00
97.2261 755.00
97.5304 740.00
97.8347 817.00
98.1389 821.00
98.4432 810.00
98.7474 826.00
99.0517 766.00
99.356 770.00
99.6602 748.00
99.9645 798.00
100.095 798.00