File: data/xrd_creation/results/NSC_64.xy
9.903433 2875.00
10.2077 2707.00
10.512 2586.00
10.8162 2386.00
11.1205 2358.00
11.4247 2256.00
11.729 2150.00
12.0333 2094.00
12.3375 2016.00
12.6418 2034.00
12.946 1912.00
13.2503 1846.00
13.5546 1854.00
13.8588 2486.00
14.1631 1804.00
14.4673 1713.00
14.7716 1710.00
15.0759 1783.00
15.3801 1994.00
15.6844 2242.00
15.9886 1522.00
16.2929 1501.00
16.5972 1518.00
16.9014 1722.00
17.2057 1493.00
17.5099 1434.00
17.8142 1400.00
18.1185 1371.00
18.4227 1325.00
18.727 1455.00
19.0312 1489.00
19.3355 1858.00
19.6398 3359.00
19.944 2101.00
20.2483 1640.00
20.5525 1315.00
20.8568 1181.00
21.1611 1210.00
21.4653 1475.00
21.7696 1405.00
22.0738 1197.00
22.3781 1219.00
22.6824 1146.00
22.9866 1466.00
23.2909 1467.00
23.5951 1076.00
23.8994 1066.00
24.2037 1151.00
24.5079 1258.00
24.8122 1106.00
25.1164 1114.00
25.4207 1199.00
25.725 1008.00
26.0292 971.00
26.3335 972.00
26.6378 1300.00
26.942 1141.00
27.2463 930.00
27.5505 1030.00
27.8548 1606.00
28.1591 1512.00
28.4633 1278.00
28.7676 927.00
29.0718 897.00
29.3761 866.00
29.6804 985.00
29.9846 1024.00
30.2889 1483.00
30.5931 2832.00
30.8974 1413.00
31.2017 3799.00
31.5059 2020.00
31.8102 1787.00
32.1144 1470.00
32.4187 1379.00
32.723 1104.00
33.0272 980.00
33.3315 881.00
33.6357 1061.00
33.94 885.00
34.2443 1008.00
34.5485 2796.00
34.8528 2335.00
35.157 926.00
35.4613 1281.00
35.7656 738.00
36.0698 706.00
36.3741 727.00
36.6783 665.00
36.9826 643.00
37.2869 609.00
37.5911 665.00
37.8954 744.00
38.1996 722.00
38.5039 666.00
38.8082 542.00
39.1124 629.00
39.4167 632.00
39.7209 716.00
40.0252 604.00
40.3295 743.00
40.6337 750.00
40.938 535.00
41.2422 544.00
41.5465 611.00
41.8508 785.00
42.155 1151.00
42.4593 1038.00
42.7635 954.00
43.0678 640.00
43.3721 618.00
43.6763 605.00
43.9806 558.00
44.2849 541.00
44.5891 654.00
44.8934 794.00
45.1976 1113.00
45.5019 875.00
45.8062 712.00
46.1104 548.00
46.4147 637.00
46.7189 630.00
47.0232 839.00
47.3275 1455.00
47.6317 1045.00
47.936 566.00
48.2402 491.00
48.5445 549.00
48.8488 678.00
49.153 856.00
49.4573 523.00
49.7615 605.00
50.0658 601.00
50.3701 524.00
50.6743 693.00
50.9786 1367.00
51.2828 1093.00
51.5871 1126.00
51.8914 574.00
52.1956 554.00
52.4999 552.00
52.8041 562.00
53.1084 544.00
53.4127 548.00
53.7169 573.00
54.0212 964.00
54.3254 1238.00
54.6297 558.00
54.934 455.00
55.2382 468.00
55.5425 536.00
55.8467 628.00
56.151 465.00
56.4553 592.00
56.7595 709.00
57.0638 485.00
57.368 420.00
57.6723 436.00
57.9766 400.00
58.2808 438.00
58.5851 441.00
58.8893 518.00
59.1936 659.00
59.4979 682.00
59.8021 963.00
60.1064 1243.00
60.4106 887.00
60.7149 981.00
61.0192 580.00
61.3234 696.00
61.6277 647.00
61.932 665.00
62.2362 884.00
62.5405 616.00
62.8447 501.00
63.149 526.00
63.4533 541.00
63.7575 634.00
64.0618 454.00
64.366 486.00
64.6703 448.00
64.9745 442.00
65.2788 433.00
65.5831 428.00
65.8873 580.00
66.1916 622.00
66.4959 440.00
66.8001 501.00
67.1044 568.00
67.4086 704.00
67.7129 534.00
68.0172 490.00
68.3214 427.00
68.6257 437.00
68.9299 384.00
69.2342 404.00
69.5385 564.00
69.8427 452.00
70.147 359.00
70.4512 346.00
70.7555 375.00
71.0598 387.00
71.364 407.00
71.6683 432.00
71.9725 384.00
72.2768 417.00
72.5811 386.00
72.8853 380.00
73.1896 484.00
73.4938 516.00
73.7981 424.00
74.1024 411.00
74.4066 403.00
74.7109 399.00
75.0151 411.00
75.3194 394.00
75.6237 420.00
75.9279 373.00
76.2322 357.00
76.5364 430.00
76.8407 509.00
77.145 464.00
77.4492 364.00
77.7535 404.00
78.0577 451.00
78.362 379.00
78.6663 350.00
78.9705 376.00
79.2748 372.00
79.579 356.00
79.8833 321.00
80.1876 351.00
80.4918 361.00
80.7961 381.00
81.1003 388.00
81.4046 435.00
81.7089 555.00
82.0131 512.00
82.3174 424.00
82.6217 375.00
82.9259 418.00
83.2302 449.00
83.5344 412.00
83.8387 384.00
84.143 318.00
84.4472 333.00
84.7515 324.00
85.0557 330.00
85.36 298.00
85.6643 369.00
85.9685 392.00
86.2728 335.00
86.577 331.00
86.8813 385.00
87.1856 382.00
87.4898 383.00
87.7941 326.00
88.0983 427.00
88.4026 478.00
88.7069 422.00
89.0111 382.00
89.3154 366.00
89.6196 358.00
89.9239 307.00
90.2282 376.00
90.5324 367.00
90.8367 363.00
91.1409 386.00
91.4452 413.00
91.7495 370.00
92.0537 414.00
92.358 402.00
92.6622 363.00
92.9665 320.00
93.2708 351.00
93.575 301.00
93.8793 374.00
94.1835 362.00
94.4878 353.00
94.7921 415.00
95.0963 458.00
95.4006 492.00
95.7048 421.00
96.0091 355.00
96.3134 376.00
96.6176 393.00
96.9219 336.00
97.2261 361.00
97.5304 385.00
97.8347 383.00
98.1389 349.00
98.4432 357.00
98.7474 364.00
99.0517 355.00
99.356 305.00
99.6602 362.00
99.9645 337.00
100.095 328.00