File: data/xrd_creation/results/PG_0921-1.xy
9.903433 3289.00
10.2077 3325.00
10.512 3079.00
10.8162 3042.00
11.1205 3128.00
11.4247 2995.00
11.729 2811.00
12.0333 2778.00
12.3375 2823.00
12.6418 2738.00
12.946 2706.00
13.2503 2782.00
13.5546 2703.00
13.8588 2788.00
14.1631 2587.00
14.4673 2644.00
14.7716 2755.00
15.0759 2697.00
15.3801 2823.00
15.6844 3456.00
15.9886 7907.00
16.2929 3382.00
16.5972 2860.00
16.9014 2662.00
17.2057 2738.00
17.5099 2613.00
17.8142 2710.00
18.1185 2504.00
18.4227 2549.00
18.727 2595.00
19.0312 2536.00
19.3355 2844.00
19.6398 2566.00
19.944 2565.00
20.2483 2405.00
20.5525 2499.00
20.8568 2538.00
21.1611 2459.00
21.4653 2502.00
21.7696 2477.00
22.0738 2614.00
22.3781 2420.00
22.6824 2450.00
22.9866 2389.00
23.2909 2464.00
23.5951 2393.00
23.8994 2441.00
24.2037 2407.00
24.5079 2366.00
24.8122 2529.00
25.1164 2552.00
25.4207 2539.00
25.725 2507.00
26.0292 2404.00
26.3335 2474.00
26.6378 2487.00
26.942 2616.00
27.2463 2943.00
27.5505 5845.00
27.8548 4618.00
28.1591 4785.00
28.4633 7798.00
28.7676 2976.00
29.0718 2654.00
29.3761 2571.00
29.6804 2483.00
29.9846 2425.00
30.2889 2412.00
30.5931 2455.00
30.8974 2393.00
31.2017 2425.00
31.5059 2881.00
31.8102 3216.00
32.1144 3282.00
32.4187 2511.00
32.723 2487.00
33.0272 2488.00
33.3315 2498.00
33.6357 2367.00
33.94 2483.00
34.2443 2446.00
34.5485 2404.00
34.8528 2368.00
35.157 2378.00
35.4613 2465.00
35.7656 2404.00
36.0698 2359.00
36.3741 2872.00
36.6783 2452.00
36.9826 2640.00
37.2869 5260.00
37.5911 2462.00
37.8954 2393.00
38.1996 2482.00
38.5039 2421.00
38.8082 2470.00
39.1124 2624.00
39.4167 2735.00
39.7209 5264.00
40.0252 5142.00
40.3295 2774.00
40.6337 2401.00
40.938 2453.00
41.2422 2443.00
41.5465 2371.00
41.8508 2364.00
42.155 2431.00
42.4593 2843.00
42.7635 2957.00
43.0678 2424.00
43.3721 2361.00
43.6763 2370.00
43.9806 2410.00
44.2849 2341.00
44.5891 2356.00
44.8934 2321.00
45.1976 2981.00
45.5019 2380.00
45.8062 2286.00
46.1104 2350.00
46.4147 2244.00
46.7189 2292.00
47.0232 2450.00
47.3275 2647.00
47.6317 2972.00
47.936 2464.00
48.2402 2811.00
48.5445 4352.00
48.8488 4918.00
49.153 5450.00
49.4573 2934.00
49.7615 2497.00
50.0658 2536.00
50.3701 2956.00
50.6743 2420.00
50.9786 2444.00
51.2828 2310.00
51.5871 2239.00
51.8914 2310.00
52.1956 2307.00
52.4999 2304.00
52.8041 2353.00
53.1084 2258.00
53.4127 2259.00
53.7169 2292.00
54.0212 2313.00
54.3254 2248.00
54.6297 2377.00
54.934 2306.00
55.2382 2403.00
55.5425 3173.00
55.8467 3056.00
56.151 2578.00
56.4553 2660.00
56.7595 2722.00
57.0638 2330.00
57.368 2153.00
57.6723 2366.00
57.9766 2355.00
58.2808 2565.00
58.5851 2383.00
58.8893 2525.00
59.1936 2587.00
59.4979 2515.00
59.8021 2834.00
60.1064 2355.00
60.4106 2358.00
60.7149 2163.00
61.0192 2220.00
61.3234 2116.00
61.6277 2150.00
61.932 2367.00
62.2362 2315.00
62.5405 2294.00
62.8447 2210.00
63.149 2224.00
63.4533 2217.00
63.7575 2365.00
64.0618 2558.00
64.366 3207.00
64.6703 2631.00
64.9745 2356.00
65.2788 2579.00
65.5831 3658.00
65.8873 2541.00
66.1916 2409.00
66.4959 2394.00
66.8001 2258.00
67.1044 2216.00
67.4086 2273.00
67.7129 2199.00
68.0172 2234.00
68.3214 2151.00
68.6257 2186.00
68.9299 2282.00
69.2342 2308.00
69.5385 2369.00
69.8427 2587.00
70.147 2751.00
70.4512 2362.00
70.7555 2354.00
71.0598 2478.00
71.364 2474.00
71.6683 2348.00
71.9725 2262.00
72.2768 2277.00
72.5811 2243.00
72.8853 2269.00
73.1896 2388.00
73.4938 2222.00
73.7981 2269.00
74.1024 2189.00
74.4066 2342.00
74.7109 2250.00
75.0151 2272.00
75.3194 2191.00
75.6237 2285.00
75.9279 2443.00
76.2322 2672.00
76.5364 2616.00
76.8407 2629.00
77.145 2605.00
77.4492 2922.00
77.7535 3327.00
78.0577 2923.00
78.362 2507.00
78.6663 2560.00
78.9705 2491.00
79.2748 2400.00
79.579 2321.00
79.8833 2317.00
80.1876 2323.00
80.4918 2372.00
80.7961 2201.00
81.1003 2246.00
81.4046 2182.00
81.7089 2274.00
82.0131 2266.00
82.3174 2332.00
82.6217 2546.00
82.9259 2431.00
83.2302 2348.00
83.5344 2157.00
83.8387 2208.00
84.143 2126.00
84.4472 2256.00
84.7515 2272.00
85.0557 2303.00
85.36 2289.00
85.6643 2328.00
85.9685 2186.00
86.2728 2203.00
86.577 2224.00
86.8813 2306.00
87.1856 2291.00
87.4898 2289.00
87.7941 2288.00
88.0983 2267.00
88.4026 2262.00
88.7069 2385.00
89.0111 2585.00
89.3154 2407.00
89.6196 2318.00
89.9239 2297.00
90.2282 2263.00
90.5324 2506.00
90.8367 2435.00
91.1409 2293.00
91.4452 2369.00
91.7495 2485.00
92.0537 2321.00
92.358 2311.00
92.6622 2187.00
92.9665 2291.00
93.2708 2217.00
93.575 2232.00
93.8793 2296.00
94.1835 2238.00
94.4878 2542.00
94.7921 2451.00
95.0963 2301.00
95.4006 2430.00
95.7048 2515.00
96.0091 2595.00
96.3134 2447.00
96.6176 2385.00
96.9219 2478.00
97.2261 2494.00
97.5304 2406.00
97.8347 2433.00
98.1389 2282.00
98.4432 2294.00
98.7474 2324.00
99.0517 2244.00
99.356 2230.00
99.6602 2273.00
99.9645 2210.00
100.095 2260.00