File: data/xrd_creation/results/PG_0918-1.xy
10.0094 2742.00
10.3137 2715.00
10.618 2674.00
10.9222 2630.00
11.2265 2614.00
11.5307 2432.00
11.835 2464.00
12.1393 2358.00
12.4435 2346.00
12.7478 2259.00
13.052 2269.00
13.3563 2260.00
13.6606 2240.00
13.9648 2165.00
14.2691 2224.00
14.5733 2265.00
14.8776 2246.00
15.1819 2143.00
15.4861 2149.00
15.7904 2179.00
16.0946 2166.00
16.3989 2126.00
16.7032 2119.00
17.0074 2048.00
17.3117 2090.00
17.6159 2095.00
17.9202 2037.00
18.2245 2136.00
18.5287 2146.00
18.833 2104.00
19.1372 2127.00
19.4415 2112.00
19.7458 2124.00
20.05 2023.00
20.3543 2044.00
20.6585 2067.00
20.9628 1998.00
21.2671 2107.00
21.5713 2325.00
21.8756 2256.00
22.1798 2089.00
22.4841 2004.00
22.7884 1920.00
23.0926 2003.00
23.3969 1936.00
23.7011 2023.00
24.0054 1904.00
24.3097 1991.00
24.6139 1983.00
24.9182 1966.00
25.2224 1977.00
25.5267 2002.00
25.831 2007.00
26.1352 1912.00
26.4395 1991.00
26.7438 1969.00
27.048 1938.00
27.3523 1956.00
27.6565 2074.00
27.9608 2062.00
28.2651 1910.00
28.5693 1934.00
28.8736 1889.00
29.1778 1933.00
29.4821 1977.00
29.7864 1957.00
30.0906 2030.00
30.3949 2278.00
30.6991 5716.00
31.0034 4126.00
31.3077 2316.00
31.6119 2395.00
31.9162 1997.00
32.2204 1986.00
32.5247 1989.00
32.829 2036.00
33.1332 1976.00
33.4375 1992.00
33.7417 1935.00
34.046 1954.00
34.3503 1909.00
34.6545 1922.00
34.9588 1890.00
35.263 2147.00
35.5673 3014.00
35.8716 2829.00
36.1758 2056.00
36.4801 1985.00
36.7843 2141.00
37.0886 3656.00
37.3929 2118.00
37.6971 2113.00
38.0014 2360.00
38.3056 1945.00
38.6099 2048.00
38.9142 2110.00
39.2184 1951.00
39.5227 1972.00
39.8269 2002.00
40.1312 2032.00
40.4355 1965.00
40.7397 1902.00
41.044 1930.00
41.3482 1918.00
41.6525 2073.00
41.9568 2173.00
42.261 2139.00
42.5653 1969.00
42.8695 1947.00
43.1738 1975.00
43.4781 1900.00
43.7823 1926.00
44.0866 1994.00
44.3909 1919.00
44.6951 1978.00
44.9994 2230.00
45.3036 2030.00
45.6079 2065.00
45.9122 2619.00
46.2164 2084.00
46.5207 1922.00
46.8249 1994.00
47.1292 1934.00
47.4335 1898.00
47.7377 1938.00
48.042 2005.00
48.3462 2021.00
48.6505 1991.00
48.9548 2021.00
49.259 2085.00
49.5633 2198.00
49.8675 1973.00
50.1718 2034.00
50.4761 2063.00
50.7803 2044.00
51.0846 3177.00
51.3888 4025.00
51.6931 2116.00
51.9974 1943.00
52.3016 2031.00
52.6059 2033.00
52.9101 2144.00
53.2144 1962.00
53.5187 2007.00
53.8229 2070.00
54.1272 2007.00
54.4314 2072.00
54.7357 2043.00
55.04 1946.00
55.3442 2033.00
55.6485 1992.00
55.9527 2244.00
56.257 2561.00
56.5613 2044.00
56.8655 1988.00
57.1698 2002.00
57.474 2027.00
57.7783 2069.00
58.0826 2010.00
58.3868 1957.00
58.6911 2107.00
58.9953 2123.00
59.2996 2439.00
59.6039 2791.00
59.9081 2182.00
60.2124 2080.00
60.5166 2176.00
60.8209 3744.00
61.1252 2969.00
61.4294 2145.00
61.7337 1996.00
62.0379 2139.00
62.3422 2378.00
62.6465 2180.00
62.9507 2136.00
63.255 2072.00
63.5592 2055.00
63.8635 2507.00
64.1678 2176.00
64.472 2143.00
64.7763 2094.00
65.0806 2156.00
65.3848 2676.00
65.6891 2466.00
65.9933 2063.00
66.2976 2054.00
66.6019 2069.00
66.9061 2186.00
67.2104 2102.00
67.5146 2131.00
67.8189 2065.00
68.1232 2170.00
68.4274 2131.00
68.7317 2163.00
69.0359 2029.00
69.3402 2132.00
69.6445 2278.00
69.9487 2158.00
70.253 2067.00
70.5572 2067.00
70.8615 2098.00
71.1658 2047.00
71.47 2170.00
71.7743 2121.00
72.0785 2202.00
72.3828 2136.00
72.6871 2187.00
72.9913 2099.00
73.2956 2169.00
73.5998 2221.00
73.9041 2355.00
74.2084 2244.00
74.5126 2161.00
74.8169 2215.00
75.1211 2245.00
75.4254 2326.00
75.7297 2150.00
76.0339 2116.00
76.3382 2294.00
76.6424 2474.00
76.9467 2253.00
77.251 2152.00
77.5552 2299.00
77.8595 2336.00
78.1637 2294.00
78.468 2174.00
78.7723 2172.00
79.0765 2199.00
79.3808 2320.00
79.685 2192.00
79.9893 2244.00
80.2936 2236.00
80.5978 2348.00
80.9021 2245.00
81.2063 2148.00
81.5106 2211.00
81.8149 2263.00
82.1191 2526.00
82.4234 2225.00
82.7277 2260.00
83.0319 2254.00
83.3362 2746.00
83.6404 2500.00
83.9447 2220.00
84.249 2217.00
84.5532 2288.00
84.8575 2204.00
85.1617 2207.00
85.466 2178.00
85.7703 2316.00
86.0745 2637.00
86.3788 2306.00
86.683 2297.00
86.9873 2327.00
87.2916 2366.00
87.5958 2324.00
87.9001 2288.00
88.2043 2222.00
88.5086 2387.00
88.8129 2268.00
89.1171 2307.00
89.4214 2272.00
89.7256 2356.00
90.0299 2491.00
90.3342 2374.00
90.6384 2209.00
90.9427 2284.00
91.2469 2375.00
91.5512 2222.00
91.8555 2308.00
92.1597 2321.00
92.464 2327.00
92.7682 2425.00
93.0725 2274.00
93.3768 2403.00
93.681 2362.00
93.9853 2299.00
94.2895 2539.00
94.5938 2393.00
94.8981 2321.00
95.2023 2475.00
95.5066 2455.00
95.8108 2322.00
96.1151 2363.00
96.4194 2397.00
96.7236 2576.00
97.0279 2505.00
97.3321 2334.00
97.6364 2359.00
97.9407 2505.00
98.2449 2441.00
98.5492 2418.00
98.8534 2403.00
99.1577 2455.00
99.462 2432.00
99.7662 2420.00
99.9944 2390.00