File: data/xrd_creation/results/PG_0922-1.xy
10.0094 7425.00
10.3137 7503.00
10.618 7600.00
10.9222 7678.00
11.2265 7897.00
11.5307 7882.00
11.835 7916.00
12.1393 8066.00
12.4435 8088.00
12.7478 8121.00
13.052 8422.00
13.3563 8476.00
13.6606 8670.00
13.9648 8797.00
14.2691 8816.00
14.5733 8799.00
14.8776 9087.00
15.1819 8944.00
15.4861 9221.00
15.7904 9195.00
16.0946 9232.00
16.3989 9326.00
16.7032 9421.00
17.0074 9513.00
17.3117 9685.00
17.6159 9710.00
17.9202 9824.00
18.2245 9898.00
18.5287 10165.00
18.833 10008.00
19.1372 10453.00
19.4415 10199.00
19.7458 10205.00
20.05 10411.00
20.3543 10242.00
20.6585 10387.00
20.9628 10414.00
21.2671 10439.00
21.5713 10990.00
21.8756 10437.00
22.1798 10451.00
22.4841 10607.00
22.7884 10366.00
23.0926 10664.00
23.3969 10469.00
23.7011 10756.00
24.0054 10718.00
24.3097 10839.00
24.6139 10784.00
24.9182 10792.00
25.2224 10767.00
25.5267 10757.00
25.831 10540.00
26.1352 10828.00
26.4395 10926.00
26.7438 10646.00
27.048 10994.00
27.3523 10801.00
27.6565 10769.00
27.9608 10993.00
28.2651 10824.00
28.5693 10854.00
28.8736 10804.00
29.1778 10982.00
29.4821 11088.00
29.7864 11298.00
30.0906 11084.00
30.3949 11120.00
30.6991 10863.00
31.0034 11517.00
31.3077 11244.00
31.6119 14376.00
31.9162 11400.00
32.2204 11451.00
32.5247 11096.00
32.829 11084.00
33.1332 10878.00
33.4375 11120.00
33.7417 11368.00
34.046 11326.00
34.3503 11334.00
34.6545 11034.00
34.9588 10929.00
35.263 11094.00
35.5673 11093.00
35.8716 11179.00
36.1758 11273.00
36.4801 11624.00
36.7843 11385.00
37.0886 19050.00
37.3929 12020.00
37.6971 11266.00
38.0014 11223.00
38.3056 11107.00
38.6099 11218.00
38.9142 11868.00
39.2184 11297.00
39.5227 11286.00
39.8269 11531.00
40.1312 11456.00
40.4355 11574.00
40.7397 11279.00
41.044 11173.00
41.3482 11339.00
41.6525 11564.00
41.9568 11054.00
42.261 11135.00
42.5653 11420.00
42.8695 11312.00
43.1738 11106.00
43.4781 11229.00
43.7823 11278.00
44.0866 11225.00
44.3909 11202.00
44.6951 11325.00
44.9994 11984.00
45.3036 11665.00
45.6079 11326.00
45.9122 11292.00
46.2164 11201.00
46.5207 11049.00
46.8249 11267.00
47.1292 11162.00
47.4335 11211.00
47.7377 11103.00
48.042 11194.00
48.3462 11287.00
48.6505 11143.00
48.9548 11321.00
49.259 11247.00
49.5633 11428.00
49.8675 11080.00
50.1718 11175.00
50.4761 11154.00
50.7803 11067.00
51.0846 11264.00
51.3888 11170.00
51.6931 11125.00
51.9974 11089.00
52.3016 11099.00
52.6059 11097.00
52.9101 11200.00
53.2144 11151.00
53.5187 11199.00
53.8229 11203.00
54.1272 11060.00
54.4314 11302.00
54.7357 11344.00
55.04 11226.00
55.3442 11196.00
55.6485 11331.00
55.9527 11998.00
56.257 11222.00
56.5613 11189.00
56.8655 11116.00
57.1698 11223.00
57.474 11014.00
57.7783 11189.00
58.0826 11216.00
58.3868 11297.00
58.6911 11332.00
58.9953 11303.00
59.2996 11260.00
59.6039 13911.00
59.9081 11891.00
60.2124 11390.00
60.5166 11195.00
60.8209 11207.00
61.1252 11369.00
61.4294 11304.00
61.7337 11124.00
62.0379 11042.00
62.3422 10869.00
62.6465 11206.00
62.9507 11325.00
63.255 11356.00
63.5592 11164.00
63.8635 11300.00
64.1678 11271.00
64.472 11257.00
64.7763 11245.00
65.0806 11338.00
65.3848 12324.00
65.6891 13576.00
65.9933 11341.00
66.2976 11283.00
66.6019 11391.00
66.9061 11199.00
67.2104 11152.00
67.5146 11293.00
67.8189 11173.00
68.1232 11222.00
68.4274 11109.00
68.7317 11330.00
69.0359 11367.00
69.3402 11328.00
69.6445 11373.00
69.9487 11369.00
70.253 11299.00
70.5572 11151.00
70.8615 11333.00
71.1658 11194.00
71.47 11410.00
71.7743 11091.00
72.0785 11237.00
72.3828 11404.00
72.6871 11109.00
72.9913 11247.00
73.2956 11183.00
73.5998 10910.00
73.9041 11203.00
74.2084 11273.00
74.5126 11445.00
74.8169 11304.00
75.1211 11233.00
75.4254 11334.00
75.7297 11046.00
76.0339 10985.00
76.3382 11248.00
76.6424 11349.00
76.9467 11236.00
77.251 11055.00
77.5552 11846.00
77.8595 11418.00
78.1637 11238.00
78.468 11461.00
78.7723 11326.00
79.0765 11345.00
79.3808 11225.00
79.685 11156.00
79.9893 10931.00
80.2936 11174.00
80.5978 11273.00
80.9021 11210.00
81.2063 11249.00
81.5106 11244.00
81.8149 11097.00
82.1191 11339.00
82.4234 11333.00
82.7277 11178.00
83.0319 11254.00
83.3362 11360.00
83.6404 11246.00
83.9447 11288.00
84.249 11161.00
84.5532 11277.00
84.8575 11192.00
85.1617 11252.00
85.466 11169.00
85.7703 11325.00
86.0745 11290.00
86.3788 11264.00
86.683 11112.00
86.9873 11485.00
87.2916 11192.00
87.5958 11085.00
87.9001 11261.00
88.2043 11083.00
88.5086 11339.00
88.8129 11283.00
89.1171 11128.00
89.4214 11312.00
89.7256 11181.00
90.0299 11258.00
90.3342 11174.00
90.6384 11097.00
90.9427 11180.00
91.2469 11529.00
91.5512 11247.00
91.8555 11140.00
92.1597 11372.00
92.464 11237.00
92.7682 11277.00
93.0725 11228.00
93.3768 11240.00
93.681 11277.00
93.9853 11254.00
94.2895 11813.00
94.5938 11563.00
94.8981 11436.00
95.2023 11375.00
95.5066 11199.00
95.8108 11209.00
96.1151 11117.00
96.4194 11279.00
96.7236 11139.00
97.0279 11248.00
97.3321 11271.00
97.6364 11287.00
97.9407 11190.00
98.2449 11440.00
98.5492 11171.00
98.8534 11299.00
99.1577 11227.00
99.462 11473.00
99.7662 11564.00
99.9944 11351.00