File: data/xrd_creation/results/PG_0920-1.xy
10.0094 4984.00
10.3137 4964.00
10.618 4980.00
10.9222 4742.00
11.2265 5004.00
11.5307 4969.00
11.835 4956.00
12.1393 5113.00
12.4435 5096.00
12.7478 5098.00
13.052 5127.00
13.3563 5023.00
13.6606 5069.00
13.9648 5147.00
14.2691 5238.00
14.5733 5205.00
14.8776 5185.00
15.1819 5146.00
15.4861 5239.00
15.7904 5262.00
16.0946 5340.00
16.3989 5384.00
16.7032 5373.00
17.0074 5184.00
17.3117 5425.00
17.6159 6191.00
17.9202 5173.00
18.2245 5564.00
18.5287 5458.00
18.833 5525.00
19.1372 5646.00
19.4415 5741.00
19.7458 5378.00
20.05 5330.00
20.3543 5553.00
20.6585 5427.00
20.9628 5383.00
21.2671 5463.00
21.5713 5511.00
21.8756 5459.00
22.1798 5476.00
22.4841 5392.00
22.7884 5432.00
23.0926 5450.00
23.3969 5580.00
23.7011 5647.00
24.0054 7431.00
24.3097 5879.00
24.6139 5510.00
24.9182 5507.00
25.2224 5443.00
25.5267 5531.00
25.831 5381.00
26.1352 5526.00
26.4395 5537.00
26.7438 5521.00
27.048 5548.00
27.3523 5575.00
27.6565 5509.00
27.9608 5449.00
28.2651 5561.00
28.5693 5515.00
28.8736 5625.00
29.1778 5491.00
29.4821 5410.00
29.7864 5567.00
30.0906 5742.00
30.3949 5497.00
30.6991 5723.00
31.0034 13994.00
31.3077 5715.00
31.6119 7263.00
31.9162 5541.00
32.2204 5448.00
32.5247 5587.00
32.829 5486.00
33.1332 5600.00
33.4375 5553.00
33.7417 5559.00
34.046 5645.00
34.3503 6761.00
34.6545 5600.00
34.9588 5478.00
35.263 5460.00
35.5673 5986.00
35.8716 5556.00
36.1758 5473.00
36.4801 5470.00
36.7843 5692.00
37.0886 11393.00
37.3929 5892.00
37.6971 5429.00
38.0014 5534.00
38.3056 5761.00
38.6099 5822.00
38.9142 5962.00
39.2184 5430.00
39.5227 5405.00
39.8269 5465.00
40.1312 5456.00
40.4355 5582.00
40.7397 5570.00
41.044 5561.00
41.3482 5425.00
41.6525 5309.00
41.9568 5443.00
42.261 5473.00
42.5653 5539.00
42.8695 5434.00
43.1738 5509.00
43.4781 5570.00
43.7823 5469.00
44.0866 5471.00
44.3909 5551.00
44.6951 5373.00
44.9994 6136.00
45.3036 5609.00
45.6079 5356.00
45.9122 5594.00
46.2164 5687.00
46.5207 5668.00
46.8249 7812.00
47.1292 5648.00
47.4335 5591.00
47.7377 5490.00
48.042 5636.00
48.3462 5465.00
48.6505 5569.00
48.9548 5513.00
49.259 5595.00
49.5633 5475.00
49.8675 5438.00
50.1718 5415.00
50.4761 5543.00
50.7803 5362.00
51.0846 5539.00
51.3888 5563.00
51.6931 5469.00
51.9974 5502.00
52.3016 5358.00
52.6059 5439.00
52.9101 5385.00
53.2144 5395.00
53.5187 5418.00
53.8229 5348.00
54.1272 5475.00
54.4314 5466.00
54.7357 5258.00
55.04 5587.00
55.3442 6346.00
55.6485 5507.00
55.9527 5993.00
56.257 5626.00
56.5613 5479.00
56.8655 5508.00
57.1698 5428.00
57.474 5454.00
57.7783 5420.00
58.0826 5573.00
58.3868 5433.00
58.6911 5793.00
58.9953 5935.00
59.2996 5634.00
59.6039 7549.00
59.9081 5767.00
60.2124 5645.00
60.5166 5472.00
60.8209 5545.00
61.1252 5475.00
61.4294 5514.00
61.7337 5340.00
62.0379 5498.00
62.3422 5406.00
62.6465 5478.00
62.9507 5452.00
63.255 5322.00
63.5592 5438.00
63.8635 5436.00
64.1678 5900.00
64.472 5551.00
64.7763 5407.00
65.0806 5559.00
65.3848 6242.00
65.6891 6633.00
65.9933 5450.00
66.2976 5352.00
66.6019 5366.00
66.9061 5651.00
67.2104 5398.00
67.5146 5596.00
67.8189 5551.00
68.1232 5425.00
68.4274 5367.00
68.7317 5518.00
69.0359 5531.00
69.3402 5523.00
69.6445 5565.00
69.9487 6278.00
70.253 5445.00
70.5572 5481.00
70.8615 5513.00
71.1658 5540.00
71.47 5489.00
71.7743 5731.00
72.0785 5511.00
72.3828 5367.00
72.6871 5372.00
72.9913 5471.00
73.2956 5389.00
73.5998 5495.00
73.9041 5549.00
74.2084 5280.00
74.5126 5639.00
74.8169 5639.00
75.1211 5351.00
75.4254 5447.00
75.7297 5428.00
76.0339 5575.00
76.3382 5560.00
76.6424 5539.00
76.9467 5560.00
77.251 5464.00
77.5552 5789.00
77.8595 5561.00
78.1637 5417.00
78.468 5467.00
78.7723 5542.00
79.0765 5487.00
79.3808 5487.00
79.685 5936.00
79.9893 5749.00
80.2936 5600.00
80.5978 5465.00
80.9021 5442.00
81.2063 5461.00
81.5106 5488.00
81.8149 5710.00
82.1191 5711.00
82.4234 5345.00
82.7277 5517.00
83.0319 5487.00
83.3362 5436.00
83.6404 5546.00
83.9447 5514.00
84.249 5417.00
84.5532 5451.00
84.8575 5484.00
85.1617 5461.00
85.466 5406.00
85.7703 5611.00
86.0745 5457.00
86.3788 5457.00
86.683 5405.00
86.9873 5597.00
87.2916 5328.00
87.5958 5507.00
87.9001 5437.00
88.2043 5499.00
88.5086 5421.00
88.8129 5387.00
89.1171 5294.00
89.4214 5618.00
89.7256 5393.00
90.0299 5472.00
90.3342 5359.00
90.6384 5445.00
90.9427 5514.00
91.2469 5472.00
91.5512 5480.00
91.8555 5481.00
92.1597 5534.00
92.464 5281.00
92.7682 5538.00
93.0725 5635.00
93.3768 5383.00
93.681 5357.00
93.9853 5534.00
94.2895 5927.00
94.5938 5873.00
94.8981 5589.00
95.2023 5511.00
95.5066 5758.00
95.8108 5736.00
96.1151 5375.00
96.4194 5500.00
96.7236 5674.00
97.0279 5516.00
97.3321 5580.00
97.6364 5461.00
97.9407 5480.00
98.2449 5347.00
98.5492 5558.00
98.8534 5538.00
99.1577 5591.00
99.462 5718.00
99.7662 5730.00
99.9944 5568.00