File: data/xrd_creation/results/PG_0917-1.xy
10.0094 3162.00
10.3137 3106.00
10.618 3158.00
10.9222 3024.00
11.2265 3099.00
11.5307 3036.00
11.835 2846.00
12.1393 2843.00
12.4435 2954.00
12.7478 2937.00
13.052 2769.00
13.3563 2867.00
13.6606 3000.00
13.9648 2807.00
14.2691 2919.00
14.5733 2846.00
14.8776 2774.00
15.1819 3004.00
15.4861 2826.00
15.7904 2848.00
16.0946 2866.00
16.3989 2793.00
16.7032 2929.00
17.0074 2853.00
17.3117 2908.00
17.6159 3017.00
17.9202 3203.00
18.2245 2881.00
18.5287 2855.00
18.833 2874.00
19.1372 2958.00
19.4415 2845.00
19.7458 2845.00
20.05 2839.00
20.3543 2856.00
20.6585 2868.00
20.9628 2867.00
21.2671 2780.00
21.5713 2929.00
21.8756 2868.00
22.1798 2827.00
22.4841 2858.00
22.7884 2919.00
23.0926 2794.00
23.3969 2867.00
23.7011 2903.00
24.0054 2970.00
24.3097 3315.00
24.6139 3703.00
24.9182 4768.00
25.2224 2891.00
25.5267 2918.00
25.831 2932.00
26.1352 2994.00
26.4395 2955.00
26.7438 2943.00
27.048 2899.00
27.3523 2965.00
27.6565 3130.00
27.9608 3152.00
28.2651 3889.00
28.5693 13367.00
28.8736 4858.00
29.1778 3417.00
29.4821 3151.00
29.7864 3055.00
30.0906 3117.00
30.3949 3158.00
30.6991 3207.00
31.0034 3137.00
31.3077 3506.00
31.6119 5199.00
31.9162 13078.00
32.2204 4295.00
32.5247 3297.00
32.829 3174.00
33.1332 3158.00
33.4375 3121.00
33.7417 3228.00
34.046 3215.00
34.3503 3510.00
34.6545 7133.00
34.9588 6140.00
35.263 3389.00
35.5673 3505.00
35.8716 6275.00
36.1758 3556.00
36.4801 3714.00
36.7843 3250.00
37.0886 6383.00
37.3929 3462.00
37.6971 3109.00
38.0014 3106.00
38.3056 3045.00
38.6099 3157.00
38.9142 3634.00
39.2184 3754.00
39.5227 3234.00
39.8269 3096.00
40.1312 3208.00
40.4355 3277.00
40.7397 3220.00
41.044 3574.00
41.3482 4627.00
41.6525 4037.00
41.9568 3787.00
42.261 3272.00
42.5653 3016.00
42.8695 3162.00
43.1738 3126.00
43.4781 3202.00
43.7823 3139.00
44.0866 3205.00
44.3909 3138.00
44.6951 3153.00
44.9994 3637.00
45.3036 3828.00
45.6079 3470.00
45.9122 3536.00
46.2164 3550.00
46.5207 3102.00
46.8249 3074.00
47.1292 3112.00
47.4335 3143.00
47.7377 3184.00
48.042 3138.00
48.3462 3247.00
48.6505 3231.00
48.9548 3111.00
49.259 3259.00
49.5633 3745.00
49.8675 6171.00
50.1718 3411.00
50.4761 3726.00
50.7803 6284.00
51.0846 4953.00
51.3888 3683.00
51.6931 3786.00
51.9974 3454.00
52.3016 3222.00
52.6059 3142.00
52.9101 3151.00
53.2144 3185.00
53.5187 3108.00
53.8229 3138.00
54.1272 3290.00
54.4314 3559.00
54.7357 4917.00
55.04 3568.00
55.3442 3381.00
55.6485 3553.00
55.9527 5938.00
56.257 4514.00
56.5613 4575.00
56.8655 3500.00
57.1698 3342.00
57.474 3459.00
57.7783 4484.00
58.0826 3579.00
58.3868 3665.00
58.6911 3997.00
58.9953 3785.00
59.2996 3470.00
59.6039 4479.00
59.9081 3607.00
60.2124 3616.00
60.5166 4641.00
60.8209 4026.00
61.1252 3386.00
61.4294 3323.00
61.7337 3469.00
62.0379 4226.00
62.3422 3748.00
62.6465 4281.00
62.9507 3539.00
63.255 3541.00
63.5592 4537.00
63.8635 3549.00
64.1678 3435.00
64.472 3318.00
64.7763 3615.00
65.0806 3611.00
65.3848 3944.00
65.6891 4299.00
65.9933 3710.00
66.2976 4220.00
66.6019 4059.00
66.9061 3444.00
67.2104 3266.00
67.5146 3259.00
67.8189 3298.00
68.1232 3158.00
68.4274 3254.00
68.7317 3279.00
69.0359 3368.00
69.3402 3276.00
69.6445 3652.00
69.9487 3301.00
70.253 3264.00
70.5572 3356.00
70.8615 3444.00
71.1658 3333.00
71.47 3383.00
71.7743 3896.00
72.0785 3768.00
72.3828 3506.00
72.6871 3530.00
72.9913 3473.00
73.2956 3537.00
73.5998 3506.00
73.9041 3350.00
74.2084 3399.00
74.5126 3381.00
74.8169 3279.00
75.1211 3346.00
75.4254 3577.00
75.7297 3741.00
76.0339 3860.00
76.3382 3317.00
76.6424 3336.00
76.9467 3303.00
77.251 3683.00
77.5552 3649.00
77.8595 3573.00
78.1637 3523.00
78.468 3500.00
78.7723 3552.00
79.0765 3382.00
79.3808 3328.00
79.685 3817.00
79.9893 3426.00
80.2936 3197.00
80.5978 3353.00
80.9021 3345.00
81.2063 3373.00
81.5106 3386.00
81.8149 3371.00
82.1191 3473.00
82.4234 3657.00
82.7277 3413.00
83.0319 3453.00
83.3362 3657.00
83.6404 3658.00
83.9447 3703.00
84.249 3620.00
84.5532 3577.00
84.8575 3668.00
85.1617 3638.00
85.466 3494.00
85.7703 3592.00
86.0745 3422.00
86.3788 3297.00
86.683 3387.00
86.9873 3516.00
87.2916 3375.00
87.5958 3071.00
87.9001 3333.00
88.2043 3590.00
88.5086 3636.00
88.8129 3552.00
89.1171 3707.00
89.4214 3824.00
89.7256 3597.00
90.0299 3596.00
90.3342 3565.00
90.6384 3739.00
90.9427 3633.00
91.2469 3296.00
91.5512 3471.00
91.8555 3340.00
92.1597 3475.00
92.464 3453.00
92.7682 3320.00
93.0725 3349.00
93.3768 3383.00
93.681 3293.00
93.9853 3361.00
94.2895 3755.00
94.5938 3643.00
94.8981 3548.00
95.2023 3474.00
95.5066 3519.00
95.8108 3500.00
96.1151 3765.00
96.4194 3498.00
96.7236 3451.00
97.0279 3764.00
97.3321 3675.00
97.6364 3713.00
97.9407 3751.00
98.2449 3564.00
98.5492 3490.00
98.8534 3650.00
99.1577 3587.00
99.462 3692.00
99.7662 3740.00
99.9944 3631.00