File: data/xrd_creation/results/PG_1418-1.xy
10.0094 3437.00
10.3137 3432.00
10.618 3291.00
10.9222 3243.00
11.2265 3225.00
11.5307 3123.00
11.835 3313.00
12.1393 3158.00
12.4435 3041.00
12.7478 3036.00
13.052 3019.00
13.3563 2936.00
13.6606 2991.00
13.9648 2880.00
14.2691 3039.00
14.5733 2876.00
14.8776 2924.00
15.1819 2829.00
15.4861 2916.00
15.7904 2935.00
16.0946 2811.00
16.3989 2849.00
16.7032 2836.00
17.0074 2896.00
17.3117 2974.00
17.6159 2894.00
17.9202 2960.00
18.2245 3122.00
18.5287 3913.00
18.833 6512.00
19.1372 5791.00
19.4415 2996.00
19.7458 2836.00
20.05 2782.00
20.3543 2696.00
20.6585 2773.00
20.9628 2795.00
21.2671 2716.00
21.5713 3048.00
21.8756 3818.00
22.1798 2778.00
22.4841 2774.00
22.7884 2689.00
23.0926 3127.00
23.3969 2780.00
23.7011 2784.00
24.0054 2704.00
24.3097 2627.00
24.6139 2818.00
24.9182 2988.00
25.2224 2671.00
25.5267 2567.00
25.831 2431.00
26.1352 2503.00
26.4395 2482.00
26.7438 2583.00
27.048 2470.00
27.3523 2523.00
27.6565 2486.00
27.9608 2418.00
28.2651 2489.00
28.5693 2461.00
28.8736 2421.00
29.1778 2543.00
29.4821 2563.00
29.7864 2987.00
30.0906 4567.00
30.3949 3202.00
30.6991 6466.00
31.0034 8846.00
31.3077 2971.00
31.6119 2514.00
31.9162 2361.00
32.2204 2356.00
32.5247 2442.00
32.829 2285.00
33.1332 2309.00
33.4375 2515.00
33.7417 2330.00
34.046 3104.00
34.3503 2570.00
34.6545 2619.00
34.9588 2375.00
35.263 2518.00
35.5673 3330.00
35.8716 4869.00
36.1758 2423.00
36.4801 2274.00
36.7843 2270.00
37.0886 2261.00
37.3929 2235.00
37.6971 2361.00
38.0014 3398.00
38.3056 2276.00
38.6099 2251.00
38.9142 2205.00
39.2184 2189.00
39.5227 2151.00
39.8269 2199.00
40.1312 2628.00
40.4355 2283.00
40.7397 2353.00
41.044 2182.00
41.3482 2125.00
41.6525 2247.00
41.9568 2361.00
42.261 2577.00
42.5653 2265.00
42.8695 2350.00
43.1738 2251.00
43.4781 2222.00
43.7823 2025.00
44.0866 2385.00
44.3909 2220.00
44.6951 2261.00
44.9994 2420.00
45.3036 2278.00
45.6079 2301.00
45.9122 3642.00
46.2164 2356.00
46.5207 2242.00
46.8249 2458.00
47.1292 2357.00
47.4335 2405.00
47.7377 2257.00
48.042 2089.00
48.3462 2411.00
48.6505 2144.00
48.9548 2020.00
49.259 2112.00
49.5633 2734.00
49.8675 2180.00
50.1718 2163.00
50.4761 2659.00
50.7803 2482.00
51.0846 2964.00
51.3888 6739.00
51.6931 2546.00
51.9974 2096.00
52.3016 2048.00
52.6059 2100.00
52.9101 2365.00
53.2144 2233.00
53.5187 2087.00
53.8229 2072.00
54.1272 2023.00
54.4314 2102.00
54.7357 2066.00
55.04 2050.00
55.3442 2090.00
55.6485 1997.00
55.9527 2167.00
56.257 3039.00
56.5613 2194.00
56.8655 2073.00
57.1698 2075.00
57.474 2127.00
57.7783 2205.00
58.0826 2162.00
58.3868 2075.00
58.6911 2055.00
58.9953 2074.00
59.2996 2481.00
59.6039 2272.00
59.9081 2072.00
60.2124 2235.00
60.5166 2411.00
60.8209 4164.00
61.1252 4175.00
61.4294 2257.00
61.7337 2165.00
62.0379 2172.00
62.3422 2524.00
62.6465 2425.00
62.9507 2059.00
63.255 2021.00
63.5592 2134.00
63.8635 2690.00
64.1678 2180.00
64.472 2085.00
64.7763 1958.00
65.0806 2044.00
65.3848 2505.00
65.6891 2012.00
65.9933 1994.00
66.2976 2004.00
66.6019 1993.00
66.9061 2077.00
67.2104 1985.00
67.5146 2025.00
67.8189 1945.00
68.1232 2105.00
68.4274 2241.00
68.7317 2010.00
69.0359 2079.00
69.3402 1939.00
69.6445 2238.00
69.9487 2085.00
70.253 1976.00
70.5572 1900.00
70.8615 2002.00
71.1658 2018.00
71.47 2033.00
71.7743 1963.00
72.0785 1936.00
72.3828 1909.00
72.6871 1984.00
72.9913 1992.00
73.2956 1963.00
73.5998 2050.00
73.9041 2256.00
74.2084 2054.00
74.5126 1908.00
74.8169 2013.00
75.1211 2098.00
75.4254 2252.00
75.7297 2096.00
76.0339 2023.00
76.3382 2005.00
76.6424 2596.00
76.9467 2071.00
77.251 1928.00
77.5552 2049.00
77.8595 1999.00
78.1637 2076.00
78.468 2033.00
78.7723 1933.00
79.0765 1970.00
79.3808 2292.00
79.685 2080.00
79.9893 2020.00
80.2936 2009.00
80.5978 2095.00
80.9021 2111.00
81.2063 1961.00
81.5106 1981.00
81.8149 2018.00
82.1191 2216.00
82.4234 2099.00
82.7277 2009.00
83.0319 2028.00
83.3362 2905.00
83.6404 2471.00
83.9447 1963.00
84.249 1917.00
84.5532 1956.00
84.8575 1988.00
85.1617 1924.00
85.466 1917.00
85.7703 2022.00
86.0745 2460.00
86.3788 2120.00
86.683 1958.00
86.9873 1948.00
87.2916 1983.00
87.5958 1993.00
87.9001 1922.00
88.2043 1884.00
88.5086 1903.00
88.8129 2022.00
89.1171 1939.00
89.4214 1995.00
89.7256 1993.00
90.0299 2261.00
90.3342 2112.00
90.6384 1973.00
90.9427 1913.00
91.2469 1893.00
91.5512 1924.00
91.8555 1978.00
92.1597 1939.00
92.464 1983.00
92.7682 2100.00
93.0725 2048.00
93.3768 2006.00
93.681 1993.00
93.9853 1865.00
94.2895 1981.00
94.5938 1949.00
94.8981 1962.00
95.2023 2088.00
95.5066 2006.00
95.8108 1978.00
96.1151 2019.00
96.4194 2043.00
96.7236 2308.00
97.0279 2222.00
97.3321 1969.00
97.6364 1992.00
97.9407 2192.00
98.2449 2081.00
98.5492 1917.00
98.8534 1881.00
99.1577 1952.00
99.462 2070.00
99.7662 2007.00
99.9944 1932.00