File: data/xrd_creation/results/PG_1321-1.xy
10.0094 2555.00
10.3137 2459.00
10.618 2327.00
10.9222 2222.00
11.2265 2154.00
11.5307 2125.00
11.835 2029.00
12.1393 2060.00
12.4435 2024.00
12.7478 1891.00
13.052 1795.00
13.3563 1896.00
13.6606 1873.00
13.9648 1878.00
14.2691 1773.00
14.5733 1812.00
14.8776 1797.00
15.1819 1824.00
15.4861 1994.00
15.7904 3930.00
16.0946 3118.00
16.3989 1863.00
16.7032 1782.00
17.0074 1724.00
17.3117 1634.00
17.6159 1662.00
17.9202 1620.00
18.2245 1610.00
18.5287 1510.00
18.833 1629.00
19.1372 1554.00
19.4415 1529.00
19.7458 1541.00
20.05 1460.00
20.3543 1550.00
20.6585 1502.00
20.9628 1383.00
21.2671 1479.00
21.5713 1484.00
21.8756 1328.00
22.1798 1451.00
22.4841 1438.00
22.7884 1354.00
23.0926 1401.00
23.3969 1370.00
23.7011 1365.00
24.0054 1392.00
24.3097 1481.00
24.6139 1342.00
24.9182 1302.00
25.2224 1402.00
25.5267 1255.00
25.831 1313.00
26.1352 1281.00
26.4395 1414.00
26.7438 1367.00
27.048 1493.00
27.3523 2513.00
27.6565 4527.00
27.9608 2374.00
28.2651 7713.00
28.5693 1984.00
28.8736 1414.00
29.1778 1350.00
29.4821 1319.00
29.7864 1251.00
30.0906 1276.00
30.3949 1279.00
30.6991 1243.00
31.0034 1233.00
31.3077 1212.00
31.6119 1446.00
31.9162 2243.00
32.2204 1339.00
32.5247 1314.00
32.829 1247.00
33.1332 1307.00
33.4375 3130.00
33.7417 1272.00
34.046 1186.00
34.3503 1146.00
34.6545 1209.00
34.9588 1210.00
35.263 1287.00
35.5673 1224.00
35.8716 2192.00
36.1758 1537.00
36.4801 1332.00
36.7843 1212.00
37.0886 1175.00
37.3929 1157.00
37.6971 1118.00
38.0014 1198.00
38.3056 1205.00
38.6099 1125.00
38.9142 1174.00
39.2184 1268.00
39.5227 2276.00
39.8269 5038.00
40.1312 1682.00
40.4355 1273.00
40.7397 1162.00
41.044 1404.00
41.3482 1184.00
41.6525 1135.00
41.9568 1143.00
42.261 1287.00
42.5653 1869.00
42.8695 1235.00
43.1738 1168.00
43.4781 1100.00
43.7823 1127.00
44.0866 1105.00
44.3909 1072.00
44.6951 1073.00
44.9994 1152.00
45.3036 1078.00
45.6079 1107.00
45.9122 1081.00
46.2164 1079.00
46.5207 1160.00
46.8249 1119.00
47.1292 1269.00
47.4335 1782.00
47.7377 1246.00
48.042 1308.00
48.3462 2206.00
48.6505 2929.00
48.9548 4534.00
49.259 1857.00
49.5633 1396.00
49.8675 1659.00
50.1718 1620.00
50.4761 1274.00
50.7803 1136.00
51.0846 1096.00
51.3888 1083.00
51.6931 1102.00
51.9974 1020.00
52.3016 1079.00
52.6059 1122.00
52.9101 1052.00
53.2144 1012.00
53.5187 1042.00
53.8229 1138.00
54.1272 1191.00
54.4314 1607.00
54.7357 1153.00
55.04 1090.00
55.3442 1454.00
55.6485 1923.00
55.9527 1242.00
56.257 1160.00
56.5613 1518.00
56.8655 1250.00
57.1698 1094.00
57.474 1151.00
57.7783 1337.00
58.0826 1322.00
58.3868 1201.00
58.6911 1126.00
58.9953 1227.00
59.2996 1221.00
59.6039 1042.00
59.9081 1031.00
60.2124 1033.00
60.5166 1006.00
60.8209 1086.00
61.1252 1081.00
61.4294 1091.00
61.7337 1030.00
62.0379 1007.00
62.3422 1146.00
62.6465 1643.00
62.9507 1167.00
63.255 1158.00
63.5592 1074.00
63.8635 1158.00
64.1678 1924.00
64.472 1799.00
64.7763 1238.00
65.0806 1163.00
65.3848 1389.00
65.6891 1153.00
65.9933 1125.00
66.2976 1205.00
66.6019 1105.00
66.9061 1046.00
67.2104 977.00
67.5146 1055.00
67.8189 1069.00
68.1232 1066.00
68.4274 1076.00
68.7317 1022.00
69.0359 1065.00
69.3402 1097.00
69.6445 1234.00
69.9487 1721.00
70.253 1275.00
70.5572 1128.00
70.8615 1130.00
71.1658 1218.00
71.47 1150.00
71.7743 1117.00
72.0785 1255.00
72.3828 1179.00
72.6871 1068.00
72.9913 1118.00
73.2956 1083.00
73.5998 1047.00
73.9041 1073.00
74.2084 1059.00
74.5126 1028.00
74.8169 1094.00
75.1211 1077.00
75.4254 1047.00
75.7297 1302.00
76.0339 1349.00
76.3382 1414.00
76.6424 1404.00
76.9467 1243.00
77.251 1408.00
77.5552 1739.00
77.8595 1777.00
78.1637 1367.00
78.468 1171.00
78.7723 1301.00
79.0765 1189.00
79.3808 1028.00
79.685 1058.00
79.9893 1014.00
80.2936 1059.00
80.5978 954.00
80.9021 1093.00
81.2063 1041.00
81.5106 1070.00
81.8149 1048.00
82.1191 1082.00
82.4234 1238.00
82.7277 1193.00
83.0319 1196.00
83.3362 1097.00
83.6404 1046.00
83.9447 1019.00
84.249 1043.00
84.5532 1099.00
84.8575 1113.00
85.1617 1270.00
85.466 1220.00
85.7703 1070.00
86.0745 1041.00
86.3788 1080.00
86.683 1040.00
86.9873 1093.00
87.2916 1043.00
87.5958 1042.00
87.9001 991.00
88.2043 1052.00
88.5086 1154.00
88.8129 1402.00
89.1171 1323.00
89.4214 1184.00
89.7256 1058.00
90.0299 1140.00
90.3342 1233.00
90.6384 1264.00
90.9427 1214.00
91.2469 1200.00
91.5512 1193.00
91.8555 1095.00
92.1597 1103.00
92.464 1122.00
92.7682 1066.00
93.0725 1078.00
93.3768 1091.00
93.681 1138.00
93.9853 1081.00
94.2895 1067.00
94.5938 1083.00
94.8981 1074.00
95.2023 1122.00
95.5066 1236.00
95.8108 1412.00
96.1151 1288.00
96.4194 1234.00
96.7236 1267.00
97.0279 1299.00
97.3321 1241.00
97.6364 1137.00
97.9407 1089.00
98.2449 1068.00
98.5492 1064.00
98.8534 1100.00
99.1577 1076.00
99.462 1045.00
99.7662 1093.00
99.9944 1046.00