File: data/xrd_creation/results/PG_1735-1.xy
9.903433 2773.00
10.2077 2600.00
10.512 2556.00
10.8162 2503.00
11.1205 2404.00
11.4247 2348.00
11.729 2299.00
12.0333 2172.00
12.3375 2227.00
12.6418 2171.00
12.946 2201.00
13.2503 2025.00
13.5546 1908.00
13.8588 2047.00
14.1631 1870.00
14.4673 1918.00
14.7716 1879.00
15.0759 1842.00
15.3801 1871.00
15.6844 1704.00
15.9886 1757.00
16.2929 1803.00
16.5972 1779.00
16.9014 1686.00
17.2057 1790.00
17.5099 1899.00
17.8142 3068.00
18.1185 1672.00
18.4227 1620.00
18.727 1573.00
19.0312 1556.00
19.3355 1512.00
19.6398 1512.00
19.944 1531.00
20.2483 1448.00
20.5525 1498.00
20.8568 1489.00
21.1611 1538.00
21.4653 1442.00
21.7696 1407.00
22.0738 1430.00
22.3781 1363.00
22.6824 1492.00
22.9866 1470.00
23.2909 1410.00
23.5951 1477.00
23.8994 1530.00
24.2037 1807.00
24.5079 6439.00
24.8122 3662.00
25.1164 1849.00
25.4207 1401.00
25.725 1357.00
26.0292 1283.00
26.3335 1407.00
26.6378 1304.00
26.942 1365.00
27.2463 1378.00
27.5505 1394.00
27.8548 1759.00
28.1591 2456.00
28.4633 8758.00
28.7676 17366.00
29.0718 2810.00
29.3761 1873.00
29.6804 1579.00
29.9846 1493.00
30.2889 1629.00
30.5931 1602.00
30.8974 1677.00
31.2017 1858.00
31.5059 2577.00
31.8102 9071.00
32.1144 10706.00
32.4187 2218.00
32.723 1585.00
33.0272 1369.00
33.3315 1480.00
33.6357 1435.00
33.94 1444.00
34.2443 1763.00
34.5485 6097.00
34.8528 7447.00
35.157 2335.00
35.4613 1952.00
35.7656 6978.00
36.0698 2219.00
36.3741 3377.00
36.6783 1456.00
36.9826 1142.00
37.2869 1148.00
37.5911 1081.00
37.8954 1139.00
38.1996 1230.00
38.5039 1228.00
38.8082 1367.00
39.1124 3797.00
39.4167 1377.00
39.7209 1285.00
40.0252 1208.00
40.3295 1290.00
40.6337 1281.00
40.938 1558.00
41.2422 4619.00
41.5465 2292.00
41.8508 2530.00
42.155 1416.00
42.4593 1097.00
42.7635 1001.00
43.0678 1019.00
43.3721 1000.00
43.6763 955.00
43.9806 930.00
44.2849 989.00
44.5891 987.00
44.8934 1082.00
45.1976 1312.00
45.5019 2036.00
45.8062 1379.00
46.1104 2840.00
46.4147 1217.00
46.7189 1029.00
47.0232 965.00
47.3275 948.00
47.6317 1029.00
47.936 923.00
48.2402 961.00
48.5445 1124.00
48.8488 1022.00
49.153 1107.00
49.4573 1651.00
49.7615 4395.00
50.0658 2806.00
50.3701 1599.00
50.6743 6691.00
50.9786 3179.00
51.2828 3518.00
51.5871 1499.00
51.8914 2194.00
52.1956 1165.00
52.4999 1042.00
52.8041 943.00
53.1084 957.00
53.4127 968.00
53.7169 1081.00
54.0212 1081.00
54.3254 1265.00
54.6297 3028.00
54.934 2544.00
55.2382 1489.00
55.5425 1415.00
55.8467 3048.00
56.151 4971.00
56.4553 3026.00
56.7595 2260.00
57.0638 1165.00
57.368 1201.00
57.6723 2013.00
57.9766 2573.00
58.2808 1455.00
58.5851 2783.00
58.8893 2470.00
59.1936 1343.00
59.4979 1151.00
59.8021 1067.00
60.1064 1200.00
60.4106 3465.00
60.7149 3334.00
61.0192 1477.00
61.3234 1131.00
61.6277 1176.00
61.932 2360.00
62.2362 2256.00
62.5405 2812.00
62.8447 1954.00
63.149 1405.00
63.4533 2889.00
63.7575 2261.00
64.0618 1128.00
64.366 1040.00
64.6703 1296.00
64.9745 2070.00
65.2788 1160.00
65.5831 1082.00
65.8873 1348.00
66.1916 1992.00
66.4959 2891.00
66.8001 1491.00
67.1044 949.00
67.4086 947.00
67.7129 908.00
68.0172 886.00
68.3214 910.00
68.6257 856.00
68.9299 889.00
69.2342 922.00
69.5385 1324.00
69.8427 1378.00
70.147 1044.00
70.4512 1055.00
70.7555 960.00
71.0598 979.00
71.364 948.00
71.6683 1445.00
71.9725 2441.00
72.2768 1280.00
72.5811 1235.00
72.8853 1474.00
73.1896 1303.00
73.4938 1261.00
73.7981 916.00
74.1024 937.00
74.4066 963.00
74.7109 933.00
75.0151 961.00
75.3194 1161.00
75.6237 1386.00
75.9279 1936.00
76.2322 1204.00
76.5364 1006.00
76.8407 923.00
77.145 1461.00
77.4492 1396.00
77.7535 1046.00
78.0577 1286.00
78.362 1321.00
78.6663 1133.00
78.9705 1177.00
79.2748 1072.00
79.579 1318.00
79.8833 1358.00
80.1876 936.00
80.4918 850.00
80.7961 856.00
81.1003 1006.00
81.4046 1073.00
81.7089 960.00
82.0131 1142.00
82.3174 1660.00
82.6217 1344.00
82.9259 1083.00
83.2302 1254.00
83.5344 1406.00
83.8387 1558.00
84.143 1658.00
84.4472 1333.00
84.7515 1699.00
85.0557 1551.00
85.36 1097.00
85.6643 1352.00
85.9685 1243.00
86.2728 934.00
86.577 916.00
86.8813 1329.00
87.1856 1114.00
87.4898 1001.00
87.7941 978.00
88.0983 1104.00
88.4026 1372.00
88.7069 1218.00
89.0111 1629.00
89.3154 1775.00
89.6196 1416.00
89.9239 1127.00
90.2282 1335.00
90.5324 1559.00
90.8367 1503.00
91.1409 1127.00
91.4452 1040.00
91.7495 1066.00
92.0537 1015.00
92.358 1072.00
92.6622 965.00
92.9665 913.00
93.2708 848.00
93.575 859.00
93.8793 994.00
94.1835 950.00
94.4878 1087.00
94.7921 1194.00
95.0963 1133.00
95.4006 1006.00
95.7048 1227.00
96.0091 1493.00
96.3134 1361.00
96.6176 1045.00
96.9219 1248.00
97.2261 1452.00
97.5304 1886.00
97.8347 1916.00
98.1389 1346.00
98.4432 1186.00
98.7474 1101.00
99.0517 1335.00
99.356 1352.00
99.6602 1523.00
99.9645 1484.00
100.095 1459.00