File: data/xrd_creation/results/PG_1018-1.xy
10.0094 2101.00
10.3137 2131.00
10.618 1992.00
10.9222 2002.00
11.2265 1865.00
11.5307 1699.00
11.835 1660.00
12.1393 1562.00
12.4435 1552.00
12.7478 1537.00
13.052 1476.00
13.3563 1376.00
13.6606 1352.00
13.9648 1312.00
14.2691 1277.00
14.5733 1246.00
14.8776 1245.00
15.1819 1213.00
15.4861 1175.00
15.7904 1162.00
16.0946 1082.00
16.3989 1096.00
16.7032 1071.00
17.0074 1097.00
17.3117 1025.00
17.6159 930.00
17.9202 994.00
18.2245 908.00
18.5287 962.00
18.833 895.00
19.1372 914.00
19.4415 889.00
19.7458 840.00
20.05 866.00
20.3543 819.00
20.6585 795.00
20.9628 769.00
21.2671 919.00
21.5713 779.00
21.8756 732.00
22.1798 699.00
22.4841 697.00
22.7884 721.00
23.0926 658.00
23.3969 693.00
23.7011 641.00
24.0054 628.00
24.3097 728.00
24.6139 602.00
24.9182 631.00
25.2224 617.00
25.5267 535.00
25.831 612.00
26.1352 584.00
26.4395 515.00
26.7438 531.00
27.048 501.00
27.3523 532.00
27.6565 493.00
27.9608 497.00
28.2651 491.00
28.5693 516.00
28.8736 463.00
29.1778 486.00
29.4821 470.00
29.7864 493.00
30.0906 541.00
30.3949 1578.00
30.6991 603.00
31.0034 487.00
31.3077 479.00
31.6119 440.00
31.9162 470.00
32.2204 422.00
32.5247 442.00
32.829 430.00
33.1332 443.00
33.4375 572.00
33.7417 382.00
34.046 419.00
34.3503 378.00
34.6545 357.00
34.9588 382.00
35.263 626.00
35.5673 464.00
35.8716 374.00
36.1758 467.00
36.4801 336.00
36.7843 326.00
37.0886 336.00
37.3929 365.00
37.6971 349.00
38.0014 313.00
38.3056 302.00
38.6099 319.00
38.9142 310.00
39.2184 313.00
39.5227 324.00
39.8269 330.00
40.1312 282.00
40.4355 278.00
40.7397 290.00
41.044 297.00
41.3482 369.00
41.6525 300.00
41.9568 270.00
42.261 310.00
42.5653 259.00
42.8695 264.00
43.1738 272.00
43.4781 292.00
43.7823 281.00
44.0866 270.00
44.3909 271.00
44.6951 272.00
44.9994 277.00
45.3036 292.00
45.6079 353.00
45.9122 248.00
46.2164 246.00
46.5207 258.00
46.8249 247.00
47.1292 222.00
47.4335 237.00
47.7377 219.00
48.042 259.00
48.3462 221.00
48.6505 239.00
48.9548 213.00
49.259 222.00
49.5633 245.00
49.8675 234.00
50.1718 272.00
50.4761 219.00
50.7803 324.00
51.0846 391.00
51.3888 274.00
51.6931 217.00
51.9974 227.00
52.3016 238.00
52.6059 245.00
52.9101 196.00
53.2144 218.00
53.5187 208.00
53.8229 216.00
54.1272 161.00
54.4314 225.00
54.7357 311.00
55.04 218.00
55.3442 167.00
55.6485 218.00
55.9527 248.00
56.257 201.00
56.5613 194.00
56.8655 198.00
57.1698 189.00
57.474 208.00
57.7783 179.00
58.0826 177.00
58.3868 189.00
58.6911 192.00
58.9953 216.00
59.2996 182.00
59.6039 170.00
59.9081 170.00
60.2124 177.00
60.5166 399.00
60.8209 222.00
61.1252 173.00
61.4294 178.00
61.7337 182.00
62.0379 213.00
62.3422 190.00
62.6465 150.00
62.9507 170.00
63.255 175.00
63.5592 234.00
63.8635 169.00
64.1678 144.00
64.472 169.00
64.7763 163.00
65.0806 200.00
65.3848 172.00
65.6891 196.00
65.9933 158.00
66.2976 167.00
66.6019 187.00
66.9061 133.00
67.2104 141.00
67.5146 157.00
67.8189 160.00
68.1232 169.00
68.4274 157.00
68.7317 176.00
69.0359 177.00
69.3402 189.00
69.6445 151.00
69.9487 161.00
70.253 183.00
70.5572 142.00
70.8615 146.00
71.1658 176.00
71.47 170.00
71.7743 153.00
72.0785 181.00
72.3828 153.00
72.6871 177.00
72.9913 149.00
73.2956 184.00
73.5998 207.00
73.9041 179.00
74.2084 176.00
74.5126 161.00
74.8169 175.00
75.1211 189.00
75.4254 169.00
75.7297 169.00
76.0339 181.00
76.3382 185.00
76.6424 186.00
76.9467 170.00
77.251 180.00
77.5552 196.00
77.8595 176.00
78.1637 159.00
78.468 181.00
78.7723 200.00
79.0765 189.00
79.3808 175.00
79.685 183.00
79.9893 199.00
80.2936 200.00
80.5978 181.00
80.9021 225.00
81.2063 190.00
81.5106 201.00
81.8149 171.00
82.1191 202.00
82.4234 202.00
82.7277 167.00
83.0319 198.00
83.3362 210.00
83.6404 201.00
83.9447 171.00
84.249 180.00
84.5532 175.00
84.8575 208.00
85.1617 193.00
85.466 181.00
85.7703 194.00
86.0745 177.00
86.3788 173.00
86.683 164.00
86.9873 174.00
87.2916 178.00
87.5958 171.00
87.9001 172.00
88.2043 141.00
88.5086 161.00
88.8129 159.00
89.1171 155.00
89.4214 176.00
89.7256 149.00
90.0299 175.00
90.3342 190.00
90.6384 146.00
90.9427 167.00
91.2469 165.00
91.5512 166.00
91.8555 151.00
92.1597 146.00
92.464 167.00
92.7682 175.00
93.0725 134.00
93.3768 155.00
93.681 147.00
93.9853 167.00
94.2895 147.00
94.5938 172.00
94.8981 166.00
95.2023 187.00
95.5066 156.00
95.8108 152.00
96.1151 172.00
96.4194 146.00
96.7236 171.00
97.0279 141.00
97.3321 183.00
97.6364 157.00
97.9407 181.00
98.2449 157.00
98.5492 144.00
98.8534 174.00
99.1577 145.00
99.462 170.00
99.7662 178.00
99.9944 164.00