File: data/xrd_creation/results/PG_1835-1.xy
9.903433 2682.00
10.2077 2731.00
10.512 2575.00
10.8162 2435.00
11.1205 2303.00
11.4247 2280.00
11.729 2250.00
12.0333 2085.00
12.3375 2099.00
12.6418 2075.00
12.946 1983.00
13.2503 1928.00
13.5546 1845.00
13.8588 1885.00
14.1631 1821.00
14.4673 1737.00
14.7716 1810.00
15.0759 1721.00
15.3801 1755.00
15.6844 1663.00
15.9886 1693.00
16.2929 1643.00
16.5972 1577.00
16.9014 1565.00
17.2057 1567.00
17.5099 1587.00
17.8142 1702.00
18.1185 1617.00
18.4227 1452.00
18.727 1397.00
19.0312 1480.00
19.3355 1426.00
19.6398 1372.00
19.944 1373.00
20.2483 1460.00
20.5525 1261.00
20.8568 1303.00
21.1611 1341.00
21.4653 1422.00
21.7696 3856.00
22.0738 1440.00
22.3781 1233.00
22.6824 1215.00
22.9866 1263.00
23.2909 1173.00
23.5951 1103.00
23.8994 1216.00
24.2037 1147.00
24.5079 1137.00
24.8122 1074.00
25.1164 1129.00
25.4207 1071.00
25.725 1077.00
26.0292 1049.00
26.3335 1087.00
26.6378 1090.00
26.942 999.00
27.2463 950.00
27.5505 995.00
27.8548 1045.00
28.1591 974.00
28.4633 974.00
28.7676 977.00
29.0718 953.00
29.3761 906.00
29.6804 965.00
29.9846 1211.00
30.2889 1460.00
30.5931 2680.00
30.8974 41606.00
31.2017 3012.00
31.5059 1304.00
31.8102 1103.00
32.1144 970.00
32.4187 947.00
32.723 888.00
33.0272 904.00
33.3315 1193.00
33.6357 926.00
33.94 881.00
34.2443 901.00
34.5485 1177.00
34.8528 1226.00
35.157 932.00
35.4613 1366.00
35.7656 12733.00
36.0698 1437.00
36.3741 861.00
36.6783 758.00
36.9826 798.00
37.2869 817.00
37.5911 792.00
37.8954 1355.00
38.1996 1261.00
38.5039 953.00
38.8082 709.00
39.1124 702.00
39.4167 677.00
39.7209 764.00
40.0252 824.00
40.3295 1062.00
40.6337 647.00
40.938 681.00
41.2422 664.00
41.5465 837.00
41.8508 1046.00
42.155 2608.00
42.4593 738.00
42.7635 676.00
43.0678 656.00
43.3721 573.00
43.6763 649.00
43.9806 622.00
44.2849 724.00
44.5891 651.00
44.8934 667.00
45.1976 584.00
45.5019 593.00
45.8062 941.00
46.1104 2873.00
46.4147 720.00
46.7189 699.00
47.0232 640.00
47.3275 626.00
47.6317 556.00
47.936 569.00
48.2402 596.00
48.5445 765.00
48.8488 527.00
49.153 581.00
49.4573 707.00
49.7615 1115.00
50.0658 652.00
50.3701 586.00
50.6743 705.00
50.9786 1198.00
51.2828 11063.00
51.5871 2336.00
51.8914 779.00
52.1956 605.00
52.4999 578.00
52.8041 630.00
53.1084 1043.00
53.4127 606.00
53.7169 629.00
54.0212 606.00
54.3254 551.00
54.6297 763.00
54.934 596.00
55.2382 537.00
55.5425 533.00
55.8467 654.00
56.151 920.00
56.4553 1436.00
56.7595 636.00
57.0638 531.00
57.368 572.00
57.6723 536.00
57.9766 759.00
58.2808 524.00
58.5851 523.00
58.8893 552.00
59.1936 682.00
59.4979 1351.00
59.8021 636.00
60.1064 613.00
60.4106 694.00
60.7149 1381.00
61.0192 6321.00
61.3234 1164.00
61.6277 628.00
61.932 609.00
62.2362 780.00
62.5405 1605.00
62.8447 668.00
63.149 608.00
63.4533 506.00
63.7575 707.00
64.0618 1355.00
64.366 633.00
64.6703 479.00
64.9745 488.00
65.2788 542.00
65.5831 890.00
65.8873 491.00
66.1916 485.00
66.4959 480.00
66.8001 619.00
67.1044 665.00
67.4086 492.00
67.7129 513.00
68.0172 525.00
68.3214 1596.00
68.6257 636.00
68.9299 461.00
69.2342 435.00
69.5385 512.00
69.8427 702.00
70.147 505.00
70.4512 449.00
70.7555 444.00
71.0598 412.00
71.364 408.00
71.6683 398.00
71.9725 409.00
72.2768 463.00
72.5811 457.00
72.8853 403.00
73.1896 390.00
73.4938 450.00
73.7981 589.00
74.1024 882.00
74.4066 435.00
74.7109 453.00
75.0151 539.00
75.3194 1691.00
75.6237 655.00
75.9279 468.00
76.2322 468.00
76.5364 673.00
76.8407 903.00
77.145 399.00
77.4492 444.00
77.7535 462.00
78.0577 1033.00
78.362 541.00
78.6663 428.00
78.9705 463.00
79.2748 624.00
79.579 745.00
79.8833 491.00
80.1876 460.00
80.4918 462.00
80.7961 738.00
81.1003 481.00
81.4046 443.00
81.7089 474.00
82.0131 1010.00
82.3174 1006.00
82.6217 491.00
82.9259 520.00
83.2302 712.00
83.5344 1184.00
83.8387 622.00
84.143 456.00
84.4472 467.00
84.7515 468.00
85.0557 425.00
85.36 420.00
85.6643 534.00
85.9685 971.00
86.2728 1030.00
86.577 460.00
86.8813 438.00
87.1856 454.00
87.4898 569.00
87.7941 494.00
88.0983 412.00
88.4026 403.00
88.7069 723.00
89.0111 567.00
89.3154 427.00
89.6196 431.00
89.9239 556.00
90.2282 619.00
90.5324 459.00
90.8367 439.00
91.1409 397.00
91.4452 387.00
91.7495 416.00
92.0537 385.00
92.358 470.00
92.6622 956.00
92.9665 688.00
93.2708 427.00
93.575 412.00
93.8793 420.00
94.1835 379.00
94.4878 423.00
94.7921 393.00
95.0963 478.00
95.4006 993.00
95.7048 734.00
96.0091 452.00
96.3134 491.00
96.6176 1167.00
96.9219 832.00
97.2261 534.00
97.5304 446.00
97.8347 522.00
98.1389 713.00
98.4432 651.00
98.7474 428.00
99.0517 449.00
99.356 862.00
99.6602 669.00
99.9645 478.00
100.095 391.00