File: data/xrd_creation/results/PG_1520-1.xy
10.0094 2256.00
10.3137 2166.00
10.618 2082.00
10.9222 1944.00
11.2265 1870.00
11.5307 1895.00
11.835 1853.00
12.1393 1745.00
12.4435 1670.00
12.7478 1683.00
13.052 1635.00
13.3563 1606.00
13.6606 1484.00
13.9648 1456.00
14.2691 1518.00
14.5733 1419.00
14.8776 1474.00
15.1819 1418.00
15.4861 1376.00
15.7904 1353.00
16.0946 1378.00
16.3989 1302.00
16.7032 1292.00
17.0074 1296.00
17.3117 1382.00
17.6159 2816.00
17.9202 1184.00
18.2245 1140.00
18.5287 1122.00
18.833 1187.00
19.1372 1499.00
19.4415 1109.00
19.7458 1034.00
20.05 1020.00
20.3543 1042.00
20.6585 985.00
20.9628 982.00
21.2671 880.00
21.5713 955.00
21.8756 948.00
22.1798 936.00
22.4841 916.00
22.7884 933.00
23.0926 927.00
23.3969 967.00
23.7011 1262.00
24.0054 6625.00
24.3097 1440.00
24.6139 1036.00
24.9182 903.00
25.2224 734.00
25.5267 812.00
25.831 803.00
26.1352 733.00
26.4395 769.00
26.7438 747.00
27.048 733.00
27.3523 790.00
27.6565 772.00
27.9608 797.00
28.2651 723.00
28.5693 734.00
28.8736 722.00
29.1778 715.00
29.4821 884.00
29.7864 1480.00
30.0906 2042.00
30.3949 3408.00
30.6991 4566.00
31.0034 16367.00
31.3077 1358.00
31.6119 1673.00
31.9162 4706.00
32.2204 2049.00
32.5247 1087.00
32.829 867.00
33.1332 822.00
33.4375 1046.00
33.7417 1621.00
34.046 1378.00
34.3503 2564.00
34.6545 847.00
34.9588 1063.00
35.263 2953.00
35.5673 4825.00
35.8716 1134.00
36.1758 794.00
36.4801 750.00
36.7843 758.00
37.0886 835.00
37.3929 1322.00
37.6971 1971.00
38.0014 1105.00
38.3056 1617.00
38.6099 4099.00
38.9142 1408.00
39.2184 765.00
39.5227 633.00
39.8269 566.00
40.1312 510.00
40.4355 503.00
40.7397 747.00
41.044 635.00
41.3482 553.00
41.6525 479.00
41.9568 545.00
42.261 529.00
42.5653 523.00
42.8695 700.00
43.1738 1000.00
43.4781 773.00
43.7823 553.00
44.0866 479.00
44.3909 487.00
44.6951 573.00
44.9994 706.00
45.3036 603.00
45.6079 725.00
45.9122 2176.00
46.2164 1359.00
46.5207 1686.00
46.8249 4530.00
47.1292 594.00
47.4335 513.00
47.7377 655.00
48.042 766.00
48.3462 603.00
48.6505 908.00
48.9548 1182.00
49.259 667.00
49.5633 562.00
49.8675 625.00
50.1718 494.00
50.4761 449.00
50.7803 455.00
51.0846 539.00
51.3888 439.00
51.6931 428.00
51.9974 423.00
52.3016 436.00
52.6059 532.00
52.9101 415.00
53.2144 412.00
53.5187 436.00
53.8229 402.00
54.1272 512.00
54.4314 567.00
54.7357 660.00
55.04 606.00
55.3442 1325.00
55.6485 438.00
55.9527 391.00
56.257 428.00
56.5613 466.00
56.8655 520.00
57.1698 476.00
57.474 728.00
57.7783 1331.00
58.0826 997.00
58.3868 691.00
58.6911 1095.00
58.9953 1770.00
59.2996 926.00
59.6039 653.00
59.9081 907.00
60.2124 1338.00
60.5166 1020.00
60.8209 1118.00
61.1252 1294.00
61.4294 967.00
61.7337 596.00
62.0379 552.00
62.3422 507.00
62.6465 642.00
62.9507 813.00
63.255 583.00
63.5592 546.00
63.8635 809.00
64.1678 2197.00
64.472 1588.00
64.7763 2660.00
65.0806 1968.00
65.3848 757.00
65.6891 544.00
65.9933 431.00
66.2976 394.00
66.6019 462.00
66.9061 504.00
67.2104 399.00
67.5146 397.00
67.8189 426.00
68.1232 420.00
68.4274 451.00
68.7317 466.00
69.0359 540.00
69.3402 768.00
69.6445 963.00
69.9487 1924.00
70.253 786.00
70.5572 868.00
70.8615 699.00
71.1658 473.00
71.47 438.00
71.7743 912.00
72.0785 441.00
72.3828 476.00
72.6871 599.00
72.9913 514.00
73.2956 427.00
73.5998 466.00
73.9041 568.00
74.2084 610.00
74.5126 761.00
74.8169 824.00
75.1211 383.00
75.4254 364.00
75.7297 340.00
76.0339 365.00
76.3382 368.00
76.6424 378.00
76.9467 423.00
77.251 360.00
77.5552 357.00
77.8595 431.00
78.1637 443.00
78.468 431.00
78.7723 439.00
79.0765 402.00
79.3808 493.00
79.685 1392.00
79.9893 1066.00
80.2936 775.00
80.5978 382.00
80.9021 352.00
81.2063 364.00
81.5106 387.00
81.8149 885.00
82.1191 551.00
82.4234 484.00
82.7277 411.00
83.0319 347.00
83.3362 368.00
83.6404 401.00
83.9447 428.00
84.249 439.00
84.5532 490.00
84.8575 459.00
85.1617 424.00
85.466 418.00
85.7703 541.00
86.0745 457.00
86.3788 360.00
86.683 349.00
86.9873 350.00
87.2916 350.00
87.5958 309.00
87.9001 337.00
88.2043 323.00
88.5086 311.00
88.8129 338.00
89.1171 409.00
89.4214 444.00
89.7256 379.00
90.0299 408.00
90.3342 435.00
90.6384 457.00
90.9427 444.00
91.2469 525.00
91.5512 575.00
91.8555 477.00
92.1597 411.00
92.464 378.00
92.7682 375.00
93.0725 402.00
93.3768 370.00
93.681 417.00
93.9853 418.00
94.2895 582.00
94.5938 612.00
94.8981 548.00
95.2023 571.00
95.5066 735.00
95.8108 688.00
96.1151 621.00
96.4194 800.00
96.7236 693.00
97.0279 498.00
97.3321 403.00
97.6364 387.00
97.9407 346.00
98.2449 397.00
98.5492 462.00
98.8534 458.00
99.1577 553.00
99.462 558.00
99.7662 719.00
99.9944 702.00