File: data/xrd_creation/results/PG_1840-1.xy
9.903433 2366.00
10.2077 2326.00
10.512 2265.00
10.8162 2201.00
11.1205 2143.00
11.4247 2001.00
11.729 1903.00
12.0333 1817.00
12.3375 1735.00
12.6418 1673.00
12.946 1650.00
13.2503 1574.00
13.5546 1545.00
13.8588 1579.00
14.1631 1610.00
14.4673 2052.00
14.7716 1473.00
15.0759 1405.00
15.3801 1456.00
15.6844 1354.00
15.9886 1278.00
16.2929 1288.00
16.5972 1284.00
16.9014 1267.00
17.2057 1267.00
17.5099 1259.00
17.8142 1226.00
18.1185 1200.00
18.4227 1159.00
18.727 1136.00
19.0312 1124.00
19.3355 1116.00
19.6398 1040.00
19.944 1029.00
20.2483 1048.00
20.5525 1057.00
20.8568 976.00
21.1611 1015.00
21.4653 1069.00
21.7696 1513.00
22.0738 965.00
22.3781 941.00
22.6824 976.00
22.9866 880.00
23.2909 908.00
23.5951 883.00
23.8994 904.00
24.2037 879.00
24.5079 1010.00
24.8122 873.00
25.1164 807.00
25.4207 828.00
25.725 910.00
26.0292 934.00
26.3335 1942.00
26.6378 11241.00
26.942 1555.00
27.2463 1001.00
27.5505 1186.00
27.8548 853.00
28.1591 799.00
28.4633 789.00
28.7676 1149.00
29.0718 1139.00
29.3761 897.00
29.6804 779.00
29.9846 865.00
30.2889 909.00
30.5931 1690.00
30.8974 10494.00
31.2017 2397.00
31.5059 952.00
31.8102 1002.00
32.1144 1745.00
32.4187 5239.00
32.723 1212.00
33.0272 786.00
33.3315 821.00
33.6357 762.00
33.94 901.00
34.2443 2779.00
34.5485 1119.00
34.8528 663.00
35.157 658.00
35.4613 848.00
35.7656 3335.00
36.0698 755.00
36.3741 611.00
36.6783 656.00
36.9826 785.00
37.2869 581.00
37.5911 577.00
37.8954 746.00
38.1996 597.00
38.5039 522.00
38.8082 517.00
39.1124 556.00
39.4167 637.00
39.7209 875.00
40.0252 873.00
40.3295 677.00
40.6337 552.00
40.938 510.00
41.2422 562.00
41.5465 554.00
41.8508 579.00
42.155 976.00
42.4593 558.00
42.7635 548.00
43.0678 502.00
43.3721 505.00
43.6763 569.00
43.9806 614.00
44.2849 575.00
44.5891 841.00
44.8934 1362.00
45.1976 636.00
45.5019 570.00
45.8062 779.00
46.1104 1320.00
46.4147 1531.00
46.7189 811.00
47.0232 587.00
47.3275 597.00
47.6317 1218.00
47.936 1764.00
48.2402 645.00
48.5445 622.00
48.8488 551.00
49.153 529.00
49.4573 723.00
49.7615 1089.00
50.0658 2567.00
50.3701 1171.00
50.6743 728.00
50.9786 826.00
51.2828 3980.00
51.5871 913.00
51.8914 685.00
52.1956 1450.00
52.4999 2861.00
52.8041 666.00
53.1084 732.00
53.4127 646.00
53.7169 577.00
54.0212 604.00
54.3254 594.00
54.6297 701.00
54.934 537.00
55.2382 544.00
55.5425 480.00
55.8467 523.00
56.151 959.00
56.4553 1129.00
56.7595 632.00
57.0638 544.00
57.368 522.00
57.6723 615.00
57.9766 799.00
58.2808 1605.00
58.5851 907.00
58.8893 624.00
59.1936 665.00
59.4979 1470.00
59.8021 742.00
60.1064 615.00
60.4106 812.00
60.7149 1752.00
61.0192 2167.00
61.3234 771.00
61.6277 709.00
61.932 540.00
62.2362 600.00
62.5405 692.00
62.8447 527.00
63.149 623.00
63.4533 889.00
63.7575 901.00
64.0618 861.00
64.366 954.00
64.6703 548.00
64.9745 512.00
65.2788 554.00
65.5831 605.00
65.8873 660.00
66.1916 1567.00
66.4959 1182.00
66.8001 569.00
67.1044 532.00
67.4086 488.00
67.7129 488.00
68.0172 461.00
68.3214 762.00
68.6257 622.00
68.9299 479.00
69.2342 469.00
69.5385 487.00
69.8427 671.00
70.147 770.00
70.4512 465.00
70.7555 433.00
71.0598 494.00
71.364 467.00
71.6683 509.00
71.9725 593.00
72.2768 889.00
72.5811 646.00
72.8853 516.00
73.1896 488.00
73.4938 492.00
73.7981 662.00
74.1024 806.00
74.4066 582.00
74.7109 513.00
75.0151 541.00
75.3194 851.00
75.6237 870.00
75.9279 545.00
76.2322 510.00
76.5364 898.00
76.8407 1046.00
77.145 480.00
77.4492 488.00
77.7535 489.00
78.0577 621.00
78.362 493.00
78.6663 448.00
78.9705 488.00
79.2748 581.00
79.579 617.00
79.8833 510.00
80.1876 511.00
80.4918 532.00
80.7961 635.00
81.1003 554.00
81.4046 532.00
81.7089 480.00
82.0131 693.00
82.3174 640.00
82.6217 577.00
82.9259 1009.00
83.2302 1104.00
83.5344 961.00
83.8387 802.00
84.143 670.00
84.4472 676.00
84.7515 1115.00
85.0557 786.00
85.36 566.00
85.6643 547.00
85.9685 775.00
86.2728 865.00
86.577 541.00
86.8813 544.00
87.1856 617.00
87.4898 630.00
87.7941 655.00
88.0983 625.00
88.4026 521.00
88.7069 561.00
89.0111 602.00
89.3154 548.00
89.6196 802.00
89.9239 743.00
90.2282 632.00
90.5324 552.00
90.8367 504.00
91.1409 616.00
91.4452 825.00
91.7495 723.00
92.0537 515.00
92.358 498.00
92.6622 712.00
92.9665 626.00
93.2708 654.00
93.575 603.00
93.8793 513.00
94.1835 502.00
94.4878 443.00
94.7921 459.00
95.0963 523.00
95.4006 602.00
95.7048 562.00
96.0091 620.00
96.3134 518.00
96.6176 760.00
96.9219 667.00
97.2261 534.00
97.5304 572.00
97.8347 719.00
98.1389 605.00
98.4432 579.00
98.7474 540.00
99.0517 534.00
99.356 586.00
99.6602 510.00
99.9645 460.00
100.095 477.00