File: data/xrd_creation/results/PG_1935-1.xy
9.903433 2514.00
10.2077 2453.00
10.512 2360.00
10.8162 2231.00
11.1205 2186.00
11.4247 2073.00
11.729 1968.00
12.0333 1850.00
12.3375 1817.00
12.6418 1775.00
12.946 1638.00
13.2503 1624.00
13.5546 1590.00
13.8588 1486.00
14.1631 1506.00
14.4673 1393.00
14.7716 1415.00
15.0759 1388.00
15.3801 1333.00
15.6844 1263.00
15.9886 1261.00
16.2929 1292.00
16.5972 1191.00
16.9014 1143.00
17.2057 1199.00
17.5099 1020.00
17.8142 1138.00
18.1185 1064.00
18.4227 1100.00
18.727 1074.00
19.0312 1057.00
19.3355 1016.00
19.6398 976.00
19.944 998.00
20.2483 923.00
20.5525 933.00
20.8568 919.00
21.1611 836.00
21.4653 857.00
21.7696 848.00
22.0738 888.00
22.3781 828.00
22.6824 801.00
22.9866 823.00
23.2909 764.00
23.5951 823.00
23.8994 780.00
24.2037 754.00
24.5079 709.00
24.8122 700.00
25.1164 785.00
25.4207 714.00
25.725 677.00
26.0292 657.00
26.3335 684.00
26.6378 689.00
26.942 711.00
27.2463 698.00
27.5505 706.00
27.8548 1302.00
28.1591 699.00
28.4633 643.00
28.7676 606.00
29.0718 580.00
29.3761 558.00
29.6804 602.00
29.9846 623.00
30.2889 561.00
30.5931 593.00
30.8974 587.00
31.2017 567.00
31.5059 578.00
31.8102 544.00
32.1144 542.00
32.4187 584.00
32.723 509.00
33.0272 486.00
33.3315 500.00
33.6357 499.00
33.94 430.00
34.2443 474.00
34.5485 417.00
34.8528 518.00
35.157 480.00
35.4613 461.00
35.7656 422.00
36.0698 449.00
36.3741 451.00
36.6783 404.00
36.9826 432.00
37.2869 433.00
37.5911 377.00
37.8954 409.00
38.1996 383.00
38.5039 397.00
38.8082 372.00
39.1124 370.00
39.4167 361.00
39.7209 360.00
40.0252 377.00
40.3295 353.00
40.6337 379.00
40.938 366.00
41.2422 392.00
41.5465 333.00
41.8508 347.00
42.155 339.00
42.4593 300.00
42.7635 353.00
43.0678 391.00
43.3721 300.00
43.6763 342.00
43.9806 334.00
44.2849 291.00
44.5891 334.00
44.8934 334.00
45.1976 326.00
45.5019 305.00
45.8062 313.00
46.1104 443.00
46.4147 337.00
46.7189 365.00
47.0232 357.00
47.3275 281.00
47.6317 273.00
47.936 314.00
48.2402 311.00
48.5445 268.00
48.8488 299.00
49.153 271.00
49.4573 271.00
49.7615 276.00
50.0658 293.00
50.3701 289.00
50.6743 288.00
50.9786 289.00
51.2828 288.00
51.5871 256.00
51.8914 288.00
52.1956 299.00
52.4999 275.00
52.8041 298.00
53.1084 204.00
53.4127 290.00
53.7169 246.00
54.0212 295.00
54.3254 273.00
54.6297 269.00
54.934 261.00
55.2382 268.00
55.5425 313.00
55.8467 263.00
56.151 267.00
56.4553 283.00
56.7595 210.00
57.0638 240.00
57.368 234.00
57.6723 279.00
57.9766 228.00
58.2808 246.00
58.5851 234.00
58.8893 226.00
59.1936 215.00
59.4979 229.00
59.8021 228.00
60.1064 248.00
60.4106 225.00
60.7149 207.00
61.0192 233.00
61.3234 192.00
61.6277 222.00
61.932 208.00
62.2362 204.00
62.5405 237.00
62.8447 223.00
63.149 221.00
63.4533 218.00
63.7575 200.00
64.0618 193.00
64.366 211.00
64.6703 192.00
64.9745 194.00
65.2788 207.00
65.5831 192.00
65.8873 172.00
66.1916 231.00
66.4959 212.00
66.8001 195.00
67.1044 186.00
67.4086 193.00
67.7129 199.00
68.0172 208.00
68.3214 197.00
68.6257 195.00
68.9299 188.00
69.2342 183.00
69.5385 194.00
69.8427 204.00
70.147 181.00
70.4512 187.00
70.7555 209.00
71.0598 196.00
71.364 202.00
71.6683 196.00
71.9725 199.00
72.2768 219.00
72.5811 198.00
72.8853 213.00
73.1896 208.00
73.4938 202.00
73.7981 202.00
74.1024 204.00
74.4066 226.00
74.7109 230.00
75.0151 207.00
75.3194 226.00
75.6237 256.00
75.9279 196.00
76.2322 220.00
76.5364 217.00
76.8407 212.00
77.145 247.00
77.4492 232.00
77.7535 183.00
78.0577 236.00
78.362 211.00
78.6663 195.00
78.9705 238.00
79.2748 237.00
79.579 226.00
79.8833 249.00
80.1876 200.00
80.4918 225.00
80.7961 219.00
81.1003 257.00
81.4046 231.00
81.7089 265.00
82.0131 268.00
82.3174 233.00
82.6217 213.00
82.9259 214.00
83.2302 208.00
83.5344 235.00
83.8387 226.00
84.143 256.00
84.4472 224.00
84.7515 196.00
85.0557 231.00
85.36 233.00
85.6643 213.00
85.9685 212.00
86.2728 202.00
86.577 213.00
86.8813 202.00
87.1856 215.00
87.4898 211.00
87.7941 211.00
88.0983 179.00
88.4026 193.00
88.7069 218.00
89.0111 194.00
89.3154 221.00
89.6196 171.00
89.9239 173.00
90.2282 169.00
90.5324 184.00
90.8367 226.00
91.1409 196.00
91.4452 172.00
91.7495 204.00
92.0537 187.00
92.358 177.00
92.6622 204.00
92.9665 190.00
93.2708 180.00
93.575 187.00
93.8793 201.00
94.1835 188.00
94.4878 197.00
94.7921 168.00
95.0963 174.00
95.4006 183.00
95.7048 208.00
96.0091 189.00
96.3134 214.00
96.6176 198.00
96.9219 217.00
97.2261 194.00
97.5304 167.00
97.8347 195.00
98.1389 196.00
98.4432 184.00
98.7474 192.00
99.0517 209.00
99.356 205.00
99.6602 193.00
99.9645 171.00
100.095 180.00