File: data/xrd_creation/results/PG_1946-1.xy
9.903433 2585.00
10.2077 2390.00
10.512 2403.00
10.8162 2278.00
11.1205 2242.00
11.4247 2364.00
11.729 2440.00
12.0333 2045.00
12.3375 1894.00
12.6418 1871.00
12.946 1769.00
13.2503 1740.00
13.5546 1592.00
13.8588 1657.00
14.1631 1637.00
14.4673 1546.00
14.7716 1462.00
15.0759 1492.00
15.3801 1487.00
15.6844 1457.00
15.9886 1476.00
16.2929 1422.00
16.5972 1375.00
16.9014 1380.00
17.2057 1337.00
17.5099 1287.00
17.8142 1286.00
18.1185 1272.00
18.4227 1208.00
18.727 1206.00
19.0312 1139.00
19.3355 1141.00
19.6398 1120.00
19.944 1131.00
20.2483 1069.00
20.5525 1105.00
20.8568 999.00
21.1611 1039.00
21.4653 1047.00
21.7696 1003.00
22.0738 1001.00
22.3781 1002.00
22.6824 940.00
22.9866 977.00
23.2909 1033.00
23.5951 928.00
23.8994 886.00
24.2037 944.00
24.5079 947.00
24.8122 952.00
25.1164 1111.00
25.4207 3453.00
25.725 5155.00
26.0292 1299.00
26.3335 912.00
26.6378 800.00
26.942 851.00
27.2463 889.00
27.5505 825.00
27.8548 838.00
28.1591 776.00
28.4633 808.00
28.7676 887.00
29.0718 1038.00
29.3761 1040.00
29.6804 863.00
29.9846 1399.00
30.2889 853.00
30.5931 795.00
30.8974 1427.00
31.2017 1651.00
31.5059 776.00
31.8102 1225.00
32.1144 928.00
32.4187 1461.00
32.723 1099.00
33.0272 1085.00
33.3315 637.00
33.6357 671.00
33.94 789.00
34.2443 574.00
34.5485 1120.00
34.8528 604.00
35.157 633.00
35.4613 686.00
35.7656 581.00
36.0698 625.00
36.3741 1182.00
36.6783 661.00
36.9826 586.00
37.2869 1307.00
37.5911 607.00
37.8954 860.00
38.1996 2570.00
38.5039 954.00
38.8082 1564.00
39.1124 1785.00
39.4167 796.00
39.7209 532.00
40.0252 717.00
40.3295 568.00
40.6337 558.00
40.938 443.00
41.2422 489.00
41.5465 816.00
41.8508 576.00
42.155 517.00
42.4593 437.00
42.7635 430.00
43.0678 415.00
43.3721 431.00
43.6763 667.00
43.9806 421.00
44.2849 362.00
44.5891 419.00
44.8934 406.00
45.1976 666.00
45.5019 407.00
45.8062 407.00
46.1104 397.00
46.4147 517.00
46.7189 441.00
47.0232 464.00
47.3275 392.00
47.6317 866.00
47.936 649.00
48.2402 2863.00
48.5445 853.00
48.8488 464.00
49.153 406.00
49.4573 402.00
49.7615 640.00
50.0658 521.00
50.3701 349.00
50.6743 341.00
50.9786 398.00
51.2828 315.00
51.5871 396.00
51.8914 442.00
52.1956 358.00
52.4999 418.00
52.8041 503.00
53.1084 361.00
53.4127 362.00
53.7169 360.00
54.0212 779.00
54.3254 1684.00
54.6297 486.00
54.934 430.00
55.2382 1397.00
55.5425 1047.00
55.8467 477.00
56.151 369.00
56.4553 366.00
56.7595 325.00
57.0638 309.00
57.368 486.00
57.6723 456.00
57.9766 400.00
58.2808 333.00
58.5851 330.00
58.8893 349.00
59.1936 285.00
59.4979 287.00
59.8021 294.00
60.1064 321.00
60.4106 287.00
60.7149 316.00
61.0192 279.00
61.3234 312.00
61.6277 289.00
61.932 319.00
62.2362 384.00
62.5405 604.00
62.8447 1012.00
63.149 1236.00
63.4533 374.00
63.7575 336.00
64.0618 263.00
64.366 270.00
64.6703 291.00
64.9745 278.00
65.2788 297.00
65.5831 269.00
65.8873 272.00
66.1916 273.00
66.4959 363.00
66.8001 261.00
67.1044 271.00
67.4086 286.00
67.7129 331.00
68.0172 296.00
68.3214 311.00
68.6257 309.00
68.9299 634.00
69.2342 758.00
69.5385 328.00
69.8427 312.00
70.147 295.00
70.4512 794.00
70.7555 715.00
71.0598 355.00
71.364 305.00
71.6683 221.00
71.9725 245.00
72.2768 270.00
72.5811 215.00
72.8853 304.00
73.1896 242.00
73.4938 232.00
73.7981 214.00
74.1024 246.00
74.4066 267.00
74.7109 246.00
75.0151 314.00
75.3194 1507.00
75.6237 436.00
75.9279 287.00
76.2322 579.00
76.5364 362.00
76.8407 230.00
77.145 208.00
77.4492 205.00
77.7535 220.00
78.0577 256.00
78.362 250.00
78.6663 243.00
78.9705 206.00
79.2748 225.00
79.579 239.00
79.8833 196.00
80.1876 232.00
80.4918 232.00
80.7961 261.00
81.1003 295.00
81.4046 258.00
81.7089 232.00
82.0131 284.00
82.3174 346.00
82.6217 334.00
82.9259 832.00
83.2302 486.00
83.5344 354.00
83.8387 244.00
84.143 230.00
84.4472 219.00
84.7515 204.00
85.0557 224.00
85.36 202.00
85.6643 238.00
85.9685 233.00
86.2728 204.00
86.577 222.00
86.8813 228.00
87.1856 198.00
87.4898 183.00
87.7941 211.00
88.0983 209.00
88.4026 209.00
88.7069 210.00
89.0111 215.00
89.3154 193.00
89.6196 228.00
89.9239 203.00
90.2282 186.00
90.5324 195.00
90.8367 183.00
91.1409 186.00
91.4452 182.00
91.7495 195.00
92.0537 199.00
92.358 215.00
92.6622 204.00
92.9665 221.00
93.2708 231.00
93.575 239.00
93.8793 208.00
94.1835 301.00
94.4878 399.00
94.7921 284.00
95.0963 229.00
95.4006 499.00
95.7048 373.00
96.0091 231.00
96.3134 207.00
96.6176 207.00
96.9219 202.00
97.2261 170.00
97.5304 179.00
97.8347 189.00
98.1389 199.00
98.4432 312.00
98.7474 250.00
99.0517 212.00
99.356 230.00
99.6602 206.00
99.9645 314.00
100.095 309.00