File: data/xrd_creation/results/PG_1734-1.xy
9.903433 2446.00
10.2077 2442.00
10.512 2371.00
10.8162 2247.00
11.1205 2152.00
11.4247 1968.00
11.729 1961.00
12.0333 1888.00
12.3375 1793.00
12.6418 1676.00
12.946 1670.00
13.2503 1561.00
13.5546 1517.00
13.8588 1491.00
14.1631 1432.00
14.4673 1445.00
14.7716 1363.00
15.0759 1331.00
15.3801 1379.00
15.6844 1339.00
15.9886 1247.00
16.2929 1197.00
16.5972 1331.00
16.9014 1181.00
17.2057 1236.00
17.5099 1162.00
17.8142 1110.00
18.1185 1025.00
18.4227 1010.00
18.727 943.00
19.0312 990.00
19.3355 920.00
19.6398 1008.00
19.944 974.00
20.2483 927.00
20.5525 903.00
20.8568 907.00
21.1611 882.00
21.4653 860.00
21.7696 788.00
22.0738 809.00
22.3781 774.00
22.6824 792.00
22.9866 738.00
23.2909 797.00
23.5951 928.00
23.8994 750.00
24.2037 830.00
24.5079 798.00
24.8122 700.00
25.1164 713.00
25.4207 696.00
25.725 639.00
26.0292 652.00
26.3335 717.00
26.6378 647.00
26.942 647.00
27.2463 653.00
27.5505 620.00
27.8548 710.00
28.1591 973.00
28.4633 794.00
28.7676 676.00
29.0718 632.00
29.3761 570.00
29.6804 560.00
29.9846 577.00
30.2889 513.00
30.5931 546.00
30.8974 546.00
31.2017 600.00
31.5059 881.00
31.8102 619.00
32.1144 562.00
32.4187 497.00
32.723 490.00
33.0272 516.00
33.3315 505.00
33.6357 494.00
33.94 481.00
34.2443 650.00
34.5485 599.00
34.8528 465.00
35.157 440.00
35.4613 601.00
35.7656 473.00
36.0698 452.00
36.3741 438.00
36.6783 401.00
36.9826 390.00
37.2869 401.00
37.5911 417.00
37.8954 429.00
38.1996 388.00
38.5039 389.00
38.8082 446.00
39.1124 419.00
39.4167 379.00
39.7209 348.00
40.0252 341.00
40.3295 314.00
40.6337 365.00
40.938 418.00
41.2422 354.00
41.5465 378.00
41.8508 335.00
42.155 359.00
42.4593 333.00
42.7635 353.00
43.0678 340.00
43.3721 346.00
43.6763 342.00
43.9806 315.00
44.2849 294.00
44.5891 294.00
44.8934 312.00
45.1976 351.00
45.5019 329.00
45.8062 311.00
46.1104 335.00
46.4147 319.00
46.7189 306.00
47.0232 269.00
47.3275 306.00
47.6317 279.00
47.936 288.00
48.2402 311.00
48.5445 302.00
48.8488 279.00
49.153 325.00
49.4573 363.00
49.7615 295.00
50.0658 305.00
50.3701 464.00
50.6743 298.00
50.9786 302.00
51.2828 261.00
51.5871 292.00
51.8914 257.00
52.1956 288.00
52.4999 277.00
52.8041 230.00
53.1084 274.00
53.4127 242.00
53.7169 235.00
54.0212 247.00
54.3254 361.00
54.6297 275.00
54.934 230.00
55.2382 278.00
55.5425 303.00
55.8467 342.00
56.151 289.00
56.4553 267.00
56.7595 298.00
57.0638 244.00
57.368 286.00
57.6723 285.00
57.9766 258.00
58.2808 281.00
58.5851 239.00
58.8893 223.00
59.1936 235.00
59.4979 203.00
59.8021 235.00
60.1064 300.00
60.4106 295.00
60.7149 220.00
61.0192 223.00
61.3234 246.00
61.6277 291.00
61.932 216.00
62.2362 273.00
62.5405 218.00
62.8447 237.00
63.149 263.00
63.4533 229.00
63.7575 195.00
64.0618 231.00
64.366 194.00
64.6703 221.00
64.9745 186.00
65.2788 214.00
65.5831 194.00
65.8873 222.00
66.1916 267.00
66.4959 227.00
66.8001 210.00
67.1044 229.00
67.4086 187.00
67.7129 189.00
68.0172 209.00
68.3214 177.00
68.6257 174.00
68.9299 196.00
69.2342 229.00
69.5385 222.00
69.8427 170.00
70.147 209.00
70.4512 214.00
70.7555 199.00
71.0598 204.00
71.364 215.00
71.6683 249.00
71.9725 239.00
72.2768 188.00
72.5811 183.00
72.8853 189.00
73.1896 247.00
73.4938 183.00
73.7981 220.00
74.1024 214.00
74.4066 207.00
74.7109 201.00
75.0151 229.00
75.3194 246.00
75.6237 220.00
75.9279 233.00
76.2322 214.00
76.5364 216.00
76.8407 230.00
77.145 229.00
77.4492 257.00
77.7535 227.00
78.0577 233.00
78.362 215.00
78.6663 241.00
78.9705 196.00
79.2748 230.00
79.579 250.00
79.8833 237.00
80.1876 215.00
80.4918 214.00
80.7961 234.00
81.1003 207.00
81.4046 234.00
81.7089 230.00
82.0131 222.00
82.3174 242.00
82.6217 238.00
82.9259 220.00
83.2302 224.00
83.5344 237.00
83.8387 268.00
84.143 229.00
84.4472 223.00
84.7515 270.00
85.0557 227.00
85.36 221.00
85.6643 239.00
85.9685 242.00
86.2728 208.00
86.577 204.00
86.8813 228.00
87.1856 220.00
87.4898 218.00
87.7941 183.00
88.0983 212.00
88.4026 221.00
88.7069 225.00
89.0111 204.00
89.3154 222.00
89.6196 188.00
89.9239 218.00
90.2282 210.00
90.5324 202.00
90.8367 211.00
91.1409 203.00
91.4452 193.00
91.7495 201.00
92.0537 183.00
92.358 193.00
92.6622 231.00
92.9665 244.00
93.2708 204.00
93.575 191.00
93.8793 183.00
94.1835 205.00
94.4878 228.00
94.7921 198.00
95.0963 201.00
95.4006 169.00
95.7048 214.00
96.0091 186.00
96.3134 210.00
96.6176 191.00
96.9219 206.00
97.2261 236.00
97.5304 228.00
97.8347 212.00
98.1389 193.00
98.4432 197.00
98.7474 177.00
99.0517 224.00
99.356 214.00
99.6602 196.00
99.9645 241.00
100.095 194.00