File: data/xrd_creation/results/PG_1118-1.xy
10.0094 2520.00
10.3137 2391.00
10.618 2373.00
10.9222 2191.00
11.2265 2189.00
11.5307 2059.00
11.835 2092.00
12.1393 1967.00
12.4435 1922.00
12.7478 1833.00
13.052 1756.00
13.3563 1763.00
13.6606 1818.00
13.9648 1761.00
14.2691 1732.00
14.5733 1697.00
14.8776 1676.00
15.1819 1648.00
15.4861 1563.00
15.7904 1611.00
16.0946 1602.00
16.3989 1557.00
16.7032 1457.00
17.0074 1483.00
17.3117 1482.00
17.6159 1488.00
17.9202 1526.00
18.2245 1413.00
18.5287 1476.00
18.833 1442.00
19.1372 1438.00
19.4415 1465.00
19.7458 1354.00
20.05 1316.00
20.3543 1378.00
20.6585 1316.00
20.9628 1321.00
21.2671 1355.00
21.5713 1666.00
21.8756 1985.00
22.1798 1278.00
22.4841 1247.00
22.7884 1272.00
23.0926 1241.00
23.3969 1145.00
23.7011 1175.00
24.0054 1123.00
24.3097 1163.00
24.6139 1146.00
24.9182 1216.00
25.2224 1141.00
25.5267 1110.00
25.831 1100.00
26.1352 1125.00
26.4395 1045.00
26.7438 1074.00
27.048 1035.00
27.3523 1081.00
27.6565 1085.00
27.9608 1101.00
28.2651 1056.00
28.5693 951.00
28.8736 1059.00
29.1778 1036.00
29.4821 1020.00
29.7864 1024.00
30.0906 1151.00
30.3949 1487.00
30.6991 5185.00
31.0034 5586.00
31.3077 1212.00
31.6119 1138.00
31.9162 1023.00
32.2204 1041.00
32.5247 1059.00
32.829 1326.00
33.1332 988.00
33.4375 1179.00
33.7417 1025.00
34.046 932.00
34.3503 941.00
34.6545 968.00
34.9588 984.00
35.263 1159.00
35.5673 2620.00
35.8716 5593.00
36.1758 1125.00
36.4801 991.00
36.7843 999.00
37.0886 907.00
37.3929 997.00
37.6971 1060.00
38.0014 1992.00
38.3056 990.00
38.6099 1067.00
38.9142 3028.00
39.2184 2075.00
39.5227 983.00
39.8269 900.00
40.1312 1191.00
40.4355 909.00
40.7397 855.00
41.044 888.00
41.3482 886.00
41.6525 840.00
41.9568 1056.00
42.261 1254.00
42.5653 904.00
42.8695 880.00
43.1738 884.00
43.4781 818.00
43.7823 877.00
44.0866 1106.00
44.3909 859.00
44.6951 828.00
44.9994 881.00
45.3036 857.00
45.6079 918.00
45.9122 2459.00
46.2164 960.00
46.5207 837.00
46.8249 866.00
47.1292 793.00
47.4335 801.00
47.7377 839.00
48.042 803.00
48.3462 815.00
48.6505 927.00
48.9548 1432.00
49.259 1097.00
49.5633 1446.00
49.8675 835.00
50.1718 845.00
50.4761 858.00
50.7803 970.00
51.0846 1852.00
51.3888 5528.00
51.6931 1049.00
51.9974 936.00
52.3016 862.00
52.6059 859.00
52.9101 1102.00
53.2144 901.00
53.5187 897.00
53.8229 1051.00
54.1272 944.00
54.4314 850.00
54.7357 974.00
55.04 792.00
55.3442 790.00
55.6485 835.00
55.9527 870.00
56.257 1917.00
56.5613 928.00
56.8655 809.00
57.1698 818.00
57.474 836.00
57.7783 1098.00
58.0826 906.00
58.3868 1007.00
58.6911 1031.00
58.9953 892.00
59.2996 1266.00
59.6039 1013.00
59.9081 885.00
60.2124 864.00
60.5166 1027.00
60.8209 3471.00
61.1252 2667.00
61.4294 974.00
61.7337 1276.00
62.0379 1147.00
62.3422 1595.00
62.6465 1139.00
62.9507 858.00
63.255 810.00
63.5592 881.00
63.8635 1740.00
64.1678 1066.00
64.472 859.00
64.7763 809.00
65.0806 837.00
65.3848 1304.00
65.6891 907.00
65.9933 1104.00
66.2976 1203.00
66.6019 1239.00
66.9061 1030.00
67.2104 856.00
67.5146 838.00
67.8189 931.00
68.1232 1297.00
68.4274 1488.00
68.7317 895.00
69.0359 843.00
69.3402 861.00
69.6445 1088.00
69.9487 886.00
70.253 784.00
70.5572 832.00
70.8615 830.00
71.1658 763.00
71.47 834.00
71.7743 787.00
72.0785 842.00
72.3828 892.00
72.6871 931.00
72.9913 778.00
73.2956 872.00
73.5998 835.00
73.9041 1262.00
74.2084 843.00
74.5126 837.00
74.8169 871.00
75.1211 1191.00
75.4254 1434.00
75.7297 944.00
76.0339 869.00
76.3382 872.00
76.6424 1527.00
76.9467 950.00
77.251 826.00
77.5552 784.00
77.8595 955.00
78.1637 983.00
78.468 842.00
78.7723 772.00
79.0765 856.00
79.3808 1197.00
79.685 838.00
79.9893 879.00
80.2936 834.00
80.5978 1014.00
80.9021 964.00
81.2063 851.00
81.5106 858.00
81.8149 951.00
82.1191 1078.00
82.4234 973.00
82.7277 951.00
83.0319 999.00
83.3362 2181.00
83.6404 1553.00
83.9447 998.00
84.249 854.00
84.5532 823.00
84.8575 816.00
85.1617 741.00
85.466 876.00
85.7703 945.00
86.0745 1589.00
86.3788 1044.00
86.683 914.00
86.9873 865.00
87.2916 924.00
87.5958 909.00
87.9001 812.00
88.2043 873.00
88.5086 878.00
88.8129 870.00
89.1171 810.00
89.4214 839.00
89.7256 965.00
90.0299 1375.00
90.3342 1078.00
90.6384 895.00
90.9427 850.00
91.2469 834.00
91.5512 875.00
91.8555 894.00
92.1597 905.00
92.464 907.00
92.7682 1039.00
93.0725 948.00
93.3768 861.00
93.681 827.00
93.9853 841.00
94.2895 832.00
94.5938 852.00
94.8981 818.00
95.2023 978.00
95.5066 1030.00
95.8108 907.00
96.1151 875.00
96.4194 982.00
96.7236 1378.00
97.0279 1148.00
97.3321 845.00
97.6364 887.00
97.9407 1237.00
98.2449 1073.00
98.5492 921.00
98.8534 931.00
99.1577 934.00
99.462 969.00
99.7662 939.00
99.9944 889.00