File: data/xrd_creation/results/PG_1849-1.xy
9.903433 2527.00
10.2077 2317.00
10.512 2246.00
10.8162 2141.00
11.1205 2234.00
11.4247 2056.00
11.729 1915.00
12.0333 1864.00
12.3375 1848.00
12.6418 1673.00
12.946 1652.00
13.2503 1774.00
13.5546 2274.00
13.8588 1608.00
14.1631 1532.00
14.4673 1509.00
14.7716 1950.00
15.0759 1820.00
15.3801 1447.00
15.6844 1350.00
15.9886 1434.00
16.2929 1354.00
16.5972 1344.00
16.9014 1328.00
17.2057 1240.00
17.5099 1315.00
17.8142 1237.00
18.1185 1246.00
18.4227 1289.00
18.727 1589.00
19.0312 1985.00
19.3355 1171.00
19.6398 1557.00
19.944 2734.00
20.2483 1153.00
20.5525 1081.00
20.8568 1625.00
21.1611 5012.00
21.4653 1230.00
21.7696 2328.00
22.0738 6214.00
22.3781 8476.00
22.6824 1248.00
22.9866 1869.00
23.2909 1907.00
23.5951 1251.00
23.8994 2795.00
24.2037 4001.00
24.5079 1538.00
24.8122 3442.00
25.1164 1254.00
25.4207 1006.00
25.725 1486.00
26.0292 1031.00
26.3335 1221.00
26.6378 6602.00
26.942 2806.00
27.2463 1052.00
27.5505 1505.00
27.8548 853.00
28.1591 767.00
28.4633 767.00
28.7676 963.00
29.0718 2551.00
29.3761 1455.00
29.6804 1023.00
29.9846 1533.00
30.2889 1723.00
30.5931 1226.00
30.8974 7487.00
31.2017 884.00
31.5059 734.00
31.8102 811.00
32.1144 746.00
32.4187 1121.00
32.723 3035.00
33.0272 4126.00
33.3315 976.00
33.6357 1208.00
33.94 1614.00
34.2443 1464.00
34.5485 1718.00
34.8528 1308.00
35.157 1046.00
35.4613 789.00
35.7656 2930.00
36.0698 1570.00
36.3741 1711.00
36.6783 917.00
36.9826 627.00
37.2869 629.00
37.5911 596.00
37.8954 765.00
38.1996 647.00
38.5039 1050.00
38.8082 1496.00
39.1124 708.00
39.4167 3303.00
39.7209 1186.00
40.0252 2126.00
40.3295 712.00
40.6337 1020.00
40.938 795.00
41.2422 653.00
41.5465 612.00
41.8508 672.00
42.155 1141.00
42.4593 601.00
42.7635 575.00
43.0678 1170.00
43.3721 1238.00
43.6763 1129.00
43.9806 799.00
44.2849 732.00
44.5891 1083.00
44.8934 789.00
45.1976 1289.00
45.5019 839.00
45.8062 727.00
46.1104 1512.00
46.4147 898.00
46.7189 1293.00
47.0232 673.00
47.3275 938.00
47.6317 889.00
47.936 548.00
48.2402 716.00
48.5445 1491.00
48.8488 821.00
49.153 724.00
49.4573 698.00
49.7615 890.00
50.0658 814.00
50.3701 1551.00
50.6743 2042.00
50.9786 2771.00
51.2828 4560.00
51.5871 828.00
51.8914 972.00
52.1956 1193.00
52.4999 683.00
52.8041 829.00
53.1084 783.00
53.4127 914.00
53.7169 1001.00
54.0212 854.00
54.3254 1235.00
54.6297 1166.00
54.934 955.00
55.2382 1562.00
55.5425 1193.00
55.8467 896.00
56.151 1141.00
56.4553 1380.00
56.7595 923.00
57.0638 1111.00
57.368 707.00
57.6723 807.00
57.9766 914.00
58.2808 884.00
58.5851 740.00
58.8893 897.00
59.1936 752.00
59.4979 1033.00
59.8021 1128.00
60.1064 1129.00
60.4106 1019.00
60.7149 849.00
61.0192 1548.00
61.3234 855.00
61.6277 916.00
61.932 849.00
62.2362 1235.00
62.5405 1075.00
62.8447 999.00
63.149 1561.00
63.4533 697.00
63.7575 729.00
64.0618 841.00
64.366 574.00
64.6703 513.00
64.9745 715.00
65.2788 770.00
65.5831 994.00
65.8873 899.00
66.1916 1035.00
66.4959 830.00
66.8001 762.00
67.1044 834.00
67.4086 564.00
67.7129 579.00
68.0172 616.00
68.3214 924.00
68.6257 580.00
68.9299 548.00
69.2342 620.00
69.5385 698.00
69.8427 786.00
70.147 885.00
70.4512 839.00
70.7555 726.00
71.0598 581.00
71.364 501.00
71.6683 581.00
71.9725 684.00
72.2768 547.00
72.5811 531.00
72.8853 546.00
73.1896 534.00
73.4938 561.00
73.7981 608.00
74.1024 544.00
74.4066 420.00
74.7109 540.00
75.0151 527.00
75.3194 715.00
75.6237 493.00
75.9279 655.00
76.2322 604.00
76.5364 757.00
76.8407 802.00
77.145 786.00
77.4492 716.00
77.7535 587.00
78.0577 639.00
78.362 637.00
78.6663 722.00
78.9705 887.00
79.2748 710.00
79.579 810.00
79.8833 848.00
80.1876 611.00
80.4918 641.00
80.7961 724.00
81.1003 647.00
81.4046 594.00
81.7089 563.00
82.0131 786.00
82.3174 775.00
82.6217 652.00
82.9259 786.00
83.2302 795.00
83.5344 781.00
83.8387 622.00
84.143 630.00
84.4472 637.00
84.7515 571.00
85.0557 653.00
85.36 682.00
85.6643 609.00
85.9685 759.00
86.2728 773.00
86.577 673.00
86.8813 610.00
87.1856 524.00
87.4898 597.00
87.7941 696.00
88.0983 701.00
88.4026 520.00
88.7069 573.00
89.0111 606.00
89.3154 724.00
89.6196 629.00
89.9239 630.00
90.2282 658.00
90.5324 579.00
90.8367 561.00
91.1409 579.00
91.4452 538.00
91.7495 516.00
92.0537 532.00
92.358 521.00
92.6622 589.00
92.9665 468.00
93.2708 454.00
93.575 505.00
93.8793 498.00
94.1835 509.00
94.4878 535.00
94.7921 548.00
95.0963 522.00
95.4006 535.00
95.7048 493.00
96.0091 557.00
96.3134 555.00
96.6176 684.00
96.9219 531.00
97.2261 481.00
97.5304 474.00
97.8347 547.00
98.1389 503.00
98.4432 450.00
98.7474 427.00
99.0517 455.00
99.356 606.00
99.6602 487.00
99.9645 435.00
100.095 413.00