File: data/xrd_creation/results/PG_1421-1.xy
10.0094 3028.00
10.3137 2914.00
10.618 2871.00
10.9222 2832.00
11.2265 2692.00
11.5307 2698.00
11.835 2585.00
12.1393 2547.00
12.4435 2604.00
12.7478 2454.00
13.052 2517.00
13.3563 2381.00
13.6606 2468.00
13.9648 2375.00
14.2691 2306.00
14.5733 2350.00
14.8776 2361.00
15.1819 2387.00
15.4861 2854.00
15.7904 6021.00
16.0946 4655.00
16.3989 2506.00
16.7032 2354.00
17.0074 2275.00
17.3117 2235.00
17.6159 2291.00
17.9202 2269.00
18.2245 2269.00
18.5287 2268.00
18.833 2330.00
19.1372 2175.00
19.4415 2089.00
19.7458 2056.00
20.05 2015.00
20.3543 2017.00
20.6585 1956.00
20.9628 2062.00
21.2671 1958.00
21.5713 2009.00
21.8756 1996.00
22.1798 1930.00
22.4841 1914.00
22.7884 2005.00
23.0926 1989.00
23.3969 2004.00
23.7011 2033.00
24.0054 2234.00
24.3097 2336.00
24.6139 2228.00
24.9182 2062.00
25.2224 1982.00
25.5267 1873.00
25.831 1793.00
26.1352 1802.00
26.4395 1822.00
26.7438 1919.00
27.048 1983.00
27.3523 3370.00
27.6565 6106.00
27.9608 3096.00
28.2651 9672.00
28.5693 2697.00
28.8736 1890.00
29.1778 1825.00
29.4821 1700.00
29.7864 1772.00
30.0906 1758.00
30.3949 1713.00
30.6991 1599.00
31.0034 1662.00
31.3077 1723.00
31.6119 1836.00
31.9162 3005.00
32.2204 1786.00
32.5247 1560.00
32.829 1603.00
33.1332 1607.00
33.4375 1664.00
33.7417 1571.00
34.046 1548.00
34.3503 1614.00
34.6545 1519.00
34.9588 1511.00
35.263 1491.00
35.5673 1537.00
35.8716 1620.00
36.1758 1794.00
36.4801 1774.00
36.7843 1507.00
37.0886 1541.00
37.3929 1479.00
37.6971 1505.00
38.0014 1466.00
38.3056 1520.00
38.6099 1608.00
38.9142 1556.00
39.2184 1685.00
39.5227 2792.00
39.8269 6116.00
40.1312 2053.00
40.4355 1574.00
40.7397 1432.00
41.044 1473.00
41.3482 1386.00
41.6525 1481.00
41.9568 1504.00
42.261 1630.00
42.5653 2132.00
42.8695 1543.00
43.1738 1417.00
43.4781 1414.00
43.7823 1397.00
44.0866 1340.00
44.3909 1406.00
44.6951 1376.00
44.9994 1304.00
45.3036 1310.00
45.6079 1342.00
45.9122 1344.00
46.2164 1324.00
46.5207 1433.00
46.8249 1351.00
47.1292 1614.00
47.4335 2125.00
47.7377 1551.00
48.042 1603.00
48.3462 2433.00
48.6505 3321.00
48.9548 5186.00
49.259 2178.00
49.5633 1676.00
49.8675 1535.00
50.1718 1898.00
50.4761 1589.00
50.7803 1383.00
51.0846 1392.00
51.3888 1325.00
51.6931 1333.00
51.9974 1319.00
52.3016 1322.00
52.6059 1330.00
52.9101 1271.00
53.2144 1314.00
53.5187 1268.00
53.8229 1307.00
54.1272 1272.00
54.4314 1311.00
54.7357 1322.00
55.04 1384.00
55.3442 1785.00
55.6485 2328.00
55.9527 1512.00
56.257 1518.00
56.5613 1732.00
56.8655 1469.00
57.1698 1271.00
57.474 1233.00
57.7783 1422.00
58.0826 1570.00
58.3868 1382.00
58.6911 1373.00
58.9953 1507.00
59.2996 1434.00
59.6039 1282.00
59.9081 1244.00
60.2124 1238.00
60.5166 1245.00
60.8209 1253.00
61.1252 1248.00
61.4294 1306.00
61.7337 1230.00
62.0379 1203.00
62.3422 1322.00
62.6465 1279.00
62.9507 1275.00
63.255 1278.00
63.5592 1297.00
63.8635 1472.00
64.1678 1891.00
64.472 1886.00
64.7763 1454.00
65.0806 1343.00
65.3848 1598.00
65.6891 1338.00
65.9933 1299.00
66.2976 1347.00
66.6019 1291.00
66.9061 1255.00
67.2104 1272.00
67.5146 1137.00
67.8189 1248.00
68.1232 1197.00
68.4274 1245.00
68.7317 1263.00
69.0359 1258.00
69.3402 1270.00
69.6445 1420.00
69.9487 1935.00
70.253 1549.00
70.5572 1302.00
70.8615 1301.00
71.1658 1448.00
71.47 1331.00
71.7743 1212.00
72.0785 1147.00
72.3828 1228.00
72.6871 1217.00
72.9913 1319.00
73.2956 1307.00
73.5998 1213.00
73.9041 1115.00
74.2084 1224.00
74.5126 1236.00
74.8169 1210.00
75.1211 1264.00
75.4254 1245.00
75.7297 1307.00
76.0339 1494.00
76.3382 1512.00
76.6424 1623.00
76.9467 1504.00
77.251 1641.00
77.5552 1890.00
77.8595 1916.00
78.1637 1504.00
78.468 1389.00
78.7723 1345.00
79.0765 1262.00
79.3808 1346.00
79.685 1279.00
79.9893 1176.00
80.2936 1206.00
80.5978 1229.00
80.9021 1188.00
81.2063 1220.00
81.5106 1191.00
81.8149 1170.00
82.1191 1210.00
82.4234 1359.00
82.7277 1384.00
83.0319 1259.00
83.3362 1235.00
83.6404 1212.00
83.9447 1157.00
84.249 1176.00
84.5532 1249.00
84.8575 1226.00
85.1617 1322.00
85.466 1247.00
85.7703 1227.00
86.0745 1154.00
86.3788 1201.00
86.683 1215.00
86.9873 1145.00
87.2916 1132.00
87.5958 1164.00
87.9001 1134.00
88.2043 1174.00
88.5086 1242.00
88.8129 1478.00
89.1171 1535.00
89.4214 1325.00
89.7256 1251.00
90.0299 1298.00
90.3342 1350.00
90.6384 1352.00
90.9427 1336.00
91.2469 1262.00
91.5512 1312.00
91.8555 1290.00
92.1597 1235.00
92.464 1245.00
92.7682 1174.00
93.0725 1196.00
93.3768 1133.00
93.681 1204.00
93.9853 1212.00
94.2895 1137.00
94.5938 1163.00
94.8981 1175.00
95.2023 1218.00
95.5066 1378.00
95.8108 1537.00
96.1151 1485.00
96.4194 1335.00
96.7236 1412.00
97.0279 1454.00
97.3321 1344.00
97.6364 1219.00
97.9407 1192.00
98.2449 1203.00
98.5492 1254.00
98.8534 1186.00
99.1577 1226.00
99.462 1184.00
99.7662 1161.00
99.9944 1248.00