File: data/xrd_creation/results/PG_1941-1.xy
9.903433 2850.00
10.2077 2698.00
10.512 2622.00
10.8162 2648.00
11.1205 2437.00
11.4247 2394.00
11.729 2229.00
12.0333 2200.00
12.3375 2288.00
12.6418 2235.00
12.946 2371.00
13.2503 2199.00
13.5546 2080.00
13.8588 2980.00
14.1631 3941.00
14.4673 1975.00
14.7716 1909.00
15.0759 1808.00
15.3801 1883.00
15.6844 1829.00
15.9886 1717.00
16.2929 1650.00
16.5972 1609.00
16.9014 1642.00
17.2057 1566.00
17.5099 1541.00
17.8142 1454.00
18.1185 1397.00
18.4227 1474.00
18.727 1416.00
19.0312 1390.00
19.3355 1355.00
19.6398 1445.00
19.944 1285.00
20.2483 1321.00
20.5525 1274.00
20.8568 1240.00
21.1611 1189.00
21.4653 1145.00
21.7696 1216.00
22.0738 1113.00
22.3781 1124.00
22.6824 1090.00
22.9866 1144.00
23.2909 1084.00
23.5951 1059.00
23.8994 1079.00
24.2037 1056.00
24.5079 1104.00
24.8122 1003.00
25.1164 1006.00
25.4207 1041.00
25.725 1157.00
26.0292 1378.00
26.3335 979.00
26.6378 984.00
26.942 1090.00
27.2463 1339.00
27.5505 1579.00
27.8548 7202.00
28.1591 8518.00
28.4633 1477.00
28.7676 1999.00
29.0718 1014.00
29.3761 1007.00
29.6804 949.00
29.9846 1674.00
30.2889 1000.00
30.5931 944.00
30.8974 912.00
31.2017 937.00
31.5059 1013.00
31.8102 1026.00
32.1144 1413.00
32.4187 15035.00
32.723 2390.00
33.0272 2145.00
33.3315 947.00
33.6357 788.00
33.94 746.00
34.2443 857.00
34.5485 781.00
34.8528 767.00
35.157 989.00
35.4613 2581.00
35.7656 720.00
36.0698 661.00
36.3741 684.00
36.6783 698.00
36.9826 666.00
37.2869 592.00
37.5911 643.00
37.8954 608.00
38.1996 595.00
38.5039 653.00
38.8082 872.00
39.1124 713.00
39.4167 941.00
39.7209 720.00
40.0252 1089.00
40.3295 685.00
40.6337 639.00
40.938 615.00
41.2422 603.00
41.5465 804.00
41.8508 703.00
42.155 711.00
42.4593 1083.00
42.7635 621.00
43.0678 517.00
43.3721 572.00
43.6763 521.00
43.9806 505.00
44.2849 546.00
44.5891 640.00
44.8934 543.00
45.1976 530.00
45.5019 641.00
45.8062 755.00
46.1104 1531.00
46.4147 7767.00
46.7189 851.00
47.0232 591.00
47.3275 684.00
47.6317 487.00
47.936 453.00
48.2402 569.00
48.5445 1058.00
48.8488 607.00
49.153 552.00
49.4573 518.00
49.7615 549.00
50.0658 467.00
50.3701 547.00
50.6743 486.00
50.9786 742.00
51.2828 489.00
51.5871 559.00
51.8914 535.00
52.1956 473.00
52.4999 498.00
52.8041 487.00
53.1084 488.00
53.4127 571.00
53.7169 546.00
54.0212 672.00
54.3254 679.00
54.6297 1579.00
54.934 6374.00
55.2382 982.00
55.5425 609.00
55.8467 545.00
56.151 517.00
56.4553 473.00
56.7595 496.00
57.0638 565.00
57.368 1277.00
57.6723 1785.00
57.9766 604.00
58.2808 493.00
58.5851 438.00
58.8893 436.00
59.1936 665.00
59.4979 1347.00
59.8021 495.00
60.1064 447.00
60.4106 409.00
60.7149 461.00
61.0192 461.00
61.3234 436.00
61.6277 400.00
61.932 379.00
62.2362 379.00
62.5405 420.00
62.8447 389.00
63.149 358.00
63.4533 392.00
63.7575 352.00
64.0618 433.00
64.366 1406.00
64.6703 553.00
64.9745 393.00
65.2788 368.00
65.5831 389.00
65.8873 355.00
66.1916 421.00
66.4959 342.00
66.8001 390.00
67.1044 520.00
67.4086 1447.00
67.7129 539.00
68.0172 413.00
68.3214 371.00
68.6257 431.00
68.9299 467.00
69.2342 866.00
69.5385 450.00
69.8427 419.00
70.147 371.00
70.4512 380.00
70.7555 384.00
71.0598 344.00
71.364 378.00
71.6683 371.00
71.9725 512.00
72.2768 415.00
72.5811 338.00
72.8853 323.00
73.1896 399.00
73.4938 408.00
73.7981 610.00
74.1024 713.00
74.4066 1779.00
74.7109 644.00
75.0151 435.00
75.3194 404.00
75.6237 398.00
75.9279 403.00
76.2322 526.00
76.5364 2333.00
76.8407 1344.00
77.145 476.00
77.4492 369.00
77.7535 398.00
78.0577 391.00
78.362 533.00
78.6663 402.00
78.9705 350.00
79.2748 304.00
79.579 383.00
79.8833 319.00
80.1876 340.00
80.4918 328.00
80.7961 358.00
81.1003 332.00
81.4046 350.00
81.7089 390.00
82.0131 367.00
82.3174 357.00
82.6217 543.00
82.9259 506.00
83.2302 361.00
83.5344 333.00
83.8387 299.00
84.143 345.00
84.4472 376.00
84.7515 357.00
85.0557 442.00
85.36 1093.00
85.6643 1098.00
85.9685 374.00
86.2728 303.00
86.577 333.00
86.8813 401.00
87.1856 429.00
87.4898 392.00
87.7941 311.00
88.0983 309.00
88.4026 311.00
88.7069 339.00
89.0111 326.00
89.3154 283.00
89.6196 296.00
89.9239 332.00
90.2282 340.00
90.5324 295.00
90.8367 364.00
91.1409 478.00
91.4452 1396.00
91.7495 1038.00
92.0537 1139.00
92.358 736.00
92.6622 348.00
92.9665 316.00
93.2708 329.00
93.575 266.00
93.8793 298.00
94.1835 319.00
94.4878 323.00
94.7921 289.00
95.0963 326.00
95.4006 333.00
95.7048 433.00
96.0091 424.00
96.3134 375.00
96.6176 299.00
96.9219 290.00
97.2261 268.00
97.5304 279.00
97.8347 281.00
98.1389 286.00
98.4432 312.00
98.7474 296.00
99.0517 282.00
99.356 318.00
99.6602 332.00
99.9645 342.00
100.095 363.00