File: data/xrd_creation/results/PG_1322-1.xy
10.0094 5416.00
10.3137 5517.00
10.618 5369.00
10.9222 5424.00
11.2265 5664.00
11.5307 5624.00
11.835 5669.00
12.1393 5556.00
12.4435 5540.00
12.7478 5545.00
13.052 5658.00
13.3563 5722.00
13.6606 5659.00
13.9648 5641.00
14.2691 5721.00
14.5733 5677.00
14.8776 5737.00
15.1819 5824.00
15.4861 5796.00
15.7904 5814.00
16.0946 5736.00
16.3989 5787.00
16.7032 5879.00
17.0074 5927.00
17.3117 5786.00
17.6159 5800.00
17.9202 5841.00
18.2245 5906.00
18.5287 5831.00
18.833 5800.00
19.1372 5958.00
19.4415 5814.00
19.7458 5985.00
20.05 5891.00
20.3543 5978.00
20.6585 5908.00
20.9628 5871.00
21.2671 6055.00
21.5713 6306.00
21.8756 6054.00
22.1798 5989.00
22.4841 6024.00
22.7884 6127.00
23.0926 6027.00
23.3969 5903.00
23.7011 6107.00
24.0054 6104.00
24.3097 6565.00
24.6139 6560.00
24.9182 6118.00
25.2224 5964.00
25.5267 6094.00
25.831 6108.00
26.1352 6059.00
26.4395 6018.00
26.7438 5963.00
27.048 5950.00
27.3523 5976.00
27.6565 6077.00
27.9608 6078.00
28.2651 6041.00
28.5693 6009.00
28.8736 6048.00
29.1778 6151.00
29.4821 6032.00
29.7864 6189.00
30.0906 6075.00
30.3949 6124.00
30.6991 6078.00
31.0034 6802.00
31.3077 5978.00
31.6119 6105.00
31.9162 6328.00
32.2204 7361.00
32.5247 6132.00
32.829 6028.00
33.1332 6309.00
33.4375 12357.00
33.7417 6576.00
34.046 6314.00
34.3503 6371.00
34.6545 6060.00
34.9588 5991.00
35.263 6085.00
35.5673 6215.00
35.8716 8581.00
36.1758 6574.00
36.4801 6884.00
36.7843 5971.00
37.0886 6286.00
37.3929 6427.00
37.6971 6244.00
38.0014 6098.00
38.3056 6138.00
38.6099 6022.00
38.9142 6015.00
39.2184 6118.00
39.5227 6144.00
39.8269 6305.00
40.1312 6133.00
40.4355 6200.00
40.7397 6230.00
41.044 6488.00
41.3482 6610.00
41.6525 5974.00
41.9568 6116.00
42.261 6100.00
42.5653 6010.00
42.8695 6211.00
43.1738 6157.00
43.4781 6040.00
43.7823 6313.00
44.0866 6120.00
44.3909 6037.00
44.6951 6110.00
44.9994 5985.00
45.3036 6001.00
45.6079 6228.00
45.9122 6076.00
46.2164 6026.00
46.5207 6082.00
46.8249 6052.00
47.1292 6038.00
47.4335 5975.00
47.7377 6039.00
48.042 6034.00
48.3462 6129.00
48.6505 6130.00
48.9548 6156.00
49.259 6214.00
49.5633 6337.00
49.8675 7955.00
50.1718 6388.00
50.4761 6079.00
50.7803 6174.00
51.0846 6081.00
51.3888 6035.00
51.6931 6207.00
51.9974 6091.00
52.3016 6098.00
52.6059 6155.00
52.9101 6160.00
53.2144 6043.00
53.5187 6065.00
53.8229 6253.00
54.1272 6407.00
54.4314 8610.00
54.7357 6333.00
55.04 6257.00
55.3442 6060.00
55.6485 6057.00
55.9527 6176.00
56.257 6121.00
56.5613 6105.00
56.8655 6053.00
57.1698 6175.00
57.474 6117.00
57.7783 6476.00
58.0826 6489.00
58.3868 6118.00
58.6911 6165.00
58.9953 6222.00
59.2996 6228.00
59.6039 6066.00
59.9081 6215.00
60.2124 6233.00
60.5166 6091.00
60.8209 6181.00
61.1252 6005.00
61.4294 6104.00
61.7337 6054.00
62.0379 6031.00
62.3422 6038.00
62.6465 7241.00
62.9507 7108.00
63.255 6246.00
63.5592 6161.00
63.8635 6335.00
64.1678 6543.00
64.472 7778.00
64.7763 6245.00
65.0806 6085.00
65.3848 6190.00
65.6891 6169.00
65.9933 6168.00
66.2976 6130.00
66.6019 6214.00
66.9061 6237.00
67.2104 6135.00
67.5146 6037.00
67.8189 6274.00
68.1232 6170.00
68.4274 6144.00
68.7317 6316.00
69.0359 6131.00
69.3402 6326.00
69.6445 6184.00
69.9487 6140.00
70.253 6222.00
70.5572 6218.00
70.8615 6164.00
71.1658 6142.00
71.47 6076.00
71.7743 6344.00
72.0785 6563.00
72.3828 6601.00
72.6871 6211.00
72.9913 6136.00
73.2956 6185.00
73.5998 6123.00
73.9041 6252.00
74.2084 6129.00
74.5126 6165.00
74.8169 6255.00
75.1211 6124.00
75.4254 6137.00
75.7297 6717.00
76.0339 6200.00
76.3382 6274.00
76.6424 6122.00
76.9467 6226.00
77.251 6173.00
77.5552 6195.00
77.8595 6269.00
78.1637 6284.00
78.468 6216.00
78.7723 6206.00
79.0765 6238.00
79.3808 6339.00
79.685 6156.00
79.9893 6198.00
80.2936 6182.00
80.5978 6359.00
80.9021 6456.00
81.2063 6392.00
81.5106 6242.00
81.8149 6194.00
82.1191 6262.00
82.4234 6237.00
82.7277 6143.00
83.0319 6066.00
83.3362 6446.00
83.6404 6298.00
83.9447 6195.00
84.249 6214.00
84.5532 6173.00
84.8575 6124.00
85.1617 6844.00
85.466 6442.00
85.7703 6233.00
86.0745 6208.00
86.3788 6198.00
86.683 6112.00
86.9873 6243.00
87.2916 6127.00
87.5958 6146.00
87.9001 6202.00
88.2043 6223.00
88.5086 6279.00
88.8129 6655.00
89.1171 6397.00
89.4214 6191.00
89.7256 6092.00
90.0299 6186.00
90.3342 6167.00
90.6384 6240.00
90.9427 6319.00
91.2469 6243.00
91.5512 6171.00
91.8555 6207.00
92.1597 6201.00
92.464 6234.00
92.7682 6300.00
93.0725 6215.00
93.3768 6282.00
93.681 6289.00
93.9853 6584.00
94.2895 6460.00
94.5938 6352.00
94.8981 6264.00
95.2023 6232.00
95.5066 6221.00
95.8108 6143.00
96.1151 6213.00
96.4194 6123.00
96.7236 6290.00
97.0279 6400.00
97.3321 6251.00
97.6364 6201.00
97.9407 6326.00
98.2449 6125.00
98.5492 6305.00
98.8534 6292.00
99.1577 6208.00
99.462 6082.00
99.7662 6347.00
99.9944 6295.00