File: data/xrd_creation/results/PG_1748-1.xy
9.903433 2484.00
10.2077 2499.00
10.512 2339.00
10.8162 2289.00
11.1205 2241.00
11.4247 2180.00
11.729 2015.00
12.0333 2011.00
12.3375 1982.00
12.6418 1814.00
12.946 1882.00
13.2503 1737.00
13.5546 1728.00
13.8588 1703.00
14.1631 1777.00
14.4673 1672.00
14.7716 1640.00
15.0759 1618.00
15.3801 1668.00
15.6844 2175.00
15.9886 1602.00
16.2929 1551.00
16.5972 1559.00
16.9014 1405.00
17.2057 1433.00
17.5099 1542.00
17.8142 2082.00
18.1185 1413.00
18.4227 1342.00
18.727 1345.00
19.0312 1300.00
19.3355 1231.00
19.6398 1255.00
19.944 1350.00
20.2483 1461.00
20.5525 3188.00
20.8568 1391.00
21.1611 1194.00
21.4653 1190.00
21.7696 1277.00
22.0738 1872.00
22.3781 1165.00
22.6824 1229.00
22.9866 1201.00
23.2909 1164.00
23.5951 1102.00
23.8994 1186.00
24.2037 1485.00
24.5079 3633.00
24.8122 2313.00
25.1164 1327.00
25.4207 1130.00
25.725 1158.00
26.0292 1172.00
26.3335 1785.00
26.6378 1165.00
26.942 1009.00
27.2463 1004.00
27.5505 1093.00
27.8548 1352.00
28.1591 1790.00
28.4633 6167.00
28.7676 8602.00
29.0718 1794.00
29.3761 1270.00
29.6804 1140.00
29.9846 1125.00
30.2889 1083.00
30.5931 1112.00
30.8974 1174.00
31.2017 1920.00
31.5059 2115.00
31.8102 6094.00
32.1144 5541.00
32.4187 1520.00
32.723 1667.00
33.0272 1086.00
33.3315 1018.00
33.6357 1240.00
33.94 1024.00
34.2443 1249.00
34.5485 4487.00
34.8528 4516.00
35.157 1593.00
35.4613 1303.00
35.7656 4384.00
36.0698 1453.00
36.3741 2138.00
36.6783 944.00
36.9826 856.00
37.2869 815.00
37.5911 851.00
37.8954 785.00
38.1996 821.00
38.5039 809.00
38.8082 1022.00
39.1124 2329.00
39.4167 970.00
39.7209 820.00
40.0252 870.00
40.3295 877.00
40.6337 956.00
40.938 1117.00
41.2422 2853.00
41.5465 1804.00
41.8508 1620.00
42.155 959.00
42.4593 875.00
42.7635 734.00
43.0678 730.00
43.3721 758.00
43.6763 716.00
43.9806 736.00
44.2849 792.00
44.5891 739.00
44.8934 758.00
45.1976 1030.00
45.5019 1377.00
45.8062 1260.00
46.1104 1789.00
46.4147 819.00
46.7189 743.00
47.0232 728.00
47.3275 751.00
47.6317 1245.00
47.936 801.00
48.2402 910.00
48.5445 796.00
48.8488 832.00
49.153 1068.00
49.4573 1177.00
49.7615 3112.00
50.0658 1694.00
50.3701 1131.00
50.6743 4417.00
50.9786 2112.00
51.2828 2060.00
51.5871 1391.00
51.8914 1469.00
52.1956 944.00
52.4999 785.00
52.8041 753.00
53.1084 712.00
53.4127 724.00
53.7169 701.00
54.0212 819.00
54.3254 967.00
54.6297 2150.00
54.934 1562.00
55.2382 1050.00
55.5425 1054.00
55.8467 2342.00
56.151 3016.00
56.4553 2059.00
56.7595 1464.00
57.0638 841.00
57.368 918.00
57.6723 1444.00
57.9766 1634.00
58.2808 1121.00
58.5851 1813.00
58.8893 1652.00
59.1936 1041.00
59.4979 880.00
59.8021 821.00
60.1064 910.00
60.4106 2274.00
60.7149 2139.00
61.0192 1007.00
61.3234 1058.00
61.6277 847.00
61.932 1504.00
62.2362 1548.00
62.5405 2159.00
62.8447 1325.00
63.149 971.00
63.4533 2069.00
63.7575 1517.00
64.0618 859.00
64.366 787.00
64.6703 955.00
64.9745 1413.00
65.2788 846.00
65.5831 829.00
65.8873 990.00
66.1916 1428.00
66.4959 2051.00
66.8001 993.00
67.1044 711.00
67.4086 699.00
67.7129 647.00
68.0172 707.00
68.3214 651.00
68.6257 740.00
68.9299 748.00
69.2342 765.00
69.5385 989.00
69.8427 1014.00
70.147 791.00
70.4512 850.00
70.7555 831.00
71.0598 780.00
71.364 773.00
71.6683 1061.00
71.9725 1659.00
72.2768 979.00
72.5811 1008.00
72.8853 1133.00
73.1896 1048.00
73.4938 950.00
73.7981 749.00
74.1024 735.00
74.4066 714.00
74.7109 855.00
75.0151 758.00
75.3194 862.00
75.6237 1062.00
75.9279 1380.00
76.2322 977.00
76.5364 758.00
76.8407 764.00
77.145 1034.00
77.4492 951.00
77.7535 796.00
78.0577 982.00
78.362 965.00
78.6663 849.00
78.9705 835.00
79.2748 798.00
79.579 989.00
79.8833 994.00
80.1876 744.00
80.4918 691.00
80.7961 653.00
81.1003 749.00
81.4046 796.00
81.7089 779.00
82.0131 850.00
82.3174 1132.00
82.6217 913.00
82.9259 833.00
83.2302 973.00
83.5344 1062.00
83.8387 1142.00
84.143 1215.00
84.4472 969.00
84.7515 1178.00
85.0557 1129.00
85.36 889.00
85.6643 1046.00
85.9685 881.00
86.2728 746.00
86.577 717.00
86.8813 982.00
87.1856 806.00
87.4898 743.00
87.7941 772.00
88.0983 867.00
88.4026 1047.00
88.7069 900.00
89.0111 1157.00
89.3154 1285.00
89.6196 1037.00
89.9239 889.00
90.2282 997.00
90.5324 1102.00
90.8367 1124.00
91.1409 877.00
91.4452 824.00
91.7495 788.00
92.0537 822.00
92.358 797.00
92.6622 739.00
92.9665 706.00
93.2708 718.00
93.575 712.00
93.8793 833.00
94.1835 704.00
94.4878 808.00
94.7921 873.00
95.0963 819.00
95.4006 804.00
95.7048 905.00
96.0091 1155.00
96.3134 998.00
96.6176 829.00
96.9219 1027.00
97.2261 1019.00
97.5304 1288.00
97.8347 1305.00
98.1389 919.00
98.4432 864.00
98.7474 920.00
99.0517 1025.00
99.356 976.00
99.6602 1102.00
99.9645 1067.00
100.095 1132.00