File: data/xrd_creation/results/PG_1117-1.xy
10.0094 2350.00
10.3137 2256.00
10.618 2170.00
10.9222 2119.00
11.2265 2035.00
11.5307 1952.00
11.835 1893.00
12.1393 1799.00
12.4435 1715.00
12.7478 1654.00
13.052 1646.00
13.3563 1591.00
13.6606 1601.00
13.9648 1514.00
14.2691 1556.00
14.5733 1476.00
14.8776 1435.00
15.1819 1398.00
15.4861 1329.00
15.7904 1378.00
16.0946 1322.00
16.3989 1365.00
16.7032 1338.00
17.0074 1373.00
17.3117 1294.00
17.6159 1470.00
17.9202 1448.00
18.2245 1243.00
18.5287 1242.00
18.833 1220.00
19.1372 1168.00
19.4415 1208.00
19.7458 1164.00
20.05 1170.00
20.3543 1113.00
20.6585 1136.00
20.9628 1132.00
21.2671 1080.00
21.5713 1124.00
21.8756 1063.00
22.1798 1053.00
22.4841 1135.00
22.7884 1017.00
23.0926 1092.00
23.3969 1020.00
23.7011 1105.00
24.0054 1040.00
24.3097 1712.00
24.6139 1689.00
24.9182 2283.00
25.2224 1030.00
25.5267 1025.00
25.831 1004.00
26.1352 954.00
26.4395 951.00
26.7438 958.00
27.048 959.00
27.3523 987.00
27.6565 1096.00
27.9608 1195.00
28.2651 1812.00
28.5693 11177.00
28.8736 2373.00
29.1778 1193.00
29.4821 1099.00
29.7864 1016.00
30.0906 996.00
30.3949 1001.00
30.6991 956.00
31.0034 1103.00
31.3077 1194.00
31.6119 1810.00
31.9162 10060.00
32.2204 1902.00
32.5247 1069.00
32.829 1164.00
33.1332 1015.00
33.4375 927.00
33.7417 915.00
34.046 974.00
34.3503 1327.00
34.6545 4184.00
34.9588 3360.00
35.263 1144.00
35.5673 1837.00
35.8716 5238.00
36.1758 1291.00
36.4801 1288.00
36.7843 895.00
37.0886 896.00
37.3929 829.00
37.6971 887.00
38.0014 885.00
38.3056 898.00
38.6099 1023.00
38.9142 3287.00
39.2184 2253.00
39.5227 941.00
39.8269 860.00
40.1312 858.00
40.4355 956.00
40.7397 892.00
41.044 1283.00
41.3482 2090.00
41.6525 1509.00
41.9568 1366.00
42.261 891.00
42.5653 810.00
42.8695 781.00
43.1738 798.00
43.4781 760.00
43.7823 827.00
44.0866 797.00
44.3909 787.00
44.6951 801.00
44.9994 869.00
45.3036 1367.00
45.6079 987.00
45.9122 1307.00
46.2164 1195.00
46.5207 925.00
46.8249 776.00
47.1292 811.00
47.4335 778.00
47.7377 808.00
48.042 736.00
48.3462 833.00
48.6505 833.00
48.9548 1386.00
49.259 1197.00
49.5633 1342.00
49.8675 3255.00
50.1718 1122.00
50.4761 1388.00
50.7803 3549.00
51.0846 2521.00
51.3888 1223.00
51.6931 1368.00
51.9974 1101.00
52.3016 877.00
52.6059 880.00
52.9101 791.00
53.2144 823.00
53.5187 919.00
53.8229 1019.00
54.1272 896.00
54.4314 1202.00
54.7357 2403.00
55.04 1045.00
55.3442 1109.00
55.6485 1160.00
55.9527 3098.00
56.257 1871.00
56.5613 2154.00
56.8655 1054.00
57.1698 968.00
57.474 1055.00
57.7783 1976.00
58.0826 1174.00
58.3868 1671.00
58.6911 1629.00
58.9953 1360.00
59.2996 923.00
59.6039 864.00
59.9081 981.00
60.2124 1237.00
60.5166 2361.00
60.8209 1503.00
61.1252 936.00
61.4294 920.00
61.7337 1564.00
62.0379 2004.00
62.3422 1413.00
62.6465 1811.00
62.9507 1094.00
63.255 1196.00
63.5592 2136.00
63.8635 1108.00
64.1678 959.00
64.472 895.00
64.7763 1290.00
65.0806 1170.00
65.3848 909.00
65.6891 1047.00
65.9933 1583.00
66.2976 2198.00
66.6019 2033.00
66.9061 977.00
67.2104 913.00
67.5146 860.00
67.8189 859.00
68.1232 1153.00
68.4274 1128.00
68.7317 945.00
69.0359 875.00
69.3402 960.00
69.6445 1236.00
69.9487 921.00
70.253 955.00
70.5572 961.00
70.8615 899.00
71.1658 908.00
71.47 1046.00
71.7743 1599.00
72.0785 1429.00
72.3828 995.00
72.6871 1231.00
72.9913 1113.00
73.2956 1217.00
73.5998 1001.00
73.9041 874.00
74.2084 928.00
74.5126 830.00
74.8169 834.00
75.1211 1092.00
75.4254 1493.00
75.7297 1535.00
76.0339 1366.00
76.3382 936.00
76.6424 880.00
76.9467 962.00
77.251 1190.00
77.5552 991.00
77.8595 969.00
78.1637 1138.00
78.468 1037.00
78.7723 1078.00
79.0765 1064.00
79.3808 1034.00
79.685 1356.00
79.9893 1021.00
80.2936 890.00
80.5978 896.00
80.9021 893.00
81.2063 1003.00
81.5106 962.00
81.8149 990.00
82.1191 1066.00
82.4234 1250.00
82.7277 1123.00
83.0319 1139.00
83.3362 1373.00
83.6404 1247.00
83.9447 1445.00
84.249 1207.00
84.5532 1203.00
84.8575 1335.00
85.1617 1141.00
85.466 1032.00
85.7703 1139.00
86.0745 1007.00
86.3788 925.00
86.683 1038.00
86.9873 1204.00
87.2916 981.00
87.5958 937.00
87.9001 988.00
88.2043 1235.00
88.5086 1191.00
88.8129 1144.00
89.1171 1292.00
89.4214 1484.00
89.7256 1241.00
90.0299 1204.00
90.3342 1201.00
90.6384 1427.00
90.9427 1223.00
91.2469 1004.00
91.5512 985.00
91.8555 1039.00
92.1597 1158.00
92.464 1012.00
92.7682 1021.00
93.0725 897.00
93.3768 893.00
93.681 969.00
93.9853 981.00
94.2895 1009.00
94.5938 1196.00
94.8981 1153.00
95.2023 1040.00
95.5066 1096.00
95.8108 1253.00
96.1151 1313.00
96.4194 1151.00
96.7236 1119.00
97.0279 1394.00
97.3321 1488.00
97.6364 1466.00
97.9407 1476.00
98.2449 1272.00
98.5492 1130.00
98.8534 1318.00
99.1577 1272.00
99.462 1298.00
99.7662 1374.00
99.9944 1403.00