File: data/xrd_creation/results/PG_1417-1.xy
10.0094 2538.00
10.3137 2469.00
10.618 2357.00
10.9222 2355.00
11.2265 2316.00
11.5307 2272.00
11.835 2083.00
12.1393 2079.00
12.4435 2110.00
12.7478 1957.00
13.052 1999.00
13.3563 1942.00
13.6606 1825.00
13.9648 1840.00
14.2691 1806.00
14.5733 1774.00
14.8776 1745.00
15.1819 1736.00
15.4861 1759.00
15.7904 1757.00
16.0946 1691.00
16.3989 1746.00
16.7032 1711.00
17.0074 1681.00
17.3117 1669.00
17.6159 1675.00
17.9202 2044.00
18.2245 1742.00
18.5287 1923.00
18.833 3067.00
19.1372 2216.00
19.4415 1804.00
19.7458 1554.00
20.05 1482.00
20.3543 1482.00
20.6585 1520.00
20.9628 1473.00
21.2671 1376.00
21.5713 1493.00
21.8756 1467.00
22.1798 1409.00
22.4841 1359.00
22.7884 1471.00
23.0926 1536.00
23.3969 1606.00
23.7011 1507.00
24.0054 1507.00
24.3097 1663.00
24.6139 2542.00
24.9182 2348.00
25.2224 1658.00
25.5267 1428.00
25.831 1402.00
26.1352 1384.00
26.4395 1295.00
26.7438 1338.00
27.048 1358.00
27.3523 1354.00
27.6565 1370.00
27.9608 1557.00
28.2651 2190.00
28.5693 4670.00
28.8736 3728.00
29.1778 1636.00
29.4821 1493.00
29.7864 1462.00
30.0906 1950.00
30.3949 1394.00
30.6991 1365.00
31.0034 1331.00
31.3077 1428.00
31.6119 2011.00
31.9162 4336.00
32.2204 2693.00
32.5247 1397.00
32.829 1277.00
33.1332 1274.00
33.4375 1203.00
33.7417 1251.00
34.046 1444.00
34.3503 1604.00
34.6545 3095.00
34.9588 2894.00
35.263 1411.00
35.5673 1485.00
35.8716 2992.00
36.1758 1381.00
36.4801 1642.00
36.7843 1125.00
37.0886 1119.00
37.3929 1181.00
37.6971 1085.00
38.0014 1142.00
38.3056 1128.00
38.6099 1126.00
38.9142 1231.00
39.2184 1619.00
39.5227 1174.00
39.8269 1029.00
40.1312 1120.00
40.4355 1103.00
40.7397 1156.00
41.044 1282.00
41.3482 1928.00
41.6525 1416.00
41.9568 1333.00
42.261 1149.00
42.5653 988.00
42.8695 1072.00
43.1738 1072.00
43.4781 983.00
43.7823 995.00
44.0866 1025.00
44.3909 961.00
44.6951 1012.00
44.9994 1169.00
45.3036 1168.00
45.6079 1219.00
45.9122 1156.00
46.2164 1336.00
46.5207 1088.00
46.8249 1065.00
47.1292 1019.00
47.4335 1060.00
47.7377 984.00
48.042 923.00
48.3462 1004.00
48.6505 995.00
48.9548 1027.00
49.259 1062.00
49.5633 1263.00
49.8675 2193.00
50.1718 1272.00
50.4761 1387.00
50.7803 2684.00
51.0846 1539.00
51.3888 1322.00
51.6931 1091.00
51.9974 1164.00
52.3016 993.00
52.6059 945.00
52.9101 933.00
53.2144 947.00
53.5187 929.00
53.8229 931.00
54.1272 997.00
54.4314 1070.00
54.7357 1572.00
55.04 1124.00
55.3442 1041.00
55.6485 1176.00
55.9527 1760.00
56.257 1668.00
56.5613 1563.00
56.8655 1113.00
57.1698 1055.00
57.474 1068.00
57.7783 1361.00
58.0826 1176.00
58.3868 1185.00
58.6911 1332.00
58.9953 1232.00
59.2996 1025.00
59.6039 975.00
59.9081 972.00
60.2124 1069.00
60.5166 1566.00
60.8209 1329.00
61.1252 993.00
61.4294 1008.00
61.7337 1037.00
62.0379 1340.00
62.3422 1109.00
62.6465 1442.00
62.9507 1085.00
63.255 1069.00
63.5592 1396.00
63.8635 1174.00
64.1678 955.00
64.472 951.00
64.7763 1000.00
65.0806 1056.00
65.3848 959.00
65.6891 977.00
65.9933 1053.00
66.2976 1207.00
66.6019 1249.00
66.9061 964.00
67.2104 898.00
67.5146 911.00
67.8189 896.00
68.1232 902.00
68.4274 904.00
68.7317 869.00
69.0359 922.00
69.3402 909.00
69.6445 1025.00
69.9487 1002.00
70.253 917.00
70.5572 841.00
70.8615 932.00
71.1658 893.00
71.47 951.00
71.7743 1093.00
72.0785 1207.00
72.3828 971.00
72.6871 913.00
72.9913 1046.00
73.2956 1029.00
73.5998 949.00
73.9041 939.00
74.2084 896.00
74.5126 917.00
74.8169 836.00
75.1211 971.00
75.4254 1011.00
75.7297 1070.00
76.0339 1077.00
76.3382 936.00
76.6424 872.00
76.9467 949.00
77.251 1045.00
77.5552 904.00
77.8595 963.00
78.1637 1024.00
78.468 966.00
78.7723 1012.00
79.0765 985.00
79.3808 968.00
79.685 1088.00
79.9893 972.00
80.2936 880.00
80.5978 918.00
80.9021 911.00
81.2063 956.00
81.5106 937.00
81.8149 956.00
82.1191 977.00
82.4234 1073.00
82.7277 967.00
83.0319 953.00
83.3362 1024.00
83.6404 1005.00
83.9447 1125.00
84.249 966.00
84.5532 974.00
84.8575 1047.00
85.1617 995.00
85.466 966.00
85.7703 1013.00
86.0745 952.00
86.3788 948.00
86.683 938.00
86.9873 1024.00
87.2916 953.00
87.5958 939.00
87.9001 965.00
88.2043 1049.00
88.5086 961.00
88.8129 1009.00
89.1171 1104.00
89.4214 1098.00
89.7256 1016.00
90.0299 965.00
90.3342 1070.00
90.6384 1045.00
90.9427 1076.00
91.2469 999.00
91.5512 946.00
91.8555 957.00
92.1597 969.00
92.464 974.00
92.7682 955.00
93.0725 903.00
93.3768 952.00
93.681 944.00
93.9853 987.00
94.2895 950.00
94.5938 959.00
94.8981 1025.00
95.2023 937.00
95.5066 994.00
95.8108 1032.00
96.1151 1118.00
96.4194 1032.00
96.7236 979.00
97.0279 1128.00
97.3321 1125.00
97.6364 1185.00
97.9407 1201.00
98.2449 1033.00
98.5492 1005.00
98.8534 1105.00
99.1577 1022.00
99.462 1121.00
99.7662 1122.00
99.9944 1112.00