File: data/xrd_creation/results/PG_1934-1.xy
9.903433 2591.00
10.2077 2453.00
10.512 2397.00
10.8162 2170.00
11.1205 2186.00
11.4247 2037.00
11.729 1948.00
12.0333 1936.00
12.3375 1853.00
12.6418 1726.00
12.946 1678.00
13.2503 1589.00
13.5546 1600.00
13.8588 1471.00
14.1631 1450.00
14.4673 1446.00
14.7716 1440.00
15.0759 1311.00
15.3801 1368.00
15.6844 1332.00
15.9886 1310.00
16.2929 1269.00
16.5972 1231.00
16.9014 1191.00
17.2057 1154.00
17.5099 1109.00
17.8142 1117.00
18.1185 1189.00
18.4227 1143.00
18.727 1056.00
19.0312 1009.00
19.3355 1075.00
19.6398 1003.00
19.944 977.00
20.2483 993.00
20.5525 977.00
20.8568 912.00
21.1611 919.00
21.4653 912.00
21.7696 892.00
22.0738 846.00
22.3781 846.00
22.6824 852.00
22.9866 886.00
23.2909 875.00
23.5951 806.00
23.8994 842.00
24.2037 869.00
24.5079 804.00
24.8122 779.00
25.1164 746.00
25.4207 810.00
25.725 748.00
26.0292 761.00
26.3335 825.00
26.6378 726.00
26.942 702.00
27.2463 627.00
27.5505 752.00
27.8548 759.00
28.1591 771.00
28.4633 662.00
28.7676 654.00
29.0718 726.00
29.3761 597.00
29.6804 672.00
29.9846 676.00
30.2889 616.00
30.5931 590.00
30.8974 593.00
31.2017 575.00
31.5059 586.00
31.8102 549.00
32.1144 530.00
32.4187 504.00
32.723 565.00
33.0272 509.00
33.3315 604.00
33.6357 621.00
33.94 526.00
34.2443 494.00
34.5485 485.00
34.8528 505.00
35.157 478.00
35.4613 514.00
35.7656 422.00
36.0698 466.00
36.3741 457.00
36.6783 435.00
36.9826 454.00
37.2869 449.00
37.5911 408.00
37.8954 425.00
38.1996 427.00
38.5039 445.00
38.8082 376.00
39.1124 402.00
39.4167 382.00
39.7209 398.00
40.0252 427.00
40.3295 355.00
40.6337 400.00
40.938 369.00
41.2422 381.00
41.5465 331.00
41.8508 394.00
42.155 363.00
42.4593 356.00
42.7635 391.00
43.0678 381.00
43.3721 350.00
43.6763 393.00
43.9806 389.00
44.2849 350.00
44.5891 352.00
44.8934 369.00
45.1976 335.00
45.5019 344.00
45.8062 326.00
46.1104 356.00
46.4147 313.00
46.7189 322.00
47.0232 340.00
47.3275 336.00
47.6317 311.00
47.936 354.00
48.2402 277.00
48.5445 336.00
48.8488 297.00
49.153 322.00
49.4573 298.00
49.7615 273.00
50.0658 301.00
50.3701 268.00
50.6743 335.00
50.9786 299.00
51.2828 306.00
51.5871 346.00
51.8914 320.00
52.1956 304.00
52.4999 248.00
52.8041 272.00
53.1084 298.00
53.4127 305.00
53.7169 315.00
54.0212 303.00
54.3254 290.00
54.6297 304.00
54.934 295.00
55.2382 268.00
55.5425 274.00
55.8467 295.00
56.151 249.00
56.4553 235.00
56.7595 262.00
57.0638 262.00
57.368 294.00
57.6723 246.00
57.9766 262.00
58.2808 259.00
58.5851 233.00
58.8893 278.00
59.1936 223.00
59.4979 269.00
59.8021 229.00
60.1064 224.00
60.4106 246.00
60.7149 221.00
61.0192 199.00
61.3234 224.00
61.6277 237.00
61.932 235.00
62.2362 242.00
62.5405 222.00
62.8447 200.00
63.149 273.00
63.4533 249.00
63.7575 202.00
64.0618 212.00
64.366 201.00
64.6703 193.00
64.9745 219.00
65.2788 222.00
65.5831 241.00
65.8873 210.00
66.1916 174.00
66.4959 201.00
66.8001 220.00
67.1044 210.00
67.4086 223.00
67.7129 223.00
68.0172 196.00
68.3214 206.00
68.6257 214.00
68.9299 220.00
69.2342 208.00
69.5385 201.00
69.8427 211.00
70.147 203.00
70.4512 245.00
70.7555 234.00
71.0598 214.00
71.364 183.00
71.6683 237.00
71.9725 195.00
72.2768 193.00
72.5811 237.00
72.8853 223.00
73.1896 214.00
73.4938 213.00
73.7981 233.00
74.1024 216.00
74.4066 224.00
74.7109 206.00
75.0151 198.00
75.3194 250.00
75.6237 240.00
75.9279 228.00
76.2322 273.00
76.5364 204.00
76.8407 242.00
77.145 257.00
77.4492 240.00
77.7535 245.00
78.0577 227.00
78.362 240.00
78.6663 261.00
78.9705 267.00
79.2748 279.00
79.579 262.00
79.8833 246.00
80.1876 273.00
80.4918 259.00
80.7961 236.00
81.1003 284.00
81.4046 236.00
81.7089 235.00
82.0131 279.00
82.3174 224.00
82.6217 248.00
82.9259 250.00
83.2302 200.00
83.5344 235.00
83.8387 233.00
84.143 228.00
84.4472 215.00
84.7515 232.00
85.0557 236.00
85.36 270.00
85.6643 198.00
85.9685 235.00
86.2728 224.00
86.577 205.00
86.8813 189.00
87.1856 199.00
87.4898 222.00
87.7941 228.00
88.0983 199.00
88.4026 178.00
88.7069 170.00
89.0111 213.00
89.3154 191.00
89.6196 186.00
89.9239 176.00
90.2282 207.00
90.5324 183.00
90.8367 210.00
91.1409 227.00
91.4452 178.00
91.7495 206.00
92.0537 180.00
92.358 194.00
92.6622 193.00
92.9665 180.00
93.2708 201.00
93.575 195.00
93.8793 210.00
94.1835 216.00
94.4878 200.00
94.7921 190.00
95.0963 174.00
95.4006 175.00
95.7048 168.00
96.0091 178.00
96.3134 190.00
96.6176 178.00
96.9219 176.00
97.2261 169.00
97.5304 199.00
97.8347 199.00
98.1389 208.00
98.4432 158.00
98.7474 207.00
99.0517 193.00
99.356 191.00
99.6602 187.00
99.9645 198.00
100.095 202.00