File: data/xrd_creation/results/PG_1939-1.xy
9.903433 3040.00
10.2077 2919.00
10.512 2906.00
10.8162 2864.00
11.1205 2746.00
11.4247 2736.00
11.729 2644.00
12.0333 2609.00
12.3375 2614.00
12.6418 2611.00
12.946 2994.00
13.2503 2594.00
13.5546 2393.00
13.8588 2441.00
14.1631 2426.00
14.4673 2440.00
14.7716 2305.00
15.0759 2373.00
15.3801 2260.00
15.6844 2266.00
15.9886 2255.00
16.2929 2230.00
16.5972 2211.00
16.9014 2151.00
17.2057 2257.00
17.5099 2273.00
17.8142 2148.00
18.1185 2147.00
18.4227 2176.00
18.727 2110.00
19.0312 2145.00
19.3355 2108.00
19.6398 2081.00
19.944 2108.00
20.2483 2053.00
20.5525 2049.00
20.8568 2015.00
21.1611 2033.00
21.4653 2100.00
21.7696 2052.00
22.0738 1939.00
22.3781 2003.00
22.6824 1977.00
22.9866 2034.00
23.2909 2300.00
23.5951 1976.00
23.8994 2014.00
24.2037 1948.00
24.5079 1927.00
24.8122 1910.00
25.1164 2034.00
25.4207 1941.00
25.725 2153.00
26.0292 2161.00
26.3335 1884.00
26.6378 2073.00
26.942 2001.00
27.2463 1963.00
27.5505 1900.00
27.8548 1763.00
28.1591 1936.00
28.4633 1912.00
28.7676 2139.00
29.0718 1896.00
29.3761 1852.00
29.6804 2462.00
29.9846 2591.00
30.2889 1946.00
30.5931 2102.00
30.8974 3750.00
31.2017 1999.00
31.5059 2122.00
31.8102 3312.00
32.1144 2553.00
32.4187 4219.00
32.723 3993.00
33.0272 2152.00
33.3315 1772.00
33.6357 1931.00
33.94 1890.00
34.2443 1956.00
34.5485 1824.00
34.8528 1819.00
35.157 2032.00
35.4613 1938.00
35.7656 1830.00
36.0698 1880.00
36.3741 2416.00
36.6783 1861.00
36.9826 2038.00
37.2869 5437.00
37.5911 4067.00
37.8954 2051.00
38.1996 2281.00
38.5039 2162.00
38.8082 2744.00
39.1124 2806.00
39.4167 2064.00
39.7209 2073.00
40.0252 2249.00
40.3295 1900.00
40.6337 2039.00
40.938 1769.00
41.2422 2019.00
41.5465 2475.00
41.8508 2257.00
42.155 1989.00
42.4593 1978.00
42.7635 1871.00
43.0678 2364.00
43.3721 9894.00
43.6763 4385.00
43.9806 1861.00
44.2849 1829.00
44.5891 1799.00
44.8934 1855.00
45.1976 2010.00
45.5019 1784.00
45.8062 1735.00
46.1104 1745.00
46.4147 1862.00
46.7189 1863.00
47.0232 1844.00
47.3275 1839.00
47.6317 1886.00
47.936 1877.00
48.2402 1879.00
48.5445 1828.00
48.8488 1904.00
49.153 1775.00
49.4573 2068.00
49.7615 2153.00
50.0658 1888.00
50.3701 1735.00
50.6743 1852.00
50.9786 1946.00
51.2828 1891.00
51.5871 2162.00
51.8914 1880.00
52.1956 1925.00
52.4999 1975.00
52.8041 1874.00
53.1084 1756.00
53.4127 1808.00
53.7169 1832.00
54.0212 1898.00
54.3254 1809.00
54.6297 1826.00
54.934 1678.00
55.2382 1770.00
55.5425 1966.00
55.8467 1922.00
56.151 1793.00
56.4553 1718.00
56.7595 1750.00
57.0638 1858.00
57.368 1880.00
57.6723 2055.00
57.9766 1836.00
58.2808 1813.00
58.5851 1694.00
58.8893 1754.00
59.1936 1722.00
59.4979 1765.00
59.8021 1759.00
60.1064 1761.00
60.4106 1732.00
60.7149 1808.00
61.0192 1901.00
61.3234 1796.00
61.6277 1764.00
61.932 1784.00
62.2362 1804.00
62.5405 1963.00
62.8447 3882.00
63.149 5203.00
63.4533 2193.00
63.7575 1839.00
64.0618 1791.00
64.366 1800.00
64.6703 1836.00
64.9745 1874.00
65.2788 1798.00
65.5831 1802.00
65.8873 1858.00
66.1916 1847.00
66.4959 1806.00
66.8001 1856.00
67.1044 1877.00
67.4086 1912.00
67.7129 1883.00
68.0172 1748.00
68.3214 1843.00
68.6257 1770.00
68.9299 1833.00
69.2342 1820.00
69.5385 1845.00
69.8427 1812.00
70.147 1909.00
70.4512 1843.00
70.7555 1921.00
71.0598 1923.00
71.364 1813.00
71.6683 1826.00
71.9725 1855.00
72.2768 1816.00
72.5811 1887.00
72.8853 1894.00
73.1896 1846.00
73.4938 1791.00
73.7981 1900.00
74.1024 1851.00
74.4066 1766.00
74.7109 1844.00
75.0151 1893.00
75.3194 2394.00
75.6237 3316.00
75.9279 2258.00
76.2322 1821.00
76.5364 1838.00
76.8407 1862.00
77.145 1834.00
77.4492 1847.00
77.7535 1862.00
78.0577 1828.00
78.362 1789.00
78.6663 1874.00
78.9705 2009.00
79.2748 2109.00
79.579 2769.00
79.8833 2058.00
80.1876 1951.00
80.4918 1927.00
80.7961 1847.00
81.1003 1901.00
81.4046 1888.00
81.7089 1962.00
82.0131 1943.00
82.3174 1860.00
82.6217 1870.00
82.9259 1764.00
83.2302 1851.00
83.5344 1849.00
83.8387 1849.00
84.143 1951.00
84.4472 1835.00
84.7515 1885.00
85.0557 1894.00
85.36 1759.00
85.6643 1815.00
85.9685 1811.00
86.2728 1874.00
86.577 1886.00
86.8813 1904.00
87.1856 1879.00
87.4898 1834.00
87.7941 1934.00
88.0983 1786.00
88.4026 1897.00
88.7069 1901.00
89.0111 1793.00
89.3154 1864.00
89.6196 1895.00
89.9239 1977.00
90.2282 1844.00
90.5324 1854.00
90.8367 1914.00
91.1409 1875.00
91.4452 1838.00
91.7495 1892.00
92.0537 1864.00
92.358 1881.00
92.6622 1811.00
92.9665 1920.00
93.2708 1886.00
93.575 1852.00
93.8793 1874.00
94.1835 2000.00
94.4878 1922.00
94.7921 1960.00
95.0963 2292.00
95.4006 2260.00
95.7048 1919.00
96.0091 1955.00
96.3134 1942.00
96.6176 1860.00
96.9219 1831.00
97.2261 1875.00
97.5304 1842.00
97.8347 1863.00
98.1389 1918.00
98.4432 1883.00
98.7474 1894.00
99.0517 1882.00
99.356 1877.00
99.6602 1978.00
99.9645 1908.00
100.095 1912.00