File: data/xrd_creation/results/PG_1738-1.xy
9.903433 2523.00
10.2077 2423.00
10.512 2302.00
10.8162 2220.00
11.1205 2161.00
11.4247 2071.00
11.729 1952.00
12.0333 1933.00
12.3375 1892.00
12.6418 1809.00
12.946 1824.00
13.2503 1763.00
13.5546 1690.00
13.8588 1615.00
14.1631 1581.00
14.4673 1500.00
14.7716 1530.00
15.0759 1454.00
15.3801 1472.00
15.6844 1472.00
15.9886 1436.00
16.2929 1444.00
16.5972 1434.00
16.9014 1412.00
17.2057 1449.00
17.5099 1453.00
17.8142 1547.00
18.1185 1393.00
18.4227 1316.00
18.727 1310.00
19.0312 1268.00
19.3355 1254.00
19.6398 1156.00
19.944 1207.00
20.2483 1217.00
20.5525 1106.00
20.8568 1099.00
21.1611 1166.00
21.4653 1128.00
21.7696 1129.00
22.0738 1212.00
22.3781 1275.00
22.6824 2378.00
22.9866 1440.00
23.2909 1109.00
23.5951 1105.00
23.8994 1101.00
24.2037 1362.00
24.5079 1857.00
24.8122 1834.00
25.1164 1134.00
25.4207 987.00
25.725 1071.00
26.0292 1021.00
26.3335 950.00
26.6378 932.00
26.942 940.00
27.2463 979.00
27.5505 1037.00
27.8548 1146.00
28.1591 1663.00
28.4633 7234.00
28.7676 3437.00
29.0718 2164.00
29.3761 1194.00
29.6804 963.00
29.9846 983.00
30.2889 916.00
30.5931 915.00
30.8974 896.00
31.2017 993.00
31.5059 1411.00
31.8102 5149.00
32.1144 2070.00
32.4187 1014.00
32.723 940.00
33.0272 944.00
33.3315 837.00
33.6357 811.00
33.94 911.00
34.2443 1063.00
34.5485 2901.00
34.8528 2626.00
35.157 1033.00
35.4613 1100.00
35.7656 2760.00
36.0698 1075.00
36.3741 1251.00
36.6783 1848.00
36.9826 1076.00
37.2869 1146.00
37.5911 792.00
37.8954 729.00
38.1996 712.00
38.5039 736.00
38.8082 881.00
39.1124 1345.00
39.4167 788.00
39.7209 697.00
40.0252 789.00
40.3295 773.00
40.6337 775.00
40.938 926.00
41.2422 1851.00
41.5465 1169.00
41.8508 1123.00
42.155 747.00
42.4593 693.00
42.7635 795.00
43.0678 720.00
43.3721 687.00
43.6763 681.00
43.9806 668.00
44.2849 703.00
44.5891 795.00
44.8934 751.00
45.1976 1181.00
45.5019 928.00
45.8062 925.00
46.1104 1430.00
46.4147 1291.00
46.7189 700.00
47.0232 659.00
47.3275 672.00
47.6317 710.00
47.936 679.00
48.2402 719.00
48.5445 752.00
48.8488 728.00
49.153 809.00
49.4573 1124.00
49.7615 2595.00
50.0658 1471.00
50.3701 1021.00
50.6743 3193.00
50.9786 2137.00
51.2828 1503.00
51.5871 1021.00
51.8914 1076.00
52.1956 724.00
52.4999 716.00
52.8041 750.00
53.1084 731.00
53.4127 720.00
53.7169 719.00
54.0212 766.00
54.3254 906.00
54.6297 1822.00
54.934 1149.00
55.2382 1535.00
55.5425 1504.00
55.8467 2312.00
56.151 1744.00
56.4553 1992.00
56.7595 1127.00
57.0638 807.00
57.368 835.00
57.6723 1396.00
57.9766 1104.00
58.2808 982.00
58.5851 1403.00
58.8893 1406.00
59.1936 877.00
59.4979 778.00
59.8021 815.00
60.1064 971.00
60.4106 1759.00
60.7149 1341.00
61.0192 859.00
61.3234 782.00
61.6277 850.00
61.932 1359.00
62.2362 1057.00
62.5405 1585.00
62.8447 887.00
63.149 963.00
63.4533 1810.00
63.7575 1293.00
64.0618 868.00
64.366 804.00
64.6703 979.00
64.9745 1041.00
65.2788 821.00
65.5831 865.00
65.8873 991.00
66.1916 1377.00
66.4959 1391.00
66.8001 859.00
67.1044 807.00
67.4086 755.00
67.7129 690.00
68.0172 717.00
68.3214 708.00
68.6257 710.00
68.9299 670.00
69.2342 724.00
69.5385 1004.00
69.8427 834.00
70.147 818.00
70.4512 1026.00
70.7555 840.00
71.0598 897.00
71.364 962.00
71.6683 1134.00
71.9725 1228.00
72.2768 846.00
72.5811 871.00
72.8853 921.00
73.1896 943.00
73.4938 818.00
73.7981 744.00
74.1024 714.00
74.4066 757.00
74.7109 727.00
75.0151 748.00
75.3194 953.00
75.6237 1009.00
75.9279 1076.00
76.2322 773.00
76.5364 698.00
76.8407 764.00
77.145 976.00
77.4492 876.00
77.7535 993.00
78.0577 1013.00
78.362 930.00
78.6663 949.00
78.9705 941.00
79.2748 905.00
79.579 1078.00
79.8833 945.00
80.1876 831.00
80.4918 800.00
80.7961 730.00
81.1003 772.00
81.4046 871.00
81.7089 844.00
82.0131 880.00
82.3174 1117.00
82.6217 905.00
82.9259 879.00
83.2302 971.00
83.5344 937.00
83.8387 1103.00
84.143 1012.00
84.4472 910.00
84.7515 1240.00
85.0557 1046.00
85.36 778.00
85.6643 1024.00
85.9685 889.00
86.2728 845.00
86.577 777.00
86.8813 902.00
87.1856 816.00
87.4898 783.00
87.7941 819.00
88.0983 888.00
88.4026 972.00
88.7069 939.00
89.0111 1107.00
89.3154 1124.00
89.6196 1015.00
89.9239 902.00
90.2282 952.00
90.5324 1145.00
90.8367 1052.00
91.1409 886.00
91.4452 799.00
91.7495 817.00
92.0537 816.00
92.358 882.00
92.6622 808.00
92.9665 773.00
93.2708 791.00
93.575 815.00
93.8793 865.00
94.1835 816.00
94.4878 930.00
94.7921 948.00
95.0963 876.00
95.4006 883.00
95.7048 996.00
96.0091 1089.00
96.3134 971.00
96.6176 894.00
96.9219 1056.00
97.2261 1117.00
97.5304 1293.00
97.8347 1235.00
98.1389 1060.00
98.4432 945.00
98.7474 993.00
99.0517 1076.00
99.356 1034.00
99.6602 1144.00
99.9645 1143.00
100.095 1181.00