File: data/xrd_creation/results/PG_1947-1.xy
9.903433 2624.00
10.2077 2547.00
10.512 2292.00
10.8162 2334.00
11.1205 2202.00
11.4247 2126.00
11.729 2106.00
12.0333 1939.00
12.3375 1960.00
12.6418 1836.00
12.946 1743.00
13.2503 1717.00
13.5546 1589.00
13.8588 1566.00
14.1631 1567.00
14.4673 1549.00
14.7716 1521.00
15.0759 1500.00
15.3801 1452.00
15.6844 1380.00
15.9886 1351.00
16.2929 1457.00
16.5972 1601.00
16.9014 1454.00
17.2057 1876.00
17.5099 1627.00
17.8142 1236.00
18.1185 1205.00
18.4227 1215.00
18.727 1129.00
19.0312 1182.00
19.3355 1155.00
19.6398 1089.00
19.944 1019.00
20.2483 999.00
20.5525 1074.00
20.8568 1038.00
21.1611 963.00
21.4653 917.00
21.7696 1035.00
22.0738 955.00
22.3781 925.00
22.6824 1140.00
22.9866 2334.00
23.2909 918.00
23.5951 973.00
23.8994 1260.00
24.2037 1176.00
24.5079 1156.00
24.8122 1068.00
25.1164 923.00
25.4207 849.00
25.725 818.00
26.0292 851.00
26.3335 726.00
26.6378 822.00
26.942 781.00
27.2463 686.00
27.5505 709.00
27.8548 785.00
28.1591 891.00
28.4633 2234.00
28.7676 7106.00
29.0718 1261.00
29.3761 790.00
29.6804 712.00
29.9846 760.00
30.2889 923.00
30.5931 743.00
30.8974 666.00
31.2017 826.00
31.5059 1770.00
31.8102 2735.00
32.1144 866.00
32.4187 594.00
32.723 635.00
33.0272 594.00
33.3315 981.00
33.6357 683.00
33.94 663.00
34.2443 941.00
34.5485 1638.00
34.8528 2079.00
35.157 669.00
35.4613 643.00
35.7656 544.00
36.0698 566.00
36.3741 588.00
36.6783 571.00
36.9826 1065.00
37.2869 888.00
37.5911 636.00
37.8954 877.00
38.1996 552.00
38.5039 496.00
38.8082 635.00
39.1124 657.00
39.4167 1507.00
39.7209 517.00
40.0252 450.00
40.3295 434.00
40.6337 485.00
40.938 532.00
41.2422 547.00
41.5465 465.00
41.8508 391.00
42.155 497.00
42.4593 411.00
42.7635 476.00
43.0678 500.00
43.3721 555.00
43.6763 457.00
43.9806 409.00
44.2849 472.00
44.5891 506.00
44.8934 443.00
45.1976 459.00
45.5019 473.00
45.8062 599.00
46.1104 446.00
46.4147 685.00
46.7189 1287.00
47.0232 431.00
47.3275 454.00
47.6317 840.00
47.936 493.00
48.2402 439.00
48.5445 703.00
48.8488 522.00
49.153 452.00
49.4573 387.00
49.7615 400.00
50.0658 429.00
50.3701 398.00
50.6743 377.00
50.9786 443.00
51.2828 480.00
51.5871 678.00
51.8914 510.00
52.1956 417.00
52.4999 420.00
52.8041 426.00
53.1084 378.00
53.4127 398.00
53.7169 454.00
54.0212 591.00
54.3254 1213.00
54.6297 861.00
54.934 360.00
55.2382 355.00
55.5425 411.00
55.8467 355.00
56.151 521.00
56.4553 483.00
56.7595 527.00
57.0638 382.00
57.368 353.00
57.6723 404.00
57.9766 577.00
58.2808 473.00
58.5851 1020.00
58.8893 500.00
59.1936 526.00
59.4979 658.00
59.8021 624.00
60.1064 372.00
60.4106 369.00
60.7149 374.00
61.0192 508.00
61.3234 527.00
61.6277 410.00
61.932 569.00
62.2362 371.00
62.5405 381.00
62.8447 391.00
63.149 500.00
63.4533 394.00
63.7575 514.00
64.0618 823.00
64.366 359.00
64.6703 340.00
64.9745 329.00
65.2788 370.00
65.5831 451.00
65.8873 611.00
66.1916 335.00
66.4959 493.00
66.8001 372.00
67.1044 317.00
67.4086 281.00
67.7129 329.00
68.0172 300.00
68.3214 333.00
68.6257 414.00
68.9299 539.00
69.2342 345.00
69.5385 294.00
69.8427 338.00
70.147 323.00
70.4512 279.00
70.7555 322.00
71.0598 496.00
71.364 349.00
71.6683 327.00
71.9725 539.00
72.2768 609.00
72.5811 345.00
72.8853 311.00
73.1896 345.00
73.4938 332.00
73.7981 358.00
74.1024 332.00
74.4066 323.00
74.7109 331.00
75.0151 331.00
75.3194 328.00
75.6237 333.00
75.9279 359.00
76.2322 329.00
76.5364 540.00
76.8407 624.00
77.145 343.00
77.4492 307.00
77.7535 318.00
78.0577 297.00
78.362 318.00
78.6663 408.00
78.9705 348.00
79.2748 291.00
79.579 307.00
79.8833 388.00
80.1876 356.00
80.4918 307.00
80.7961 325.00
81.1003 353.00
81.4046 332.00
81.7089 325.00
82.0131 340.00
82.3174 394.00
82.6217 452.00
82.9259 327.00
83.2302 331.00
83.5344 314.00
83.8387 321.00
84.143 411.00
84.4472 341.00
84.7515 349.00
85.0557 388.00
85.36 320.00
85.6643 317.00
85.9685 353.00
86.2728 304.00
86.577 264.00
86.8813 293.00
87.1856 275.00
87.4898 302.00
87.7941 311.00
88.0983 319.00
88.4026 301.00
88.7069 301.00
89.0111 367.00
89.3154 364.00
89.6196 334.00
89.9239 358.00
90.2282 556.00
90.5324 399.00
90.8367 309.00
91.1409 297.00
91.4452 297.00
91.7495 314.00
92.0537 300.00
92.358 312.00
92.6622 293.00
92.9665 325.00
93.2708 315.00
93.575 309.00
93.8793 309.00
94.1835 289.00
94.4878 279.00
94.7921 312.00
95.0963 342.00
95.4006 294.00
95.7048 277.00
96.0091 295.00
96.3134 284.00
96.6176 280.00
96.9219 248.00
97.2261 279.00
97.5304 295.00
97.8347 286.00
98.1389 286.00
98.4432 291.00
98.7474 291.00
99.0517 344.00
99.356 352.00
99.6602 337.00
99.9645 272.00
100.095 287.00