File: data/xrd_creation/results/PG_1320-1.xy
10.0094 3973.00
10.3137 4076.00
10.618 3874.00
10.9222 3891.00
11.2265 3893.00
11.5307 3790.00
11.835 3759.00
12.1393 3708.00
12.4435 3821.00
12.7478 3687.00
13.052 3761.00
13.3563 3666.00
13.6606 3702.00
13.9648 3737.00
14.2691 3686.00
14.5733 3675.00
14.8776 3753.00
15.1819 3615.00
15.4861 3720.00
15.7904 3615.00
16.0946 3732.00
16.3989 3681.00
16.7032 3735.00
17.0074 3623.00
17.3117 3848.00
17.6159 4298.00
17.9202 3658.00
18.2245 3656.00
18.5287 3604.00
18.833 3683.00
19.1372 3677.00
19.4415 3580.00
19.7458 3655.00
20.05 3582.00
20.3543 3563.00
20.6585 3536.00
20.9628 3503.00
21.2671 3522.00
21.5713 3316.00
21.8756 3427.00
22.1798 3506.00
22.4841 3445.00
22.7884 3496.00
23.0926 3487.00
23.3969 3539.00
23.7011 3494.00
24.0054 5156.00
24.3097 5019.00
24.6139 3811.00
24.9182 3399.00
25.2224 3477.00
25.5267 3418.00
25.831 3376.00
26.1352 3350.00
26.4395 3337.00
26.7438 3368.00
27.048 3357.00
27.3523 3338.00
27.6565 3282.00
27.9608 3414.00
28.2651 3428.00
28.5693 3317.00
28.8736 3235.00
29.1778 3252.00
29.4821 3283.00
29.7864 3338.00
30.0906 3862.00
30.3949 3407.00
30.6991 3516.00
31.0034 11329.00
31.3077 3450.00
31.6119 3356.00
31.9162 3289.00
32.2204 3313.00
32.5247 3260.00
32.829 3325.00
33.1332 3561.00
33.4375 9387.00
33.7417 3439.00
34.046 3377.00
34.3503 5094.00
34.6545 3231.00
34.9588 3309.00
35.263 3341.00
35.5673 3946.00
35.8716 5970.00
36.1758 3483.00
36.4801 3206.00
36.7843 3300.00
37.0886 3225.00
37.3929 3129.00
37.6971 3248.00
38.0014 3275.00
38.3056 3291.00
38.6099 3393.00
38.9142 3266.00
39.2184 3156.00
39.5227 3326.00
39.8269 3267.00
40.1312 3120.00
40.4355 3155.00
40.7397 3158.00
41.044 3797.00
41.3482 3291.00
41.6525 3288.00
41.9568 3073.00
42.261 3200.00
42.5653 3165.00
42.8695 3095.00
43.1738 3053.00
43.4781 3213.00
43.7823 3194.00
44.0866 3157.00
44.3909 3110.00
44.6951 3029.00
44.9994 3091.00
45.3036 3137.00
45.6079 3155.00
45.9122 3315.00
46.2164 3453.00
46.5207 3230.00
46.8249 5591.00
47.1292 3104.00
47.4335 3176.00
47.7377 3078.00
48.042 3278.00
48.3462 3081.00
48.6505 3113.00
48.9548 3083.00
49.259 3215.00
49.5633 3362.00
49.8675 4256.00
50.1718 3057.00
50.4761 3051.00
50.7803 3217.00
51.0846 3020.00
51.3888 3076.00
51.6931 3000.00
51.9974 3060.00
52.3016 3037.00
52.6059 3076.00
52.9101 3095.00
53.2144 3042.00
53.5187 2976.00
53.8229 3131.00
54.1272 3310.00
54.4314 4596.00
54.7357 3276.00
55.04 3042.00
55.3442 4158.00
55.6485 3044.00
55.9527 3035.00
56.257 3060.00
56.5613 3119.00
56.8655 3062.00
57.1698 3019.00
57.474 3089.00
57.7783 3526.00
58.0826 3101.00
58.3868 3124.00
58.6911 3696.00
58.9953 3358.00
59.2996 3311.00
59.6039 3102.00
59.9081 3120.00
60.2124 3001.00
60.5166 3092.00
60.8209 3077.00
61.1252 3019.00
61.4294 3109.00
61.7337 3034.00
62.0379 3046.00
62.3422 3132.00
62.6465 4486.00
62.9507 3425.00
63.255 3123.00
63.5592 2980.00
63.8635 3234.00
64.1678 3955.00
64.472 4123.00
64.7763 3090.00
65.0806 2969.00
65.3848 3131.00
65.6891 2900.00
65.9933 3002.00
66.2976 2994.00
66.6019 3092.00
66.9061 3120.00
67.2104 2978.00
67.5146 3071.00
67.8189 2967.00
68.1232 3042.00
68.4274 3087.00
68.7317 3159.00
69.0359 2983.00
69.3402 3094.00
69.6445 3021.00
69.9487 4284.00
70.253 3088.00
70.5572 2922.00
70.8615 2963.00
71.1658 3070.00
71.47 3110.00
71.7743 3251.00
72.0785 3546.00
72.3828 3194.00
72.6871 3056.00
72.9913 3008.00
73.2956 3072.00
73.5998 2886.00
73.9041 3055.00
74.2084 3012.00
74.5126 3139.00
74.8169 3123.00
75.1211 3035.00
75.4254 3094.00
75.7297 3376.00
76.0339 3135.00
76.3382 3041.00
76.6424 3080.00
76.9467 3143.00
77.251 3111.00
77.5552 3033.00
77.8595 3052.00
78.1637 3111.00
78.468 3000.00
78.7723 3011.00
79.0765 3042.00
79.3808 3012.00
79.685 3450.00
79.9893 3461.00
80.2936 3332.00
80.5978 3088.00
80.9021 3306.00
81.2063 3059.00
81.5106 3044.00
81.8149 3156.00
82.1191 3262.00
82.4234 3086.00
82.7277 3124.00
83.0319 3190.00
83.3362 3189.00
83.6404 3015.00
83.9447 3078.00
84.249 2994.00
84.5532 3068.00
84.8575 3070.00
85.1617 3470.00
85.466 3141.00
85.7703 3155.00
86.0745 3003.00
86.3788 2994.00
86.683 2977.00
86.9873 3132.00
87.2916 2993.00
87.5958 2968.00
87.9001 3071.00
88.2043 3041.00
88.5086 3163.00
88.8129 3218.00
89.1171 3152.00
89.4214 3106.00
89.7256 3052.00
90.0299 3120.00
90.3342 3128.00
90.6384 3014.00
90.9427 3014.00
91.2469 3069.00
91.5512 3032.00
91.8555 3113.00
92.1597 3067.00
92.464 3011.00
92.7682 2998.00
93.0725 3027.00
93.3768 3030.00
93.681 3065.00
93.9853 3104.00
94.2895 3086.00
94.5938 3117.00
94.8981 3034.00
95.2023 3078.00
95.5066 3360.00
95.8108 3414.00
96.1151 3108.00
96.4194 3112.00
96.7236 3027.00
97.0279 3046.00
97.3321 3060.00
97.6364 2973.00
97.9407 2976.00
98.2449 3030.00
98.5492 2992.00
98.8534 3074.00
99.1577 3092.00
99.462 3141.00
99.7662 3368.00
99.9944 3098.00