File: data/xrd_creation/results/PG_1751-1.xy
9.903433 2477.00
10.2077 2344.00
10.512 2268.00
10.8162 2182.00
11.1205 2064.00
11.4247 1981.00
11.729 1958.00
12.0333 1846.00
12.3375 1702.00
12.6418 1677.00
12.946 1589.00
13.2503 1655.00
13.5546 1578.00
13.8588 1475.00
14.1631 1502.00
14.4673 1418.00
14.7716 1448.00
15.0759 1453.00
15.3801 1341.00
15.6844 1375.00
15.9886 1317.00
16.2929 1251.00
16.5972 1266.00
16.9014 1238.00
17.2057 1280.00
17.5099 1302.00
17.8142 1557.00
18.1185 1185.00
18.4227 1120.00
18.727 1140.00
19.0312 1046.00
19.3355 1031.00
19.6398 1014.00
19.944 1001.00
20.2483 999.00
20.5525 964.00
20.8568 969.00
21.1611 951.00
21.4653 955.00
21.7696 907.00
22.0738 862.00
22.3781 891.00
22.6824 860.00
22.9866 869.00
23.2909 846.00
23.5951 841.00
23.8994 848.00
24.2037 1026.00
24.5079 2043.00
24.8122 1760.00
25.1164 859.00
25.4207 758.00
25.725 835.00
26.0292 753.00
26.3335 737.00
26.6378 728.00
26.942 710.00
27.2463 695.00
27.5505 714.00
27.8548 837.00
28.1591 1049.00
28.4633 5034.00
28.7676 4044.00
29.0718 891.00
29.3761 773.00
29.6804 743.00
29.9846 651.00
30.2889 662.00
30.5931 696.00
30.8974 687.00
31.2017 760.00
31.5059 1001.00
31.8102 5596.00
32.1144 3678.00
32.4187 757.00
32.723 597.00
33.0272 612.00
33.3315 605.00
33.6357 578.00
33.94 643.00
34.2443 844.00
34.5485 3441.00
34.8528 2994.00
35.157 805.00
35.4613 848.00
35.7656 2930.00
36.0698 937.00
36.3741 2441.00
36.6783 1676.00
36.9826 595.00
37.2869 550.00
37.5911 480.00
37.8954 555.00
38.1996 484.00
38.5039 503.00
38.8082 670.00
39.1124 1351.00
39.4167 608.00
39.7209 476.00
40.0252 532.00
40.3295 536.00
40.6337 541.00
40.938 702.00
41.2422 1884.00
41.5465 962.00
41.8508 919.00
42.155 552.00
42.4593 469.00
42.7635 434.00
43.0678 412.00
43.3721 464.00
43.6763 472.00
43.9806 454.00
44.2849 428.00
44.5891 474.00
44.8934 469.00
45.1976 732.00
45.5019 661.00
45.8062 699.00
46.1104 1019.00
46.4147 479.00
46.7189 438.00
47.0232 412.00
47.3275 449.00
47.6317 687.00
47.936 828.00
48.2402 440.00
48.5445 449.00
48.8488 483.00
49.153 509.00
49.4573 829.00
49.7615 2274.00
50.0658 823.00
50.3701 758.00
50.6743 2847.00
50.9786 1358.00
51.2828 1111.00
51.5871 718.00
51.8914 863.00
52.1956 474.00
52.4999 455.00
52.8041 406.00
53.1084 444.00
53.4127 427.00
53.7169 410.00
54.0212 464.00
54.3254 679.00
54.6297 1715.00
54.934 719.00
55.2382 649.00
55.5425 688.00
55.8467 2007.00
56.151 1642.00
56.4553 1471.00
56.7595 1686.00
57.0638 739.00
57.368 555.00
57.6723 1182.00
57.9766 894.00
58.2808 768.00
58.5851 1185.00
58.8893 995.00
59.1936 509.00
59.4979 483.00
59.8021 462.00
60.1064 682.00
60.4106 1633.00
60.7149 1274.00
61.0192 568.00
61.3234 521.00
61.6277 645.00
61.932 1192.00
62.2362 844.00
62.5405 1420.00
62.8447 964.00
63.149 1601.00
63.4533 1719.00
63.7575 779.00
64.0618 556.00
64.366 465.00
64.6703 764.00
64.9745 831.00
65.2788 524.00
65.5831 549.00
65.8873 796.00
66.1916 1275.00
66.4959 1330.00
66.8001 610.00
67.1044 463.00
67.4086 497.00
67.7129 485.00
68.0172 811.00
68.3214 881.00
68.6257 429.00
68.9299 491.00
69.2342 766.00
69.5385 952.00
69.8427 609.00
70.147 542.00
70.4512 494.00
70.7555 541.00
71.0598 465.00
71.364 538.00
71.6683 1005.00
71.9725 1045.00
72.2768 561.00
72.5811 638.00
72.8853 748.00
73.1896 745.00
73.4938 586.00
73.7981 463.00
74.1024 487.00
74.4066 487.00
74.7109 438.00
75.0151 533.00
75.3194 708.00
75.6237 776.00
75.9279 939.00
76.2322 657.00
76.5364 454.00
76.8407 562.00
77.145 874.00
77.4492 655.00
77.7535 554.00
78.0577 697.00
78.362 657.00
78.6663 627.00
78.9705 558.00
79.2748 537.00
79.579 809.00
79.8833 660.00
80.1876 452.00
80.4918 459.00
80.7961 461.00
81.1003 538.00
81.4046 556.00
81.7089 600.00
82.0131 683.00
82.3174 767.00
82.6217 587.00
82.9259 604.00
83.2302 739.00
83.5344 789.00
83.8387 910.00
84.143 765.00
84.4472 771.00
84.7515 876.00
85.0557 819.00
85.36 653.00
85.6643 748.00
85.9685 603.00
86.2728 488.00
86.577 581.00
86.8813 732.00
87.1856 602.00
87.4898 525.00
87.7941 520.00
88.0983 651.00
88.4026 809.00
88.7069 762.00
89.0111 885.00
89.3154 967.00
89.6196 843.00
89.9239 790.00
90.2282 743.00
90.5324 905.00
90.8367 789.00
91.1409 593.00
91.4452 611.00
91.7495 628.00
92.0537 615.00
92.358 614.00
92.6622 555.00
92.9665 601.00
93.2708 578.00
93.575 536.00
93.8793 540.00
94.1835 541.00
94.4878 655.00
94.7921 692.00
95.0963 641.00
95.4006 899.00
95.7048 873.00
96.0091 879.00
96.3134 741.00
96.6176 670.00
96.9219 918.00
97.2261 948.00
97.5304 1155.00
97.8347 1101.00
98.1389 716.00
98.4432 622.00
98.7474 839.00
99.0517 869.00
99.356 823.00
99.6602 835.00
99.9645 970.00
100.095 992.00