File: data/xrd_creation/results/PG_1951-1.xy
9.903433 2467.00
10.2077 2295.00
10.512 2207.00
10.8162 2220.00
11.1205 2218.00
11.4247 2060.00
11.729 1950.00
12.0333 1940.00
12.3375 1722.00
12.6418 1714.00
12.946 1920.00
13.2503 2895.00
13.5546 1596.00
13.8588 1534.00
14.1631 1572.00
14.4673 1556.00
14.7716 1380.00
15.0759 1459.00
15.3801 1393.00
15.6844 1420.00
15.9886 1352.00
16.2929 1282.00
16.5972 1346.00
16.9014 1303.00
17.2057 1341.00
17.5099 1232.00
17.8142 1187.00
18.1185 1215.00
18.4227 1171.00
18.727 1145.00
19.0312 1082.00
19.3355 1083.00
19.6398 1056.00
19.944 1008.00
20.2483 1082.00
20.5525 1040.00
20.8568 995.00
21.1611 989.00
21.4653 1016.00
21.7696 938.00
22.0738 943.00
22.3781 945.00
22.6824 895.00
22.9866 907.00
23.2909 915.00
23.5951 1164.00
23.8994 846.00
24.2037 849.00
24.5079 841.00
24.8122 829.00
25.1164 796.00
25.4207 805.00
25.725 786.00
26.0292 1102.00
26.3335 946.00
26.6378 778.00
26.942 915.00
27.2463 1058.00
27.5505 764.00
27.8548 794.00
28.1591 766.00
28.4633 715.00
28.7676 775.00
29.0718 1128.00
29.3761 739.00
29.6804 800.00
29.9846 1706.00
30.2889 1277.00
30.5931 774.00
30.8974 923.00
31.2017 3010.00
31.5059 1123.00
31.8102 1330.00
32.1144 12975.00
32.4187 2947.00
32.723 4890.00
33.0272 5343.00
33.3315 1074.00
33.6357 848.00
33.94 847.00
34.2443 885.00
34.5485 1255.00
34.8528 16794.00
35.157 1179.00
35.4613 1073.00
35.7656 988.00
36.0698 1173.00
36.3741 2114.00
36.6783 37122.00
36.9826 1860.00
37.2869 854.00
37.5911 792.00
37.8954 697.00
38.1996 742.00
38.5039 1058.00
38.8082 1075.00
39.1124 1711.00
39.4167 1563.00
39.7209 938.00
40.0252 985.00
40.3295 1168.00
40.6337 838.00
40.938 928.00
41.2422 601.00
41.5465 801.00
41.8508 1400.00
42.155 1123.00
42.4593 612.00
42.7635 634.00
43.0678 525.00
43.3721 639.00
43.6763 699.00
43.9806 584.00
44.2849 465.00
44.5891 492.00
44.8934 461.00
45.1976 564.00
45.5019 747.00
45.8062 468.00
46.1104 461.00
46.4147 553.00
46.7189 658.00
47.0232 495.00
47.3275 552.00
47.6317 761.00
47.936 8170.00
48.2402 956.00
48.5445 695.00
48.8488 545.00
49.153 698.00
49.4573 474.00
49.7615 920.00
50.0658 717.00
50.3701 490.00
50.6743 475.00
50.9786 520.00
51.2828 664.00
51.5871 565.00
51.8914 927.00
52.1956 622.00
52.4999 505.00
52.8041 645.00
53.1084 469.00
53.4127 531.00
53.7169 505.00
54.0212 681.00
54.3254 457.00
54.6297 507.00
54.934 512.00
55.2382 403.00
55.5425 510.00
55.8467 630.00
56.151 579.00
56.4553 610.00
56.7595 1276.00
57.0638 6262.00
57.368 852.00
57.6723 694.00
57.9766 602.00
58.2808 581.00
58.5851 469.00
58.8893 404.00
59.1936 430.00
59.4979 404.00
59.8021 417.00
60.1064 544.00
60.4106 405.00
60.7149 474.00
61.0192 586.00
61.3234 518.00
61.6277 439.00
61.932 454.00
62.2362 483.00
62.5405 501.00
62.8447 722.00
63.149 4811.00
63.4533 4124.00
63.7575 536.00
64.0618 407.00
64.366 472.00
64.6703 488.00
64.9745 430.00
65.2788 437.00
65.5831 478.00
65.8873 442.00
66.1916 457.00
66.4959 573.00
66.8001 1379.00
67.1044 595.00
67.4086 598.00
67.7129 610.00
68.0172 863.00
68.3214 8923.00
68.6257 1268.00
68.9299 582.00
69.2342 741.00
69.5385 2117.00
69.8427 704.00
70.147 504.00
70.4512 521.00
70.7555 405.00
71.0598 443.00
71.364 455.00
71.6683 401.00
71.9725 392.00
72.2768 420.00
72.5811 410.00
72.8853 963.00
73.1896 562.00
73.4938 350.00
73.7981 446.00
74.1024 406.00
74.4066 389.00
74.7109 377.00
75.0151 343.00
75.3194 437.00
75.6237 428.00
75.9279 382.00
76.2322 408.00
76.5364 375.00
76.8407 358.00
77.145 519.00
77.4492 810.00
77.7535 441.00
78.0577 347.00
78.362 358.00
78.6663 316.00
78.9705 355.00
79.2748 387.00
79.579 382.00
79.8833 340.00
80.1876 378.00
80.4918 379.00
80.7961 359.00
81.1003 407.00
81.4046 394.00
81.7089 1012.00
82.0131 615.00
82.3174 403.00
82.6217 378.00
82.9259 346.00
83.2302 334.00
83.5344 351.00
83.8387 328.00
84.143 345.00
84.4472 350.00
84.7515 351.00
85.0557 356.00
85.36 332.00
85.6643 315.00
85.9685 340.00
86.2728 345.00
86.577 365.00
86.8813 367.00
87.1856 344.00
87.4898 373.00
87.7941 333.00
88.0983 350.00
88.4026 334.00
88.7069 353.00
89.0111 322.00
89.3154 369.00
89.6196 508.00
89.9239 3033.00
90.2282 1656.00
90.5324 366.00
90.8367 369.00
91.1409 383.00
91.4452 339.00
91.7495 339.00
92.0537 312.00
92.358 293.00
92.6622 383.00
92.9665 591.00
93.2708 516.00
93.575 434.00
93.8793 369.00
94.1835 383.00
94.4878 382.00
94.7921 367.00
95.0963 403.00
95.4006 674.00
95.7048 1245.00
96.0091 841.00
96.3134 378.00
96.6176 385.00
96.9219 366.00
97.2261 310.00
97.5304 304.00
97.8347 324.00
98.1389 346.00
98.4432 369.00
98.7474 598.00
99.0517 633.00
99.356 499.00
99.6602 406.00
99.9645 306.00
100.095 327.00