File: data/xrd_creation/results/PG_1940-1.xy
9.903433 2511.00
10.2077 2328.00
10.512 2279.00
10.8162 2215.00
11.1205 2161.00
11.4247 2015.00
11.729 1989.00
12.0333 1855.00
12.3375 1796.00
12.6418 1798.00
12.946 1826.00
13.2503 1664.00
13.5546 1600.00
13.8588 1627.00
14.1631 1826.00
14.4673 2064.00
14.7716 1514.00
15.0759 1419.00
15.3801 1397.00
15.6844 1345.00
15.9886 1410.00
16.2929 1365.00
16.5972 1316.00
16.9014 1236.00
17.2057 1200.00
17.5099 1218.00
17.8142 1196.00
18.1185 1236.00
18.4227 1209.00
18.727 1132.00
19.0312 1156.00
19.3355 1317.00
19.6398 1105.00
19.944 1072.00
20.2483 1198.00
20.5525 1043.00
20.8568 989.00
21.1611 1020.00
21.4653 961.00
21.7696 931.00
22.0738 929.00
22.3781 934.00
22.6824 906.00
22.9866 922.00
23.2909 944.00
23.5951 904.00
23.8994 857.00
24.2037 920.00
24.5079 957.00
24.8122 886.00
25.1164 799.00
25.4207 859.00
25.725 974.00
26.0292 1117.00
26.3335 3691.00
26.6378 7228.00
26.942 1462.00
27.2463 1746.00
27.5505 1151.00
27.8548 820.00
28.1591 731.00
28.4633 854.00
28.7676 1614.00
29.0718 884.00
29.3761 747.00
29.6804 664.00
29.9846 817.00
30.2889 711.00
30.5931 1000.00
30.8974 3266.00
31.2017 1287.00
31.5059 905.00
31.8102 1699.00
32.1144 2525.00
32.4187 2620.00
32.723 1037.00
33.0272 754.00
33.3315 741.00
33.6357 1222.00
33.94 1333.00
34.2443 2645.00
34.5485 935.00
34.8528 633.00
35.157 654.00
35.4613 554.00
35.7656 634.00
36.0698 723.00
36.3741 856.00
36.6783 610.00
36.9826 649.00
37.2869 561.00
37.5911 578.00
37.8954 585.00
38.1996 684.00
38.5039 617.00
38.8082 794.00
39.1124 980.00
39.4167 836.00
39.7209 800.00
40.0252 903.00
40.3295 568.00
40.6337 458.00
40.938 493.00
41.2422 565.00
41.5465 571.00
41.8508 571.00
42.155 471.00
42.4593 468.00
42.7635 536.00
43.0678 499.00
43.3721 575.00
43.6763 929.00
43.9806 836.00
44.2849 624.00
44.5891 968.00
44.8934 963.00
45.1976 627.00
45.5019 485.00
45.8062 630.00
46.1104 1018.00
46.4147 1106.00
46.7189 633.00
47.0232 521.00
47.3275 661.00
47.6317 1925.00
47.936 846.00
48.2402 558.00
48.5445 462.00
48.8488 547.00
49.153 477.00
49.4573 700.00
49.7615 1308.00
50.0658 1646.00
50.3701 930.00
50.6743 642.00
50.9786 554.00
51.2828 574.00
51.5871 576.00
51.8914 782.00
52.1956 2803.00
52.4999 1361.00
52.8041 687.00
53.1084 606.00
53.4127 525.00
53.7169 539.00
54.0212 616.00
54.3254 588.00
54.6297 518.00
54.934 443.00
55.2382 485.00
55.5425 524.00
55.8467 586.00
56.151 1268.00
56.4553 664.00
56.7595 527.00
57.0638 471.00
57.368 579.00
57.6723 688.00
57.9766 838.00
58.2808 1087.00
58.5851 700.00
58.8893 568.00
59.1936 629.00
59.4979 1003.00
59.8021 582.00
60.1064 650.00
60.4106 871.00
60.7149 944.00
61.0192 721.00
61.3234 645.00
61.6277 560.00
61.932 456.00
62.2362 436.00
62.5405 469.00
62.8447 566.00
63.149 686.00
63.4533 752.00
63.7575 589.00
64.0618 577.00
64.366 617.00
64.6703 419.00
64.9745 439.00
65.2788 429.00
65.5831 514.00
65.8873 724.00
66.1916 1371.00
66.4959 816.00
66.8001 494.00
67.1044 467.00
67.4086 455.00
67.7129 475.00
68.0172 467.00
68.3214 461.00
68.6257 500.00
68.9299 467.00
69.2342 433.00
69.5385 448.00
69.8427 621.00
70.147 588.00
70.4512 499.00
70.7555 447.00
71.0598 494.00
71.364 458.00
71.6683 491.00
71.9725 658.00
72.2768 663.00
72.5811 562.00
72.8853 482.00
73.1896 503.00
73.4938 587.00
73.7981 612.00
74.1024 590.00
74.4066 470.00
74.7109 443.00
75.0151 505.00
75.3194 614.00
75.6237 701.00
75.9279 450.00
76.2322 501.00
76.5364 879.00
76.8407 642.00
77.145 510.00
77.4492 408.00
77.7535 430.00
78.0577 448.00
78.362 403.00
78.6663 460.00
78.9705 468.00
79.2748 434.00
79.579 453.00
79.8833 480.00
80.1876 481.00
80.4918 470.00
80.7961 475.00
81.1003 482.00
81.4046 445.00
81.7089 444.00
82.0131 479.00
82.3174 515.00
82.6217 589.00
82.9259 804.00
83.2302 839.00
83.5344 746.00
83.8387 686.00
84.143 577.00
84.4472 775.00
84.7515 830.00
85.0557 603.00
85.36 497.00
85.6643 490.00
85.9685 664.00
86.2728 590.00
86.577 543.00
86.8813 553.00
87.1856 517.00
87.4898 474.00
87.7941 595.00
88.0983 492.00
88.4026 433.00
88.7069 425.00
89.0111 485.00
89.3154 537.00
89.6196 586.00
89.9239 544.00
90.2282 515.00
90.5324 475.00
90.8367 479.00
91.1409 566.00
91.4452 623.00
91.7495 495.00
92.0537 455.00
92.358 530.00
92.6622 494.00
92.9665 526.00
93.2708 479.00
93.575 450.00
93.8793 425.00
94.1835 417.00
94.4878 443.00
94.7921 415.00
95.0963 399.00
95.4006 441.00
95.7048 496.00
96.0091 538.00
96.3134 521.00
96.6176 450.00
96.9219 475.00
97.2261 492.00
97.5304 585.00
97.8347 520.00
98.1389 478.00
98.4432 490.00
98.7474 475.00
99.0517 434.00
99.356 478.00
99.6602 422.00
99.9645 433.00
100.095 428.00