File: data/xrd_creation/results/PG_1120-1.xy
10.0094 2696.00
10.3137 2560.00
10.618 2423.00
10.9222 2475.00
11.2265 2375.00
11.5307 2188.00
11.835 2081.00
12.1393 2188.00
12.4435 2013.00
12.7478 2003.00
13.052 1946.00
13.3563 1845.00
13.6606 1860.00
13.9648 1827.00
14.2691 1879.00
14.5733 1811.00
14.8776 1775.00
15.1819 1718.00
15.4861 1712.00
15.7904 1707.00
16.0946 1673.00
16.3989 1653.00
16.7032 1651.00
17.0074 1654.00
17.3117 2778.00
17.6159 1563.00
17.9202 1640.00
18.2245 1593.00
18.5287 1545.00
18.833 1546.00
19.1372 1555.00
19.4415 1506.00
19.7458 1488.00
20.05 1437.00
20.3543 1339.00
20.6585 1438.00
20.9628 1416.00
21.2671 1373.00
21.5713 1410.00
21.8756 1330.00
22.1798 1295.00
22.4841 1382.00
22.7884 1348.00
23.0926 1390.00
23.3969 1426.00
23.7011 6537.00
24.0054 1756.00
24.3097 1352.00
24.6139 1345.00
24.9182 1304.00
25.2224 1251.00
25.5267 1189.00
25.831 1220.00
26.1352 1227.00
26.4395 1198.00
26.7438 1230.00
27.048 1269.00
27.3523 1219.00
27.6565 1246.00
27.9608 1222.00
28.2651 1229.00
28.5693 1212.00
28.8736 1156.00
29.1778 1211.00
29.4821 1470.00
29.7864 1241.00
30.0906 1224.00
30.3949 1505.00
30.6991 7202.00
31.0034 1296.00
31.3077 1164.00
31.6119 1160.00
31.9162 1127.00
32.2204 1183.00
32.5247 1322.00
32.829 1096.00
33.1332 1042.00
33.4375 1129.00
33.7417 1328.00
34.046 1802.00
34.3503 1161.00
34.6545 1108.00
34.9588 1419.00
35.263 3507.00
35.5673 3712.00
35.8716 1376.00
36.1758 1173.00
36.4801 1097.00
36.7843 1056.00
37.0886 1089.00
37.3929 1104.00
37.6971 1209.00
38.0014 1465.00
38.3056 2740.00
38.6099 4159.00
38.9142 2698.00
39.2184 1393.00
39.5227 1033.00
39.8269 986.00
40.1312 993.00
40.4355 1056.00
40.7397 1040.00
41.044 978.00
41.3482 929.00
41.6525 937.00
41.9568 877.00
42.261 927.00
42.5653 924.00
42.8695 927.00
43.1738 914.00
43.4781 903.00
43.7823 851.00
44.0866 929.00
44.3909 890.00
44.6951 862.00
44.9994 903.00
45.3036 893.00
45.6079 1501.00
45.9122 1063.00
46.2164 1339.00
46.5207 2788.00
46.8249 929.00
47.1292 918.00
47.4335 887.00
47.7377 919.00
48.042 928.00
48.3462 1042.00
48.6505 1580.00
48.9548 1304.00
49.259 956.00
49.5633 872.00
49.8675 833.00
50.1718 862.00
50.4761 784.00
50.7803 819.00
51.0846 780.00
51.3888 814.00
51.6931 766.00
51.9974 825.00
52.3016 879.00
52.6059 824.00
52.9101 863.00
53.2144 928.00
53.5187 950.00
53.8229 923.00
54.1272 842.00
54.4314 754.00
54.7357 814.00
55.04 1233.00
55.3442 807.00
55.6485 779.00
55.9527 780.00
56.257 760.00
56.5613 749.00
56.8655 767.00
57.1698 783.00
57.474 859.00
57.7783 824.00
58.0826 975.00
58.3868 1318.00
58.6911 1376.00
58.9953 884.00
59.2996 717.00
59.6039 769.00
59.9081 824.00
60.2124 719.00
60.5166 736.00
60.8209 750.00
61.1252 839.00
61.4294 1161.00
61.7337 987.00
62.0379 781.00
62.3422 778.00
62.6465 732.00
62.9507 732.00
63.255 717.00
63.5592 833.00
63.8635 1222.00
64.1678 831.00
64.472 784.00
64.7763 789.00
65.0806 744.00
65.3848 868.00
65.6891 983.00
65.9933 977.00
66.2976 1061.00
66.6019 885.00
66.9061 776.00
67.2104 772.00
67.5146 822.00
67.8189 1050.00
68.1232 1021.00
68.4274 821.00
68.7317 742.00
69.0359 703.00
69.3402 709.00
69.6445 1112.00
69.9487 752.00
70.253 648.00
70.5572 615.00
70.8615 671.00
71.1658 682.00
71.47 853.00
71.7743 727.00
72.0785 762.00
72.3828 791.00
72.6871 716.00
72.9913 713.00
73.2956 639.00
73.5998 705.00
73.9041 689.00
74.2084 748.00
74.5126 858.00
74.8169 794.00
75.1211 885.00
75.4254 732.00
75.7297 703.00
76.0339 640.00
76.3382 634.00
76.6424 756.00
76.9467 635.00
77.251 640.00
77.5552 650.00
77.8595 630.00
78.1637 626.00
78.468 657.00
78.7723 638.00
79.0765 682.00
79.3808 990.00
79.685 977.00
79.9893 807.00
80.2936 734.00
80.5978 670.00
80.9021 696.00
81.2063 690.00
81.5106 776.00
81.8149 812.00
82.1191 664.00
82.4234 740.00
82.7277 717.00
83.0319 752.00
83.3362 691.00
83.6404 694.00
83.9447 632.00
84.249 676.00
84.5532 665.00
84.8575 641.00
85.1617 663.00
85.466 718.00
85.7703 671.00
86.0745 630.00
86.3788 634.00
86.683 682.00
86.9873 654.00
87.2916 617.00
87.5958 592.00
87.9001 642.00
88.2043 623.00
88.5086 632.00
88.8129 587.00
89.1171 663.00
89.4214 642.00
89.7256 658.00
90.0299 645.00
90.3342 606.00
90.6384 634.00
90.9427 615.00
91.2469 652.00
91.5512 582.00
91.8555 587.00
92.1597 612.00
92.464 590.00
92.7682 580.00
93.0725 534.00
93.3768 592.00
93.681 594.00
93.9853 596.00
94.2895 606.00
94.5938 591.00
94.8981 614.00
95.2023 753.00
95.5066 680.00
95.8108 647.00
96.1151 614.00
96.4194 622.00
96.7236 607.00
97.0279 576.00
97.3321 633.00
97.6364 584.00
97.9407 625.00
98.2449 643.00
98.5492 597.00
98.8534 608.00
99.1577 687.00
99.462 849.00
99.7662 738.00
99.9944 597.00