File: data/xrd_creation/results/PG_1422-1.xy
10.0094 6348.00
10.3137 6368.00
10.618 6496.00
10.9222 6304.00
11.2265 6362.00
11.5307 6356.00
11.835 6407.00
12.1393 6378.00
12.4435 6481.00
12.7478 6478.00
13.052 6539.00
13.3563 6414.00
13.6606 6357.00
13.9648 6382.00
14.2691 6392.00
14.5733 6294.00
14.8776 6484.00
15.1819 6521.00
15.4861 6490.00
15.7904 6421.00
16.0946 6625.00
16.3989 6511.00
16.7032 6358.00
17.0074 6494.00
17.3117 6491.00
17.6159 6537.00
17.9202 6672.00
18.2245 6707.00
18.5287 7642.00
18.833 12144.00
19.1372 9385.00
19.4415 7008.00
19.7458 6470.00
20.05 6647.00
20.3543 6573.00
20.6585 6510.00
20.9628 6366.00
21.2671 6219.00
21.5713 6603.00
21.8756 6485.00
22.1798 6459.00
22.4841 6472.00
22.7884 6379.00
23.0926 6552.00
23.3969 7240.00
23.7011 6466.00
24.0054 6608.00
24.3097 6514.00
24.6139 6671.00
24.9182 7087.00
25.2224 7146.00
25.5267 6332.00
25.831 6240.00
26.1352 6044.00
26.4395 6235.00
26.7438 6094.00
27.048 6130.00
27.3523 6348.00
27.6565 6290.00
27.9608 6320.00
28.2651 6401.00
28.5693 6324.00
28.8736 6137.00
29.1778 6191.00
29.4821 6430.00
29.7864 6916.00
30.0906 8317.00
30.3949 6665.00
30.6991 6159.00
31.0034 6743.00
31.3077 6074.00
31.6119 6255.00
31.9162 6259.00
32.2204 6538.00
32.5247 6512.00
32.829 6116.00
33.1332 6197.00
33.4375 6220.00
33.7417 6209.00
34.046 7345.00
34.3503 7229.00
34.6545 7475.00
34.9588 6289.00
35.263 6252.00
35.5673 6036.00
35.8716 6184.00
36.1758 6069.00
36.4801 6260.00
36.7843 6048.00
37.0886 6039.00
37.3929 6378.00
37.6971 6311.00
38.0014 6164.00
38.3056 6082.00
38.6099 6270.00
38.9142 5911.00
39.2184 5907.00
39.5227 5980.00
39.8269 5888.00
40.1312 6280.00
40.4355 6270.00
40.7397 6086.00
41.044 6170.00
41.3482 6028.00
41.6525 6081.00
41.9568 6040.00
42.261 5836.00
42.5653 6064.00
42.8695 6496.00
43.1738 6220.00
43.4781 6167.00
43.7823 6103.00
44.0866 5857.00
44.3909 6030.00
44.6951 6396.00
44.9994 6325.00
45.3036 6232.00
45.6079 5995.00
45.9122 5919.00
46.2164 6024.00
46.5207 6082.00
46.8249 6295.00
47.1292 6222.00
47.4335 6358.00
47.7377 6110.00
48.042 5947.00
48.3462 6563.00
48.6505 6160.00
48.9548 6106.00
49.259 5987.00
49.5633 6005.00
49.8675 6005.00
50.1718 6108.00
50.4761 6588.00
50.7803 6357.00
51.0846 6097.00
51.3888 6110.00
51.6931 5972.00
51.9974 5835.00
52.3016 6084.00
52.6059 5969.00
52.9101 5907.00
53.2144 5960.00
53.5187 6074.00
53.8229 5932.00
54.1272 5981.00
54.4314 5993.00
54.7357 6065.00
55.04 5965.00
55.3442 6047.00
55.6485 5938.00
55.9527 5891.00
56.257 6163.00
56.5613 6244.00
56.8655 5890.00
57.1698 5983.00
57.474 6084.00
57.7783 6087.00
58.0826 6153.00
58.3868 6083.00
58.6911 6037.00
58.9953 6089.00
59.2996 5850.00
59.6039 6017.00
59.9081 5914.00
60.2124 6141.00
60.5166 5869.00
60.8209 6028.00
61.1252 5932.00
61.4294 5971.00
61.7337 6191.00
62.0379 6059.00
62.3422 5845.00
62.6465 5920.00
62.9507 5988.00
63.255 5886.00
63.5592 5948.00
63.8635 5938.00
64.1678 6087.00
64.472 5865.00
64.7763 5812.00
65.0806 5923.00
65.3848 5845.00
65.6891 5887.00
65.9933 5910.00
66.2976 6017.00
66.6019 5996.00
66.9061 5891.00
67.2104 5805.00
67.5146 5784.00
67.8189 5983.00
68.1232 5797.00
68.4274 5894.00
68.7317 5932.00
69.0359 5845.00
69.3402 5861.00
69.6445 5918.00
69.9487 5862.00
70.253 5803.00
70.5572 5808.00
70.8615 5866.00
71.1658 5954.00
71.47 5739.00
71.7743 5832.00
72.0785 5840.00
72.3828 5883.00
72.6871 5808.00
72.9913 5864.00
73.2956 5755.00
73.5998 5814.00
73.9041 5782.00
74.2084 5880.00
74.5126 5745.00
74.8169 5807.00
75.1211 5852.00
75.4254 5737.00
75.7297 5794.00
76.0339 5968.00
76.3382 5910.00
76.6424 5833.00
76.9467 5851.00
77.251 5718.00
77.5552 5797.00
77.8595 5900.00
78.1637 5811.00
78.468 5798.00
78.7723 5794.00
79.0765 5917.00
79.3808 5820.00
79.685 5711.00
79.9893 5864.00
80.2936 5958.00
80.5978 5893.00
80.9021 5803.00
81.2063 5842.00
81.5106 5884.00
81.8149 5812.00
82.1191 5860.00
82.4234 5932.00
82.7277 5708.00
83.0319 5881.00
83.3362 5823.00
83.6404 5748.00
83.9447 5629.00
84.249 5788.00
84.5532 5749.00
84.8575 5794.00
85.1617 5809.00
85.466 5773.00
85.7703 5767.00
86.0745 5705.00
86.3788 5736.00
86.683 5734.00
86.9873 5865.00
87.2916 5879.00
87.5958 5709.00
87.9001 5722.00
88.2043 5820.00
88.5086 5783.00
88.8129 5865.00
89.1171 5693.00
89.4214 5730.00
89.7256 5787.00
90.0299 5902.00
90.3342 5704.00
90.6384 5828.00
90.9427 5613.00
91.2469 5827.00
91.5512 5827.00
91.8555 5811.00
92.1597 5946.00
92.464 5821.00
92.7682 5774.00
93.0725 5821.00
93.3768 5745.00
93.681 5917.00
93.9853 5858.00
94.2895 5935.00
94.5938 5792.00
94.8981 5685.00
95.2023 5798.00
95.5066 5770.00
95.8108 5966.00
96.1151 5717.00
96.4194 5871.00
96.7236 5815.00
97.0279 5827.00
97.3321 5845.00
97.6364 5716.00
97.9407 5819.00
98.2449 5881.00
98.5492 5722.00
98.8534 5779.00
99.1577 5766.00
99.462 5748.00
99.7662 5892.00
99.9944 5811.00