File: data/xrd_creation/results/PG_1021-1.xy
10.0094 2394.00
10.3137 2346.00
10.618 2348.00
10.9222 2124.00
11.2265 2200.00
11.5307 2014.00
11.835 1945.00
12.1393 1914.00
12.4435 1797.00
12.7478 1788.00
13.052 1782.00
13.3563 1755.00
13.6606 1748.00
13.9648 1692.00
14.2691 1578.00
14.5733 1660.00
14.8776 1587.00
15.1819 1657.00
15.4861 2006.00
15.7904 4836.00
16.0946 4189.00
16.3989 1840.00
16.7032 1533.00
17.0074 1500.00
17.3117 1489.00
17.6159 1377.00
17.9202 1446.00
18.2245 1348.00
18.5287 1368.00
18.833 1290.00
19.1372 1319.00
19.4415 1285.00
19.7458 1277.00
20.05 1280.00
20.3543 1231.00
20.6585 1255.00
20.9628 1191.00
21.2671 1168.00
21.5713 1206.00
21.8756 1143.00
22.1798 1183.00
22.4841 1090.00
22.7884 1118.00
23.0926 1080.00
23.3969 1055.00
23.7011 1034.00
24.0054 1019.00
24.3097 1046.00
24.6139 1239.00
24.9182 1480.00
25.2224 1018.00
25.5267 1070.00
25.831 983.00
26.1352 952.00
26.4395 957.00
26.7438 1038.00
27.048 1223.00
27.3523 2450.00
27.6565 5891.00
27.9608 2282.00
28.2651 9225.00
28.5693 1992.00
28.8736 1133.00
29.1778 1017.00
29.4821 905.00
29.7864 884.00
30.0906 882.00
30.3949 854.00
30.6991 853.00
31.0034 857.00
31.3077 866.00
31.6119 1071.00
31.9162 2198.00
32.2204 984.00
32.5247 812.00
32.829 797.00
33.1332 747.00
33.4375 748.00
33.7417 990.00
34.046 1312.00
34.3503 712.00
34.6545 672.00
34.9588 759.00
35.263 746.00
35.5673 733.00
35.8716 757.00
36.1758 1095.00
36.4801 2500.00
36.7843 789.00
37.0886 677.00
37.3929 658.00
37.6971 658.00
38.0014 676.00
38.3056 678.00
38.6099 728.00
38.9142 704.00
39.2184 891.00
39.5227 1907.00
39.8269 5592.00
40.1312 1418.00
40.4355 804.00
40.7397 685.00
41.044 691.00
41.3482 643.00
41.6525 772.00
41.9568 823.00
42.261 892.00
42.5653 1411.00
42.8695 806.00
43.1738 581.00
43.4781 623.00
43.7823 609.00
44.0866 605.00
44.3909 589.00
44.6951 647.00
44.9994 566.00
45.3036 596.00
45.6079 579.00
45.9122 580.00
46.2164 617.00
46.5207 601.00
46.8249 621.00
47.1292 776.00
47.4335 1451.00
47.7377 778.00
48.042 871.00
48.3462 1795.00
48.6505 2767.00
48.9548 4866.00
49.259 1615.00
49.5633 778.00
49.8675 735.00
50.1718 1128.00
50.4761 1379.00
50.7803 634.00
51.0846 637.00
51.3888 569.00
51.6931 552.00
51.9974 505.00
52.3016 551.00
52.6059 519.00
52.9101 558.00
53.2144 517.00
53.5187 572.00
53.8229 557.00
54.1272 490.00
54.4314 542.00
54.7357 593.00
55.04 1309.00
55.3442 1278.00
55.6485 1598.00
55.9527 772.00
56.257 751.00
56.5613 1115.00
56.8655 678.00
57.1698 535.00
57.474 552.00
57.7783 562.00
58.0826 773.00
58.3868 637.00
58.6911 712.00
58.9953 801.00
59.2996 678.00
59.6039 487.00
59.9081 465.00
60.2124 512.00
60.5166 477.00
60.8209 476.00
61.1252 477.00
61.4294 450.00
61.7337 472.00
62.0379 479.00
62.3422 439.00
62.6465 494.00
62.9507 511.00
63.255 512.00
63.5592 604.00
63.8635 909.00
64.1678 1237.00
64.472 1196.00
64.7763 663.00
65.0806 713.00
65.3848 1421.00
65.6891 690.00
65.9933 589.00
66.2976 611.00
66.6019 542.00
66.9061 504.00
67.2104 461.00
67.5146 510.00
67.8189 450.00
68.1232 449.00
68.4274 409.00
68.7317 477.00
69.0359 506.00
69.3402 515.00
69.6445 671.00
69.9487 1174.00
70.253 743.00
70.5572 554.00
70.8615 622.00
71.1658 681.00
71.47 578.00
71.7743 513.00
72.0785 490.00
72.3828 497.00
72.6871 508.00
72.9913 614.00
73.2956 656.00
73.5998 523.00
73.9041 448.00
74.2084 474.00
74.5126 485.00
74.8169 410.00
75.1211 475.00
75.4254 481.00
75.7297 527.00
76.0339 758.00
76.3382 785.00
76.6424 836.00
76.9467 750.00
77.251 940.00
77.5552 1289.00
77.8595 1306.00
78.1637 819.00
78.468 697.00
78.7723 664.00
79.0765 598.00
79.3808 510.00
79.685 481.00
79.9893 471.00
80.2936 463.00
80.5978 458.00
80.9021 439.00
81.2063 444.00
81.5106 447.00
81.8149 437.00
82.1191 505.00
82.4234 706.00
82.7277 680.00
83.0319 511.00
83.3362 492.00
83.6404 418.00
83.9447 463.00
84.249 441.00
84.5532 550.00
84.8575 511.00
85.1617 491.00
85.466 487.00
85.7703 533.00
86.0745 479.00
86.3788 453.00
86.683 489.00
86.9873 509.00
87.2916 450.00
87.5958 412.00
87.9001 428.00
88.2043 497.00
88.5086 482.00
88.8129 702.00
89.1171 781.00
89.4214 550.00
89.7256 524.00
90.0299 583.00
90.3342 722.00
90.6384 765.00
90.9427 615.00
91.2469 551.00
91.5512 546.00
91.8555 532.00
92.1597 491.00
92.464 507.00
92.7682 513.00
93.0725 425.00
93.3768 438.00
93.681 447.00
93.9853 458.00
94.2895 463.00
94.5938 446.00
94.8981 478.00
95.2023 502.00
95.5066 808.00
95.8108 920.00
96.1151 739.00
96.4194 618.00
96.7236 630.00
97.0279 721.00
97.3321 602.00
97.6364 587.00
97.9407 508.00
98.2449 464.00
98.5492 488.00
98.8534 485.00
99.1577 468.00
99.462 426.00
99.7662 442.00
99.9944 443.00