File: data/xrd_creation/results/PG_1122-1.xy
10.0094 3171.00
10.3137 3107.00
10.618 2987.00
10.9222 3024.00
11.2265 2932.00
11.5307 2961.00
11.835 2793.00
12.1393 2777.00
12.4435 2891.00
12.7478 2776.00
13.052 2787.00
13.3563 2687.00
13.6606 2733.00
13.9648 2713.00
14.2691 2725.00
14.5733 2736.00
14.8776 2781.00
15.1819 2746.00
15.4861 2784.00
15.7904 2716.00
16.0946 2851.00
16.3989 2699.00
16.7032 2930.00
17.0074 2846.00
17.3117 2757.00
17.6159 2883.00
17.9202 2930.00
18.2245 2907.00
18.5287 2923.00
18.833 3035.00
19.1372 2891.00
19.4415 2879.00
19.7458 2884.00
20.05 2934.00
20.3543 2882.00
20.6585 2824.00
20.9628 3008.00
21.2671 4427.00
21.5713 4413.00
21.8756 2939.00
22.1798 2880.00
22.4841 2916.00
22.7884 2919.00
23.0926 2909.00
23.3969 3279.00
23.7011 3142.00
24.0054 2860.00
24.3097 2826.00
24.6139 2907.00
24.9182 2886.00
25.2224 2924.00
25.5267 3078.00
25.831 2980.00
26.1352 2879.00
26.4395 2895.00
26.7438 2974.00
27.048 2898.00
27.3523 2891.00
27.6565 2961.00
27.9608 2798.00
28.2651 2905.00
28.5693 2875.00
28.8736 2881.00
29.1778 3066.00
29.4821 3563.00
29.7864 3101.00
30.0906 2974.00
30.3949 3380.00
30.6991 5393.00
31.0034 3292.00
31.3077 2948.00
31.6119 3838.00
31.9162 6494.00
32.2204 3562.00
32.5247 4582.00
32.829 3700.00
33.1332 2965.00
33.4375 3062.00
33.7417 3030.00
34.046 3598.00
34.3503 3860.00
34.6545 3482.00
34.9588 3830.00
35.263 7914.00
35.5673 23073.00
35.8716 10787.00
36.1758 4942.00
36.4801 3535.00
36.7843 3553.00
37.0886 4783.00
37.3929 3563.00
37.6971 3594.00
38.0014 4121.00
38.3056 5885.00
38.6099 15251.00
38.9142 21416.00
39.2184 8724.00
39.5227 4511.00
39.8269 3965.00
40.1312 3516.00
40.4355 3064.00
40.7397 2924.00
41.044 2977.00
41.3482 2962.00
41.6525 3021.00
41.9568 2980.00
42.261 3037.00
42.5653 2965.00
42.8695 2967.00
43.1738 2978.00
43.4781 3037.00
43.7823 2975.00
44.0866 2923.00
44.3909 2917.00
44.6951 2844.00
44.9994 2856.00
45.3036 2847.00
45.6079 2874.00
45.9122 2953.00
46.2164 3200.00
46.5207 3084.00
46.8249 2871.00
47.1292 2798.00
47.4335 2841.00
47.7377 2897.00
48.042 3130.00
48.3462 3437.00
48.6505 5791.00
48.9548 8113.00
49.259 4309.00
49.5633 3253.00
49.8675 2972.00
50.1718 2967.00
50.4761 3034.00
50.7803 2912.00
51.0846 2832.00
51.3888 3111.00
51.6931 2942.00
51.9974 2837.00
52.3016 2828.00
52.6059 2985.00
52.9101 3042.00
53.2144 3369.00
53.5187 4199.00
53.8229 3567.00
54.1272 3098.00
54.4314 2837.00
54.7357 2809.00
55.04 2778.00
55.3442 2908.00
55.6485 2882.00
55.9527 2876.00
56.257 2768.00
56.5613 2967.00
56.8655 3060.00
57.1698 2860.00
57.474 2892.00
57.7783 3391.00
58.0826 4038.00
58.3868 5069.00
58.6911 3862.00
58.9953 3314.00
59.2996 3127.00
59.6039 2952.00
59.9081 3132.00
60.2124 2775.00
60.5166 2832.00
60.8209 3056.00
61.1252 3435.00
61.4294 5173.00
61.7337 5926.00
62.0379 3719.00
62.3422 2917.00
62.6465 2875.00
62.9507 2820.00
63.255 2794.00
63.5592 3075.00
63.8635 2882.00
64.1678 2835.00
64.472 2957.00
64.7763 3054.00
65.0806 3235.00
65.3848 3581.00
65.6891 4538.00
65.9933 5034.00
66.2976 5760.00
66.6019 4713.00
66.9061 3530.00
67.2104 3307.00
67.5146 3547.00
67.8189 4474.00
68.1232 5863.00
68.4274 4330.00
68.7317 3189.00
69.0359 2841.00
69.3402 2861.00
69.6445 2858.00
69.9487 2822.00
70.253 2742.00
70.5572 2725.00
70.8615 2752.00
71.1658 2725.00
71.47 2815.00
71.7743 2887.00
72.0785 3091.00
72.3828 3678.00
72.6871 3480.00
72.9913 2907.00
73.2956 2683.00
73.5998 2791.00
73.9041 2910.00
74.2084 2858.00
74.5126 2905.00
74.8169 3484.00
75.1211 4443.00
75.4254 3953.00
75.7297 3013.00
76.0339 2744.00
76.3382 2753.00
76.6424 2638.00
76.9467 2658.00
77.251 2672.00
77.5552 2764.00
77.8595 2734.00
78.1637 2663.00
78.468 2615.00
78.7723 2670.00
79.0765 2639.00
79.3808 2683.00
79.685 2739.00
79.9893 2835.00
80.2936 3025.00
80.5978 2813.00
80.9021 2770.00
81.2063 2613.00
81.5106 2760.00
81.8149 2702.00
82.1191 2973.00
82.4234 3326.00
82.7277 3334.00
83.0319 3360.00
83.3362 3344.00
83.6404 3222.00
83.9447 3053.00
84.249 2725.00
84.5532 2695.00
84.8575 2689.00
85.1617 2646.00
85.466 2731.00
85.7703 2670.00
86.0745 2642.00
86.3788 2778.00
86.683 2785.00
86.9873 2927.00
87.2916 2689.00
87.5958 2675.00
87.9001 2720.00
88.2043 2698.00
88.5086 2669.00
88.8129 2687.00
89.1171 2811.00
89.4214 2892.00
89.7256 3164.00
90.0299 3115.00
90.3342 2820.00
90.6384 2781.00
90.9427 2747.00
91.2469 2730.00
91.5512 2744.00
91.8555 2794.00
92.1597 2728.00
92.464 2847.00
92.7682 2670.00
93.0725 2573.00
93.3768 2664.00
93.681 2652.00
93.9853 2517.00
94.2895 2590.00
94.5938 2589.00
94.8981 2625.00
95.2023 2572.00
95.5066 2657.00
95.8108 2704.00
96.1151 2669.00
96.4194 2603.00
96.7236 2711.00
97.0279 2642.00
97.3321 2631.00
97.6364 2649.00
97.9407 2676.00
98.2449 2798.00
98.5492 2900.00
98.8534 2880.00
99.1577 2864.00
99.462 2988.00
99.7662 3032.00
99.9944 3008.00