File: data/xrd_creation/results/PG_1622-1.xy
10.0094 2751.00
10.3137 2636.00
10.618 2545.00
10.9222 2489.00
11.2265 2646.00
11.5307 4860.00
11.835 5051.00
12.1393 2257.00
12.4435 1999.00
12.7478 1984.00
13.052 1913.00
13.3563 1885.00
13.6606 1870.00
13.9648 1762.00
14.2691 1706.00
14.5733 1773.00
14.8776 1723.00
15.1819 1710.00
15.4861 1641.00
15.7904 1653.00
16.0946 1623.00
16.3989 1902.00
16.7032 1574.00
17.0074 1514.00
17.3117 1582.00
17.6159 1562.00
17.9202 1532.00
18.2245 1484.00
18.5287 1487.00
18.833 1579.00
19.1372 1483.00
19.4415 1587.00
19.7458 1547.00
20.05 2621.00
20.3543 1977.00
20.6585 5176.00
20.9628 4809.00
21.2671 1761.00
21.5713 3737.00
21.8756 1471.00
22.1798 1513.00
22.4841 1488.00
22.7884 1474.00
23.0926 1587.00
23.3969 1888.00
23.7011 2004.00
24.0054 1308.00
24.3097 1384.00
24.6139 1425.00
24.9182 1365.00
25.2224 1601.00
25.5267 2311.00
25.831 4179.00
26.1352 40097.00
26.4395 8357.00
26.7438 2421.00
27.048 1743.00
27.3523 1624.00
27.6565 1524.00
27.9608 1416.00
28.2651 1587.00
28.5693 5928.00
28.8736 1387.00
29.1778 1289.00
29.4821 1329.00
29.7864 1871.00
30.0906 1289.00
30.3949 1227.00
30.6991 1718.00
31.0034 2327.00
31.3077 1257.00
31.6119 1274.00
31.9162 2430.00
32.2204 2119.00
32.5247 1174.00
32.829 1396.00
33.1332 2499.00
33.4375 1104.00
33.7417 1046.00
34.046 1095.00
34.3503 2012.00
34.6545 1161.00
34.9588 1421.00
35.263 1378.00
35.5673 1139.00
35.8716 1439.00
36.1758 4768.00
36.4801 2268.00
36.7843 1396.00
37.0886 3956.00
37.3929 1592.00
37.6971 1261.00
38.0014 1883.00
38.3056 14909.00
38.6099 2042.00
38.9142 3933.00
39.2184 1360.00
39.5227 2037.00
39.8269 7544.00
40.1312 1531.00
40.4355 1172.00
40.7397 1530.00
41.044 992.00
41.3482 1111.00
41.6525 1277.00
41.9568 5438.00
42.261 3880.00
42.5653 1274.00
42.8695 1028.00
43.1738 933.00
43.4781 989.00
43.7823 1037.00
44.0866 1651.00
44.3909 874.00
44.6951 923.00
44.9994 1108.00
45.3036 1543.00
45.6079 897.00
45.9122 844.00
46.2164 833.00
46.5207 792.00
46.8249 821.00
47.1292 927.00
47.4335 1090.00
47.7377 922.00
48.042 909.00
48.3462 1344.00
48.6505 3409.00
48.9548 8778.00
49.259 1555.00
49.5633 945.00
49.8675 836.00
50.1718 1009.00
50.4761 1401.00
50.7803 902.00
51.0846 785.00
51.3888 794.00
51.6931 957.00
51.9974 931.00
52.3016 857.00
52.6059 875.00
52.9101 980.00
53.2144 2814.00
53.5187 2632.00
53.8229 2190.00
54.1272 860.00
54.4314 885.00
54.7357 1022.00
55.04 830.00
55.3442 793.00
55.6485 870.00
55.9527 879.00
56.257 927.00
56.5613 1722.00
56.8655 1021.00
57.1698 896.00
57.474 792.00
57.7783 918.00
58.0826 1002.00
58.3868 1052.00
58.6911 1705.00
58.9953 4896.00
59.2996 4672.00
59.6039 1196.00
59.9081 1341.00
60.2124 1568.00
60.5166 911.00
60.8209 805.00
61.1252 907.00
61.4294 1208.00
61.7337 1371.00
62.0379 2198.00
62.3422 981.00
62.6465 1509.00
62.9507 1015.00
63.255 856.00
63.5592 904.00
63.8635 943.00
64.1678 871.00
64.472 825.00
64.7763 863.00
65.0806 984.00
65.3848 1073.00
65.6891 1543.00
65.9933 6150.00
66.2976 7072.00
66.6019 2430.00
66.9061 1312.00
67.2104 3437.00
67.5146 2755.00
67.8189 1033.00
68.1232 916.00
68.4274 904.00
68.7317 984.00
69.0359 1521.00
69.3402 875.00
69.6445 942.00
69.9487 1137.00
70.253 4006.00
70.5572 1693.00
70.8615 881.00
71.1658 827.00
71.47 925.00
71.7743 840.00
72.0785 844.00
72.3828 819.00
72.6871 1018.00
72.9913 797.00
73.2956 820.00
73.5998 935.00
73.9041 1636.00
74.2084 2015.00
74.5126 923.00
74.8169 859.00
75.1211 854.00
75.4254 833.00
75.7297 768.00
76.0339 926.00
76.3382 999.00
76.6424 1101.00
76.9467 855.00
77.251 934.00
77.5552 2133.00
77.8595 2293.00
78.1637 1258.00
78.468 1023.00
78.7723 1565.00
79.0765 976.00
79.3808 805.00
79.685 987.00
79.9893 1007.00
80.2936 2433.00
80.5978 1450.00
80.9021 829.00
81.2063 759.00
81.5106 825.00
81.8149 895.00
82.1191 841.00
82.4234 1045.00
82.7277 908.00
83.0319 839.00
83.3362 734.00
83.6404 708.00
83.9447 640.00
84.249 647.00
84.5532 650.00
84.8575 752.00
85.1617 974.00
85.466 964.00
85.7703 721.00
86.0745 648.00
86.3788 698.00
86.683 675.00
86.9873 676.00
87.2916 701.00
87.5958 688.00
87.9001 686.00
88.2043 734.00
88.5086 750.00
88.8129 1573.00
89.1171 1218.00
89.4214 768.00
89.7256 1086.00
90.0299 1127.00
90.3342 752.00
90.6384 697.00
90.9427 796.00
91.2469 890.00
91.5512 750.00
91.8555 706.00
92.1597 767.00
92.464 1581.00
92.7682 1269.00
93.0725 850.00
93.3768 1221.00
93.681 995.00
93.9853 689.00
94.2895 718.00
94.5938 729.00
94.8981 708.00
95.2023 680.00
95.5066 749.00
95.8108 1179.00
96.1151 962.00
96.4194 748.00
96.7236 825.00
97.0279 1121.00
97.3321 1061.00
97.6364 774.00
97.9407 745.00
98.2449 721.00
98.5492 720.00
98.8534 782.00
99.1577 939.00
99.462 2067.00
99.7662 2046.00
99.9944 1655.00