File: data/xrd_creation/results/PG_1020-1.xy
10.0094 2637.00
10.3137 2448.00
10.618 2388.00
10.9222 2335.00
11.2265 2237.00
11.5307 2149.00
11.835 2117.00
12.1393 2068.00
12.4435 1951.00
12.7478 1952.00
13.052 1923.00
13.3563 1849.00
13.6606 1806.00
13.9648 1810.00
14.2691 1722.00
14.5733 1739.00
14.8776 1705.00
15.1819 1653.00
15.4861 1680.00
15.7904 1637.00
16.0946 1627.00
16.3989 1590.00
16.7032 1599.00
17.0074 1496.00
17.3117 1570.00
17.6159 2158.00
17.9202 1507.00
18.2245 1570.00
18.5287 1437.00
18.833 1451.00
19.1372 1361.00
19.4415 1379.00
19.7458 1297.00
20.05 1398.00
20.3543 1323.00
20.6585 1313.00
20.9628 1274.00
21.2671 1317.00
21.5713 1201.00
21.8756 1179.00
22.1798 1217.00
22.4841 1225.00
22.7884 1211.00
23.0926 1141.00
23.3969 1213.00
23.7011 1276.00
24.0054 2654.00
24.3097 3583.00
24.6139 1642.00
24.9182 3326.00
25.2224 1216.00
25.5267 1075.00
25.831 1101.00
26.1352 1091.00
26.4395 1077.00
26.7438 1083.00
27.048 1034.00
27.3523 973.00
27.6565 988.00
27.9608 990.00
28.2651 935.00
28.5693 1004.00
28.8736 1028.00
29.1778 914.00
29.4821 945.00
29.7864 1007.00
30.0906 1790.00
30.3949 976.00
30.6991 1051.00
31.0034 8487.00
31.3077 1163.00
31.6119 916.00
31.9162 865.00
32.2204 855.00
32.5247 860.00
32.829 823.00
33.1332 904.00
33.4375 944.00
33.7417 1470.00
34.046 3243.00
34.3503 3831.00
34.6545 905.00
34.9588 857.00
35.263 877.00
35.5673 1797.00
35.8716 868.00
36.1758 933.00
36.4801 4540.00
36.7843 1071.00
37.0886 811.00
37.3929 803.00
37.6971 854.00
38.0014 732.00
38.3056 830.00
38.6099 1114.00
38.9142 989.00
39.2184 750.00
39.5227 766.00
39.8269 765.00
40.1312 1010.00
40.4355 738.00
40.7397 699.00
41.044 993.00
41.3482 743.00
41.6525 1004.00
41.9568 1344.00
42.261 708.00
42.5653 733.00
42.8695 722.00
43.1738 668.00
43.4781 698.00
43.7823 617.00
44.0866 653.00
44.3909 776.00
44.6951 758.00
44.9994 698.00
45.3036 696.00
45.6079 688.00
45.9122 841.00
46.2164 1165.00
46.5207 892.00
46.8249 4411.00
47.1292 770.00
47.4335 686.00
47.7377 685.00
48.042 907.00
48.3462 681.00
48.6505 675.00
48.9548 666.00
49.259 750.00
49.5633 668.00
49.8675 690.00
50.1718 650.00
50.4761 2053.00
50.7803 818.00
51.0846 645.00
51.3888 609.00
51.6931 633.00
51.9974 652.00
52.3016 667.00
52.6059 687.00
52.9101 611.00
53.2144 646.00
53.5187 669.00
53.8229 637.00
54.1272 622.00
54.4314 693.00
54.7357 770.00
55.04 2147.00
55.3442 3214.00
55.6485 763.00
55.9527 658.00
56.257 665.00
56.5613 687.00
56.8655 561.00
57.1698 647.00
57.474 632.00
57.7783 656.00
58.0826 675.00
58.3868 686.00
58.6911 1911.00
58.9953 901.00
59.2996 1051.00
59.6039 646.00
59.9081 569.00
60.2124 737.00
60.5166 629.00
60.8209 623.00
61.1252 607.00
61.4294 592.00
61.7337 638.00
62.0379 593.00
62.3422 665.00
62.6465 590.00
62.9507 586.00
63.255 631.00
63.5592 768.00
63.8635 1461.00
64.1678 951.00
64.472 965.00
64.7763 623.00
65.0806 672.00
65.3848 2165.00
65.6891 943.00
65.9933 560.00
66.2976 576.00
66.6019 618.00
66.9061 622.00
67.2104 608.00
67.5146 608.00
67.8189 575.00
68.1232 572.00
68.4274 623.00
68.7317 611.00
69.0359 601.00
69.3402 615.00
69.6445 614.00
69.9487 1541.00
70.253 717.00
70.5572 621.00
70.8615 588.00
71.1658 580.00
71.47 621.00
71.7743 790.00
72.0785 673.00
72.3828 606.00
72.6871 627.00
72.9913 626.00
73.2956 962.00
73.5998 742.00
73.9041 650.00
74.2084 633.00
74.5126 651.00
74.8169 802.00
75.1211 585.00
75.4254 563.00
75.7297 561.00
76.0339 616.00
76.3382 566.00
76.6424 617.00
76.9467 819.00
77.251 775.00
77.5552 605.00
77.8595 595.00
78.1637 563.00
78.468 566.00
78.7723 604.00
79.0765 641.00
79.3808 795.00
79.685 960.00
79.9893 1069.00
80.2936 759.00
80.5978 549.00
80.9021 615.00
81.2063 612.00
81.5106 599.00
81.8149 753.00
82.1191 831.00
82.4234 666.00
82.7277 602.00
83.0319 644.00
83.3362 548.00
83.6404 600.00
83.9447 594.00
84.249 629.00
84.5532 806.00
84.8575 651.00
85.1617 570.00
85.466 613.00
85.7703 694.00
86.0745 600.00
86.3788 563.00
86.683 767.00
86.9873 708.00
87.2916 635.00
87.5958 577.00
87.9001 544.00
88.2043 537.00
88.5086 570.00
88.8129 551.00
89.1171 573.00
89.4214 622.00
89.7256 551.00
90.0299 584.00
90.3342 854.00
90.6384 809.00
90.9427 623.00
91.2469 573.00
91.5512 552.00
91.8555 584.00
92.1597 597.00
92.464 558.00
92.7682 552.00
93.0725 549.00
93.3768 619.00
93.681 623.00
93.9853 552.00
94.2895 613.00
94.5938 589.00
94.8981 562.00
95.2023 593.00
95.5066 1390.00
95.8108 995.00
96.1151 607.00
96.4194 565.00
96.7236 578.00
97.0279 648.00
97.3321 600.00
97.6364 592.00
97.9407 585.00
98.2449 571.00
98.5492 600.00
98.8534 562.00
99.1577 603.00
99.462 649.00
99.7662 1082.00
99.9944 668.00