File: data/xrd_creation/results/PG_1317-1.xy
10.0094 2337.00
10.3137 2205.00
10.618 2090.00
10.9222 2110.00
11.2265 1993.00
11.5307 1873.00
11.835 1836.00
12.1393 1768.00
12.4435 1794.00
12.7478 1709.00
13.052 1657.00
13.3563 1561.00
13.6606 1575.00
13.9648 1488.00
14.2691 1463.00
14.5733 1510.00
14.8776 1498.00
15.1819 1455.00
15.4861 1412.00
15.7904 1392.00
16.0946 1371.00
16.3989 1329.00
16.7032 1334.00
17.0074 1364.00
17.3117 1232.00
17.6159 1434.00
17.9202 1325.00
18.2245 1259.00
18.5287 1262.00
18.833 1197.00
19.1372 1242.00
19.4415 1251.00
19.7458 1180.00
20.05 1087.00
20.3543 1072.00
20.6585 1181.00
20.9628 1162.00
21.2671 1136.00
21.5713 1144.00
21.8756 1055.00
22.1798 1134.00
22.4841 1058.00
22.7884 1053.00
23.0926 1080.00
23.3969 1100.00
23.7011 1023.00
24.0054 1104.00
24.3097 1691.00
24.6139 1331.00
24.9182 1444.00
25.2224 989.00
25.5267 977.00
25.831 999.00
26.1352 959.00
26.4395 949.00
26.7438 989.00
27.048 962.00
27.3523 1004.00
27.6565 1062.00
27.9608 1120.00
28.2651 1902.00
28.5693 5114.00
28.8736 1384.00
29.1778 1047.00
29.4821 913.00
29.7864 932.00
30.0906 922.00
30.3949 881.00
30.6991 956.00
31.0034 930.00
31.3077 1106.00
31.6119 1925.00
31.9162 4210.00
32.2204 1230.00
32.5247 1024.00
32.829 1007.00
33.1332 1157.00
33.4375 1522.00
33.7417 915.00
34.046 900.00
34.3503 1445.00
34.6545 2033.00
34.9588 1598.00
35.263 997.00
35.5673 1634.00
35.8716 2141.00
36.1758 1189.00
36.4801 977.00
36.7843 886.00
37.0886 880.00
37.3929 907.00
37.6971 841.00
38.0014 833.00
38.3056 898.00
38.6099 922.00
38.9142 1269.00
39.2184 1024.00
39.5227 953.00
39.8269 897.00
40.1312 856.00
40.4355 877.00
40.7397 931.00
41.044 1562.00
41.3482 1345.00
41.6525 1221.00
41.9568 973.00
42.261 855.00
42.5653 849.00
42.8695 806.00
43.1738 865.00
43.4781 910.00
43.7823 865.00
44.0866 875.00
44.3909 797.00
44.6951 850.00
44.9994 930.00
45.3036 1141.00
45.6079 961.00
45.9122 1263.00
46.2164 962.00
46.5207 901.00
46.8249 865.00
47.1292 900.00
47.4335 870.00
47.7377 829.00
48.042 893.00
48.3462 867.00
48.6505 858.00
48.9548 877.00
49.259 999.00
49.5633 1725.00
49.8675 1825.00
50.1718 1071.00
50.4761 1549.00
50.7803 1946.00
51.0846 1768.00
51.3888 1043.00
51.6931 1174.00
51.9974 965.00
52.3016 955.00
52.6059 931.00
52.9101 891.00
53.2144 892.00
53.5187 872.00
53.8229 919.00
54.1272 1272.00
54.4314 1585.00
54.7357 1577.00
55.04 1032.00
55.3442 1069.00
55.6485 1248.00
55.9527 2094.00
56.257 1416.00
56.5613 1445.00
56.8655 986.00
57.1698 962.00
57.474 1137.00
57.7783 1598.00
58.0826 1078.00
58.3868 1363.00
58.6911 1341.00
58.9953 1157.00
59.2996 957.00
59.6039 1031.00
59.9081 1025.00
60.2124 1320.00
60.5166 1707.00
60.8209 1232.00
61.1252 996.00
61.4294 1032.00
61.7337 1192.00
62.0379 1402.00
62.3422 1402.00
62.6465 1818.00
62.9507 1155.00
63.255 1354.00
63.5592 1596.00
63.8635 1124.00
64.1678 1419.00
64.472 1148.00
64.7763 1211.00
65.0806 1154.00
65.3848 1007.00
65.6891 1082.00
65.9933 1314.00
66.2976 1725.00
66.6019 1258.00
66.9061 1037.00
67.2104 1076.00
67.5146 979.00
67.8189 1020.00
68.1232 1014.00
68.4274 1025.00
68.7317 1049.00
69.0359 985.00
69.3402 1069.00
69.6445 1228.00
69.9487 1022.00
70.253 1057.00
70.5572 1051.00
70.8615 1018.00
71.1658 1108.00
71.47 1179.00
71.7743 1549.00
72.0785 1383.00
72.3828 1227.00
72.6871 1230.00
72.9913 1263.00
73.2956 1228.00
73.5998 1133.00
73.9041 1076.00
74.2084 1088.00
74.5126 1057.00
74.8169 1051.00
75.1211 1089.00
75.4254 1242.00
75.7297 1482.00
76.0339 1316.00
76.3382 1127.00
76.6424 1105.00
76.9467 1157.00
77.251 1290.00
77.5552 1148.00
77.8595 1249.00
78.1637 1268.00
78.468 1197.00
78.7723 1246.00
79.0765 1189.00
79.3808 1225.00
79.685 1315.00
79.9893 1155.00
80.2936 1137.00
80.5978 1134.00
80.9021 1170.00
81.2063 1177.00
81.5106 1134.00
81.8149 1192.00
82.1191 1335.00
82.4234 1265.00
82.7277 1188.00
83.0319 1297.00
83.3362 1386.00
83.6404 1298.00
83.9447 1377.00
84.249 1276.00
84.5532 1341.00
84.8575 1493.00
85.1617 1332.00
85.466 1284.00
85.7703 1314.00
86.0745 1171.00
86.3788 1201.00
86.683 1277.00
86.9873 1294.00
87.2916 1229.00
87.5958 1168.00
87.9001 1158.00
88.2043 1440.00
88.5086 1355.00
88.8129 1430.00
89.1171 1442.00
89.4214 1391.00
89.7256 1327.00
90.0299 1312.00
90.3342 1336.00
90.6384 1453.00
90.9427 1409.00
91.2469 1231.00
91.5512 1308.00
91.8555 1284.00
92.1597 1295.00
92.464 1316.00
92.7682 1210.00
93.0725 1217.00
93.3768 1197.00
93.681 1338.00
93.9853 1327.00
94.2895 1301.00
94.5938 1370.00
94.8981 1321.00
95.2023 1281.00
95.5066 1360.00
95.8108 1435.00
96.1151 1451.00
96.4194 1410.00
96.7236 1427.00
97.0279 1530.00
97.3321 1697.00
97.6364 1591.00
97.9407 1553.00
98.2449 1384.00
98.5492 1308.00
98.8534 1498.00
99.1577 1467.00
99.462 1497.00
99.7662 1495.00
99.9944 1538.00