File: data/xrd_creation/results/PG_1938-1.xy
9.903433 3780.00
10.2077 3938.00
10.512 4050.00
10.8162 3882.00
11.1205 3939.00
11.4247 3153.00
11.729 2953.00
12.0333 2829.00
12.3375 2871.00
12.6418 2797.00
12.946 2639.00
13.2503 2477.00
13.5546 2471.00
13.8588 2358.00
14.1631 2402.00
14.4673 2310.00
14.7716 2369.00
15.0759 2302.00
15.3801 2270.00
15.6844 2217.00
15.9886 2237.00
16.2929 2223.00
16.5972 2127.00
16.9014 2065.00
17.2057 2160.00
17.5099 2219.00
17.8142 2210.00
18.1185 1983.00
18.4227 2026.00
18.727 2018.00
19.0312 1982.00
19.3355 1979.00
19.6398 1963.00
19.944 1966.00
20.2483 1911.00
20.5525 2076.00
20.8568 2042.00
21.1611 1975.00
21.4653 1980.00
21.7696 2071.00
22.0738 1988.00
22.3781 2333.00
22.6824 2929.00
22.9866 5463.00
23.2909 2416.00
23.5951 2184.00
23.8994 2279.00
24.2037 2075.00
24.5079 2202.00
24.8122 2316.00
25.1164 2207.00
25.4207 2319.00
25.725 2363.00
26.0292 2272.00
26.3335 2262.00
26.6378 2395.00
26.942 2374.00
27.2463 2605.00
27.5505 2638.00
27.8548 2852.00
28.1591 2970.00
28.4633 3347.00
28.7676 7283.00
29.0718 3666.00
29.3761 4475.00
29.6804 2811.00
29.9846 2654.00
30.2889 2677.00
30.5931 3568.00
30.8974 2795.00
31.2017 2848.00
31.5059 2728.00
31.8102 4156.00
32.1144 4281.00
32.4187 2195.00
32.723 2070.00
33.0272 1945.00
33.3315 2036.00
33.6357 1947.00
33.94 1909.00
34.2443 2006.00
34.5485 2101.00
34.8528 1992.00
35.157 1845.00
35.4613 1818.00
35.7656 1993.00
36.0698 2155.00
36.3741 1965.00
36.6783 2047.00
36.9826 3972.00
37.2869 2252.00
37.5911 2346.00
37.8954 1905.00
38.1996 1897.00
38.5039 1763.00
38.8082 1699.00
39.1124 1698.00
39.4167 1790.00
39.7209 1967.00
40.0252 1638.00
40.3295 1661.00
40.6337 1707.00
40.938 1772.00
41.2422 1795.00
41.5465 1578.00
41.8508 1578.00
42.155 1625.00
42.4593 1702.00
42.7635 1741.00
43.0678 1931.00
43.3721 1711.00
43.6763 1688.00
43.9806 1587.00
44.2849 1626.00
44.5891 1837.00
44.8934 1981.00
45.1976 1913.00
45.5019 2830.00
45.8062 2083.00
46.1104 1840.00
46.4147 2081.00
46.7189 2518.00
47.0232 1934.00
47.3275 1638.00
47.6317 1701.00
47.936 1777.00
48.2402 1651.00
48.5445 1602.00
48.8488 1715.00
49.153 1740.00
49.4573 1710.00
49.7615 1955.00
50.0658 2013.00
50.3701 2243.00
50.6743 1829.00
50.9786 1974.00
51.2828 2708.00
51.5871 2206.00
51.8914 1673.00
52.1956 1698.00
52.4999 1781.00
52.8041 1719.00
53.1084 1611.00
53.4127 1633.00
53.7169 1577.00
54.0212 1524.00
54.3254 1633.00
54.6297 1570.00
54.934 1659.00
55.2382 1827.00
55.5425 2483.00
55.8467 2534.00
56.151 1965.00
56.4553 2471.00
56.7595 2712.00
57.0638 1957.00
57.368 1663.00
57.6723 1636.00
57.9766 1658.00
58.2808 1673.00
58.5851 1660.00
58.8893 1817.00
59.1936 1962.00
59.4979 1752.00
59.8021 1554.00
60.1064 1663.00
60.4106 1696.00
60.7149 1603.00
61.0192 1678.00
61.3234 1674.00
61.6277 1611.00
61.932 1615.00
62.2362 1505.00
62.5405 1608.00
62.8447 1590.00
63.149 1529.00
63.4533 1639.00
63.7575 1654.00
64.0618 1827.00
64.366 1645.00
64.6703 1512.00
64.9745 1502.00
65.2788 1596.00
65.5831 1620.00
65.8873 1676.00
66.1916 1830.00
66.4959 1677.00
66.8001 1582.00
67.1044 1566.00
67.4086 1445.00
67.7129 1472.00
68.0172 1513.00
68.3214 1413.00
68.6257 1479.00
68.9299 1422.00
69.2342 1499.00
69.5385 1375.00
69.8427 1446.00
70.147 1363.00
70.4512 1608.00
70.7555 1575.00
71.0598 1495.00
71.364 1593.00
71.6683 1679.00
71.9725 1449.00
72.2768 1349.00
72.5811 1439.00
72.8853 1362.00
73.1896 1191.00
73.4938 1370.00
73.7981 1455.00
74.1024 1365.00
74.4066 1291.00
74.7109 1391.00
75.0151 1489.00
75.3194 1505.00
75.6237 1422.00
75.9279 1394.00
76.2322 1301.00
76.5364 1392.00
76.8407 1370.00
77.145 1311.00
77.4492 1394.00
77.7535 1414.00
78.0577 1519.00
78.362 1394.00
78.6663 1403.00
78.9705 1403.00
79.2748 1451.00
79.579 1398.00
79.8833 1372.00
80.1876 1372.00
80.4918 1389.00
80.7961 1436.00
81.1003 1403.00
81.4046 1365.00
81.7089 1308.00
82.0131 1365.00
82.3174 1362.00
82.6217 1315.00
82.9259 1377.00
83.2302 1319.00
83.5344 1332.00
83.8387 1368.00
84.143 1339.00
84.4472 1282.00
84.7515 1351.00
85.0557 1381.00
85.36 1331.00
85.6643 1316.00
85.9685 1228.00
86.2728 1338.00
86.577 1312.00
86.8813 1300.00
87.1856 1329.00
87.4898 1361.00
87.7941 1332.00
88.0983 1446.00
88.4026 1295.00
88.7069 1306.00
89.0111 1236.00
89.3154 1338.00
89.6196 1276.00
89.9239 1320.00
90.2282 1294.00
90.5324 1413.00
90.8367 1256.00
91.1409 1279.00
91.4452 1253.00
91.7495 1430.00
92.0537 1435.00
92.358 1435.00
92.6622 1346.00
92.9665 1286.00
93.2708 1372.00
93.575 1323.00
93.8793 1338.00
94.1835 1352.00
94.4878 1396.00
94.7921 1401.00
95.0963 1383.00
95.4006 1300.00
95.7048 1346.00
96.0091 1254.00
96.3134 1347.00
96.6176 1283.00
96.9219 1234.00
97.2261 1321.00
97.5304 1261.00
97.8347 1310.00
98.1389 1334.00
98.4432 1376.00
98.7474 1278.00
99.0517 1299.00
99.356 1372.00
99.6602 1320.00
99.9645 1337.00
100.095 1340.00