File: data/xrd_creation/results/PG_1834-1.xy
9.903433 2718.00
10.2077 2530.00
10.512 2436.00
10.8162 2484.00
11.1205 2368.00
11.4247 2236.00
11.729 2207.00
12.0333 2224.00
12.3375 2092.00
12.6418 1943.00
12.946 2009.00
13.2503 1880.00
13.5546 1877.00
13.8588 1783.00
14.1631 1894.00
14.4673 1793.00
14.7716 1803.00
15.0759 1674.00
15.3801 1730.00
15.6844 1678.00
15.9886 1704.00
16.2929 1626.00
16.5972 1922.00
16.9014 2858.00
17.2057 1586.00
17.5099 1631.00
17.8142 1519.00
18.1185 1488.00
18.4227 1432.00
18.727 1426.00
19.0312 1462.00
19.3355 1421.00
19.6398 1406.00
19.944 1355.00
20.2483 1244.00
20.5525 1312.00
20.8568 1281.00
21.1611 1278.00
21.4653 1669.00
21.7696 3595.00
22.0738 1355.00
22.3781 1255.00
22.6824 1224.00
22.9866 1169.00
23.2909 1172.00
23.5951 1158.00
23.8994 1716.00
24.2037 1126.00
24.5079 1163.00
24.8122 1147.00
25.1164 1004.00
25.4207 985.00
25.725 982.00
26.0292 1031.00
26.3335 955.00
26.6378 951.00
26.942 970.00
27.2463 978.00
27.5505 961.00
27.8548 1016.00
28.1591 971.00
28.4633 943.00
28.7676 943.00
29.0718 1193.00
29.3761 2429.00
29.6804 1057.00
29.9846 1114.00
30.2889 1393.00
30.5931 4589.00
30.8974 26467.00
31.2017 1733.00
31.5059 1094.00
31.8102 965.00
32.1144 920.00
32.4187 896.00
32.723 868.00
33.0272 885.00
33.3315 1017.00
33.6357 879.00
33.94 1080.00
34.2443 804.00
34.5485 777.00
34.8528 790.00
35.157 953.00
35.4613 1709.00
35.7656 8963.00
36.0698 1056.00
36.3741 720.00
36.6783 778.00
36.9826 704.00
37.2869 702.00
37.5911 735.00
37.8954 1710.00
38.1996 983.00
38.5039 641.00
38.8082 648.00
39.1124 698.00
39.4167 623.00
39.7209 601.00
40.0252 887.00
40.3295 655.00
40.6337 626.00
40.938 629.00
41.2422 636.00
41.5465 589.00
41.8508 774.00
42.155 1824.00
42.4593 628.00
42.7635 597.00
43.0678 526.00
43.3721 555.00
43.6763 601.00
43.9806 706.00
44.2849 606.00
44.5891 582.00
44.8934 550.00
45.1976 759.00
45.5019 1109.00
45.8062 1323.00
46.1104 1496.00
46.4147 622.00
46.7189 569.00
47.0232 511.00
47.3275 531.00
47.6317 503.00
47.936 514.00
48.2402 583.00
48.5445 489.00
48.8488 534.00
49.153 573.00
49.4573 905.00
49.7615 691.00
50.0658 584.00
50.3701 573.00
50.6743 699.00
50.9786 1371.00
51.2828 11244.00
51.5871 1240.00
51.8914 759.00
52.1956 541.00
52.4999 543.00
52.8041 731.00
53.1084 845.00
53.4127 559.00
53.7169 479.00
54.0212 500.00
54.3254 456.00
54.6297 765.00
54.934 580.00
55.2382 484.00
55.5425 479.00
55.8467 565.00
56.151 1266.00
56.4553 750.00
56.7595 511.00
57.0638 479.00
57.368 532.00
57.6723 797.00
57.9766 677.00
58.2808 467.00
58.5851 477.00
58.8893 496.00
59.1936 716.00
59.4979 1097.00
59.8021 538.00
60.1064 479.00
60.4106 759.00
60.7149 1977.00
61.0192 4199.00
61.3234 815.00
61.6277 529.00
61.932 548.00
62.2362 811.00
62.5405 1234.00
62.8447 535.00
63.149 496.00
63.4533 569.00
63.7575 784.00
64.0618 1128.00
64.366 496.00
64.6703 404.00
64.9745 470.00
65.2788 724.00
65.5831 699.00
65.8873 415.00
66.1916 389.00
66.4959 455.00
66.8001 733.00
67.1044 501.00
67.4086 391.00
67.7129 434.00
68.0172 511.00
68.3214 979.00
68.6257 592.00
68.9299 462.00
69.2342 423.00
69.5385 510.00
69.8427 592.00
70.147 441.00
70.4512 390.00
70.7555 389.00
71.0598 477.00
71.364 390.00
71.6683 403.00
71.9725 404.00
72.2768 393.00
72.5811 402.00
72.8853 388.00
73.1896 415.00
73.4938 400.00
73.7981 738.00
74.1024 693.00
74.4066 373.00
74.7109 433.00
75.0151 495.00
75.3194 1026.00
75.6237 477.00
75.9279 401.00
76.2322 506.00
76.5364 817.00
76.8407 843.00
77.145 422.00
77.4492 398.00
77.7535 464.00
78.0577 743.00
78.362 446.00
78.6663 428.00
78.9705 470.00
79.2748 718.00
79.579 650.00
79.8833 357.00
80.1876 421.00
80.4918 438.00
80.7961 534.00
81.1003 429.00
81.4046 421.00
81.7089 454.00
82.0131 1090.00
82.3174 736.00
82.6217 380.00
82.9259 471.00
83.2302 1007.00
83.5344 1054.00
83.8387 483.00
84.143 383.00
84.4472 400.00
84.7515 391.00
85.0557 391.00
85.36 399.00
85.6643 461.00
85.9685 1222.00
86.2728 930.00
86.577 453.00
86.8813 392.00
87.1856 390.00
87.4898 453.00
87.7941 422.00
88.0983 361.00
88.4026 415.00
88.7069 588.00
89.0111 459.00
89.3154 390.00
89.6196 387.00
89.9239 647.00
90.2282 574.00
90.5324 391.00
90.8367 323.00
91.1409 389.00
91.4452 382.00
91.7495 358.00
92.0537 360.00
92.358 406.00
92.6622 879.00
92.9665 629.00
93.2708 404.00
93.575 354.00
93.8793 356.00
94.1835 352.00
94.4878 366.00
94.7921 396.00
95.0963 460.00
95.4006 646.00
95.7048 551.00
96.0091 372.00
96.3134 413.00
96.6176 1204.00
96.9219 787.00
97.2261 433.00
97.5304 393.00
97.8347 545.00
98.1389 653.00
98.4432 453.00
98.7474 420.00
99.0517 406.00
99.356 640.00
99.6602 494.00
99.9645 350.00
100.095 345.00