File: data/xrd_creation/results/PG_1743-1.xy
9.903433 2903.00
10.2077 2823.00
10.512 2751.00
10.8162 2547.00
11.1205 2591.00
11.4247 2502.00
11.729 2432.00
12.0333 2336.00
12.3375 2293.00
12.6418 2145.00
12.946 2211.00
13.2503 2106.00
13.5546 2181.00
13.8588 2096.00
14.1631 2062.00
14.4673 2021.00
14.7716 1968.00
15.0759 1953.00
15.3801 1946.00
15.6844 1861.00
15.9886 1904.00
16.2929 1844.00
16.5972 1893.00
16.9014 1870.00
17.2057 1785.00
17.5099 1975.00
17.8142 3260.00
18.1185 1891.00
18.4227 1843.00
18.727 1774.00
19.0312 1809.00
19.3355 1709.00
19.6398 1677.00
19.944 1698.00
20.2483 1738.00
20.5525 1748.00
20.8568 1738.00
21.1611 1634.00
21.4653 1751.00
21.7696 1695.00
22.0738 1648.00
22.3781 1649.00
22.6824 1651.00
22.9866 1595.00
23.2909 1618.00
23.5951 1629.00
23.8994 1659.00
24.2037 1952.00
24.5079 6877.00
24.8122 4058.00
25.1164 2026.00
25.4207 1532.00
25.725 1567.00
26.0292 1540.00
26.3335 1428.00
26.6378 1469.00
26.942 1485.00
27.2463 1439.00
27.5505 1535.00
27.8548 1916.00
28.1591 2591.00
28.4633 9250.00
28.7676 17856.00
29.0718 2839.00
29.3761 1854.00
29.6804 1723.00
29.9846 1617.00
30.2889 1472.00
30.5931 1513.00
30.8974 1661.00
31.2017 1862.00
31.5059 2537.00
31.8102 9965.00
32.1144 10467.00
32.4187 2228.00
32.723 1565.00
33.0272 1376.00
33.3315 1321.00
33.6357 1434.00
33.94 1376.00
34.2443 1751.00
34.5485 6635.00
34.8528 7400.00
35.157 2415.00
35.4613 1912.00
35.7656 7561.00
36.0698 2215.00
36.3741 3490.00
36.6783 1419.00
36.9826 1133.00
37.2869 1138.00
37.5911 1154.00
37.8954 1124.00
38.1996 1189.00
38.5039 1160.00
38.8082 1302.00
39.1124 4058.00
39.4167 1387.00
39.7209 1122.00
40.0252 1138.00
40.3295 1225.00
40.6337 1327.00
40.938 1455.00
41.2422 4928.00
41.5465 2218.00
41.8508 2473.00
42.155 1417.00
42.4593 1088.00
42.7635 1010.00
43.0678 1046.00
43.3721 966.00
43.6763 995.00
43.9806 1025.00
44.2849 1001.00
44.5891 1007.00
44.8934 1085.00
45.1976 1447.00
45.5019 1970.00
45.8062 1494.00
46.1104 2989.00
46.4147 1175.00
46.7189 1002.00
47.0232 954.00
47.3275 959.00
47.6317 961.00
47.936 955.00
48.2402 963.00
48.5445 1006.00
48.8488 1007.00
49.153 1101.00
49.4573 1663.00
49.7615 4753.00
50.0658 2577.00
50.3701 1504.00
50.6743 7190.00
50.9786 3132.00
51.2828 3389.00
51.5871 1421.00
51.8914 2190.00
52.1956 1129.00
52.4999 1065.00
52.8041 1014.00
53.1084 959.00
53.4127 939.00
53.7169 1018.00
54.0212 1066.00
54.3254 1294.00
54.6297 3422.00
54.934 2409.00
55.2382 1486.00
55.5425 1400.00
55.8467 3421.00
56.151 4765.00
56.4553 2945.00
56.7595 2295.00
57.0638 1166.00
57.368 1234.00
57.6723 2118.00
57.9766 2657.00
58.2808 1445.00
58.5851 2637.00
58.8893 2452.00
59.1936 1230.00
59.4979 1077.00
59.8021 1101.00
60.1064 1222.00
60.4106 3527.00
60.7149 3384.00
61.0192 1358.00
61.3234 1107.00
61.6277 1125.00
61.932 2369.00
62.2362 2171.00
62.5405 3009.00
62.8447 1827.00
63.149 1353.00
63.4533 2975.00
63.7575 2212.00
64.0618 1104.00
64.366 1047.00
64.6703 1339.00
64.9745 2032.00
65.2788 1109.00
65.5831 1057.00
65.8873 1320.00
66.1916 2116.00
66.4959 2820.00
66.8001 1416.00
67.1044 990.00
67.4086 881.00
67.7129 885.00
68.0172 927.00
68.3214 876.00
68.6257 887.00
68.9299 936.00
69.2342 991.00
69.5385 1317.00
69.8427 1443.00
70.147 1068.00
70.4512 1018.00
70.7555 961.00
71.0598 1011.00
71.364 1038.00
71.6683 1588.00
71.9725 2475.00
72.2768 1224.00
72.5811 1214.00
72.8853 1488.00
73.1896 1350.00
73.4938 1392.00
73.7981 933.00
74.1024 963.00
74.4066 972.00
74.7109 881.00
75.0151 898.00
75.3194 1236.00
75.6237 1481.00
75.9279 1969.00
76.2322 1243.00
76.5364 992.00
76.8407 982.00
77.145 1463.00
77.4492 1308.00
77.7535 1138.00
78.0577 1257.00
78.362 1295.00
78.6663 1188.00
78.9705 1178.00
79.2748 1017.00
79.579 1418.00
79.8833 1382.00
80.1876 983.00
80.4918 909.00
80.7961 894.00
81.1003 992.00
81.4046 1014.00
81.7089 987.00
82.0131 1161.00
82.3174 1639.00
82.6217 1258.00
82.9259 1095.00
83.2302 1272.00
83.5344 1453.00
83.8387 1683.00
84.143 1679.00
84.4472 1358.00
84.7515 1636.00
85.0557 1653.00
85.36 1126.00
85.6643 1409.00
85.9685 1295.00
86.2728 920.00
86.577 954.00
86.8813 1273.00
87.1856 1151.00
87.4898 914.00
87.7941 946.00
88.0983 1070.00
88.4026 1479.00
88.7069 1263.00
89.0111 1539.00
89.3154 1750.00
89.6196 1412.00
89.9239 1204.00
90.2282 1308.00
90.5324 1494.00
90.8367 1511.00
91.1409 1079.00
91.4452 1004.00
91.7495 1102.00
92.0537 1041.00
92.358 1040.00
92.6622 906.00
92.9665 941.00
93.2708 884.00
93.575 872.00
93.8793 911.00
94.1835 860.00
94.4878 996.00
94.7921 1195.00
95.0963 1047.00
95.4006 1018.00
95.7048 1274.00
96.0091 1566.00
96.3134 1290.00
96.6176 1108.00
96.9219 1356.00
97.2261 1449.00
97.5304 1905.00
97.8347 1941.00
98.1389 1395.00
98.4432 1125.00
98.7474 1101.00
99.0517 1354.00
99.356 1308.00
99.6602 1474.00
99.9645 1486.00
100.095 1547.00