File: data/xrd_creation/results/PG_1950-1.xy
9.903433 2515.00
10.2077 2422.00
10.512 2285.00
10.8162 2271.00
11.1205 2152.00
11.4247 1922.00
11.729 1982.00
12.0333 1942.00
12.3375 1818.00
12.6418 1849.00
12.946 1711.00
13.2503 1620.00
13.5546 1528.00
13.8588 1566.00
14.1631 1474.00
14.4673 1478.00
14.7716 1332.00
15.0759 1333.00
15.3801 1298.00
15.6844 1302.00
15.9886 1294.00
16.2929 1275.00
16.5972 1266.00
16.9014 1196.00
17.2057 1209.00
17.5099 1143.00
17.8142 1158.00
18.1185 1102.00
18.4227 1058.00
18.727 1014.00
19.0312 998.00
19.3355 984.00
19.6398 999.00
19.944 941.00
20.2483 1088.00
20.5525 985.00
20.8568 889.00
21.1611 908.00
21.4653 887.00
21.7696 848.00
22.0738 892.00
22.3781 839.00
22.6824 847.00
22.9866 886.00
23.2909 754.00
23.5951 711.00
23.8994 785.00
24.2037 755.00
24.5079 780.00
24.8122 724.00
25.1164 736.00
25.4207 729.00
25.725 817.00
26.0292 668.00
26.3335 718.00
26.6378 702.00
26.942 661.00
27.2463 663.00
27.5505 662.00
27.8548 648.00
28.1591 658.00
28.4633 646.00
28.7676 835.00
29.0718 3352.00
29.3761 796.00
29.6804 608.00
29.9846 595.00
30.2889 608.00
30.5931 618.00
30.8974 574.00
31.2017 558.00
31.5059 550.00
31.8102 559.00
32.1144 698.00
32.4187 641.00
32.723 568.00
33.0272 477.00
33.3315 483.00
33.6357 1057.00
33.94 549.00
34.2443 513.00
34.5485 495.00
34.8528 488.00
35.157 442.00
35.4613 484.00
35.7656 514.00
36.0698 438.00
36.3741 395.00
36.6783 434.00
36.9826 432.00
37.2869 382.00
37.5911 421.00
37.8954 430.00
38.1996 436.00
38.5039 460.00
38.8082 391.00
39.1124 403.00
39.4167 407.00
39.7209 555.00
40.0252 375.00
40.3295 383.00
40.6337 350.00
40.938 327.00
41.2422 415.00
41.5465 415.00
41.8508 355.00
42.155 393.00
42.4593 349.00
42.7635 316.00
43.0678 401.00
43.3721 546.00
43.6763 331.00
43.9806 335.00
44.2849 344.00
44.5891 339.00
44.8934 343.00
45.1976 323.00
45.5019 314.00
45.8062 331.00
46.1104 268.00
46.4147 340.00
46.7189 347.00
47.0232 331.00
47.3275 291.00
47.6317 325.00
47.936 277.00
48.2402 420.00
48.5445 731.00
48.8488 305.00
49.153 280.00
49.4573 279.00
49.7615 291.00
50.0658 331.00
50.3701 287.00
50.6743 298.00
50.9786 249.00
51.2828 327.00
51.5871 325.00
51.8914 268.00
52.1956 248.00
52.4999 266.00
52.8041 301.00
53.1084 364.00
53.4127 264.00
53.7169 280.00
54.0212 291.00
54.3254 257.00
54.6297 294.00
54.934 240.00
55.2382 230.00
55.5425 250.00
55.8467 249.00
56.151 282.00
56.4553 258.00
56.7595 247.00
57.0638 256.00
57.368 334.00
57.6723 488.00
57.9766 230.00
58.2808 224.00
58.5851 274.00
58.8893 314.00
59.1936 215.00
59.4979 234.00
59.8021 224.00
60.1064 208.00
60.4106 293.00
60.7149 238.00
61.0192 198.00
61.3234 223.00
61.6277 193.00
61.932 194.00
62.2362 214.00
62.5405 222.00
62.8447 259.00
63.149 198.00
63.4533 221.00
63.7575 189.00
64.0618 211.00
64.366 238.00
64.6703 222.00
64.9745 182.00
65.2788 202.00
65.5831 183.00
65.8873 227.00
66.1916 193.00
66.4959 199.00
66.8001 203.00
67.1044 234.00
67.4086 203.00
67.7129 211.00
68.0172 215.00
68.3214 203.00
68.6257 194.00
68.9299 180.00
69.2342 194.00
69.5385 201.00
69.8427 213.00
70.147 218.00
70.4512 192.00
70.7555 209.00
71.0598 256.00
71.364 209.00
71.6683 201.00
71.9725 205.00
72.2768 260.00
72.5811 220.00
72.8853 222.00
73.1896 208.00
73.4938 225.00
73.7981 219.00
74.1024 194.00
74.4066 164.00
74.7109 242.00
75.0151 227.00
75.3194 193.00
75.6237 191.00
75.9279 208.00
76.2322 230.00
76.5364 199.00
76.8407 207.00
77.145 217.00
77.4492 261.00
77.7535 237.00
78.0577 226.00
78.362 247.00
78.6663 247.00
78.9705 215.00
79.2748 222.00
79.579 232.00
79.8833 264.00
80.1876 249.00
80.4918 230.00
80.7961 243.00
81.1003 239.00
81.4046 227.00
81.7089 193.00
82.0131 228.00
82.3174 205.00
82.6217 236.00
82.9259 212.00
83.2302 207.00
83.5344 213.00
83.8387 262.00
84.143 227.00
84.4472 243.00
84.7515 241.00
85.0557 226.00
85.36 203.00
85.6643 212.00
85.9685 225.00
86.2728 244.00
86.577 196.00
86.8813 236.00
87.1856 204.00
87.4898 206.00
87.7941 206.00
88.0983 206.00
88.4026 191.00
88.7069 191.00
89.0111 207.00
89.3154 188.00
89.6196 196.00
89.9239 204.00
90.2282 185.00
90.5324 205.00
90.8367 197.00
91.1409 204.00
91.4452 200.00
91.7495 218.00
92.0537 192.00
92.358 169.00
92.6622 203.00
92.9665 190.00
93.2708 191.00
93.575 201.00
93.8793 191.00
94.1835 196.00
94.4878 180.00
94.7921 181.00
95.0963 180.00
95.4006 211.00
95.7048 213.00
96.0091 206.00
96.3134 184.00
96.6176 199.00
96.9219 176.00
97.2261 203.00
97.5304 181.00
97.8347 216.00
98.1389 175.00
98.4432 186.00
98.7474 167.00
99.0517 201.00
99.356 181.00
99.6602 198.00
99.9645 185.00
100.095 194.00