File: data/xrd_creation/results/PG_1119-1.xy
10.0094 2272.00
10.3137 2068.00
10.618 2159.00
10.9222 1970.00
11.2265 1863.00
11.5307 1769.00
11.835 1774.00
12.1393 1625.00
12.4435 1535.00
12.7478 1519.00
13.052 1493.00
13.3563 1425.00
13.6606 1306.00
13.9648 1274.00
14.2691 1282.00
14.5733 1270.00
14.8776 1177.00
15.1819 1273.00
15.4861 1193.00
15.7904 1109.00
16.0946 1099.00
16.3989 1131.00
16.7032 1069.00
17.0074 1045.00
17.3117 997.00
17.6159 970.00
17.9202 946.00
18.2245 961.00
18.5287 1000.00
18.833 892.00
19.1372 962.00
19.4415 897.00
19.7458 841.00
20.05 830.00
20.3543 824.00
20.6585 777.00
20.9628 761.00
21.2671 785.00
21.5713 771.00
21.8756 685.00
22.1798 723.00
22.4841 704.00
22.7884 695.00
23.0926 691.00
23.3969 670.00
23.7011 669.00
24.0054 630.00
24.3097 650.00
24.6139 607.00
24.9182 609.00
25.2224 621.00
25.5267 575.00
25.831 612.00
26.1352 548.00
26.4395 582.00
26.7438 511.00
27.048 582.00
27.3523 540.00
27.6565 539.00
27.9608 564.00
28.2651 561.00
28.5693 606.00
28.8736 525.00
29.1778 588.00
29.4821 495.00
29.7864 509.00
30.0906 463.00
30.3949 519.00
30.6991 469.00
31.0034 440.00
31.3077 434.00
31.6119 475.00
31.9162 419.00
32.2204 437.00
32.5247 390.00
32.829 419.00
33.1332 430.00
33.4375 428.00
33.7417 426.00
34.046 380.00
34.3503 362.00
34.6545 379.00
34.9588 396.00
35.263 352.00
35.5673 374.00
35.8716 352.00
36.1758 363.00
36.4801 392.00
36.7843 356.00
37.0886 347.00
37.3929 332.00
37.6971 361.00
38.0014 345.00
38.3056 333.00
38.6099 293.00
38.9142 311.00
39.2184 329.00
39.5227 329.00
39.8269 329.00
40.1312 325.00
40.4355 277.00
40.7397 288.00
41.044 273.00
41.3482 323.00
41.6525 290.00
41.9568 272.00
42.261 283.00
42.5653 279.00
42.8695 290.00
43.1738 283.00
43.4781 312.00
43.7823 258.00
44.0866 311.00
44.3909 277.00
44.6951 264.00
44.9994 250.00
45.3036 280.00
45.6079 263.00
45.9122 237.00
46.2164 290.00
46.5207 241.00
46.8249 264.00
47.1292 276.00
47.4335 237.00
47.7377 264.00
48.042 226.00
48.3462 221.00
48.6505 260.00
48.9548 256.00
49.259 241.00
49.5633 262.00
49.8675 235.00
50.1718 221.00
50.4761 260.00
50.7803 221.00
51.0846 224.00
51.3888 205.00
51.6931 241.00
51.9974 196.00
52.3016 244.00
52.6059 232.00
52.9101 210.00
53.2144 207.00
53.5187 230.00
53.8229 197.00
54.1272 233.00
54.4314 208.00
54.7357 226.00
55.04 203.00
55.3442 243.00
55.6485 204.00
55.9527 203.00
56.257 199.00
56.5613 214.00
56.8655 195.00
57.1698 169.00
57.474 170.00
57.7783 227.00
58.0826 207.00
58.3868 193.00
58.6911 213.00
58.9953 195.00
59.2996 169.00
59.6039 199.00
59.9081 165.00
60.2124 193.00
60.5166 187.00
60.8209 182.00
61.1252 171.00
61.4294 180.00
61.7337 208.00
62.0379 184.00
62.3422 180.00
62.6465 179.00
62.9507 194.00
63.255 191.00
63.5592 155.00
63.8635 170.00
64.1678 185.00
64.472 172.00
64.7763 155.00
65.0806 163.00
65.3848 165.00
65.6891 178.00
65.9933 202.00
66.2976 179.00
66.6019 161.00
66.9061 142.00
67.2104 190.00
67.5146 199.00
67.8189 144.00
68.1232 153.00
68.4274 152.00
68.7317 156.00
69.0359 171.00
69.3402 167.00
69.6445 213.00
69.9487 145.00
70.253 165.00
70.5572 208.00
70.8615 151.00
71.1658 167.00
71.47 174.00
71.7743 182.00
72.0785 185.00
72.3828 183.00
72.6871 162.00
72.9913 194.00
73.2956 192.00
73.5998 182.00
73.9041 167.00
74.2084 160.00
74.5126 170.00
74.8169 155.00
75.1211 171.00
75.4254 182.00
75.7297 190.00
76.0339 160.00
76.3382 163.00
76.6424 201.00
76.9467 187.00
77.251 198.00
77.5552 181.00
77.8595 202.00
78.1637 182.00
78.468 199.00
78.7723 182.00
79.0765 189.00
79.3808 194.00
79.685 160.00
79.9893 209.00
80.2936 228.00
80.5978 216.00
80.9021 210.00
81.2063 229.00
81.5106 195.00
81.8149 179.00
82.1191 190.00
82.4234 215.00
82.7277 186.00
83.0319 210.00
83.3362 195.00
83.6404 203.00
83.9447 195.00
84.249 177.00
84.5532 191.00
84.8575 192.00
85.1617 192.00
85.466 187.00
85.7703 212.00
86.0745 164.00
86.3788 182.00
86.683 169.00
86.9873 173.00
87.2916 158.00
87.5958 158.00
87.9001 177.00
88.2043 188.00
88.5086 151.00
88.8129 177.00
89.1171 163.00
89.4214 190.00
89.7256 170.00
90.0299 186.00
90.3342 175.00
90.6384 148.00
90.9427 154.00
91.2469 149.00
91.5512 176.00
91.8555 167.00
92.1597 154.00
92.464 169.00
92.7682 183.00
93.0725 171.00
93.3768 168.00
93.681 135.00
93.9853 141.00
94.2895 168.00
94.5938 149.00
94.8981 159.00
95.2023 163.00
95.5066 149.00
95.8108 174.00
96.1151 164.00
96.4194 161.00
96.7236 182.00
97.0279 171.00
97.3321 162.00
97.6364 172.00
97.9407 173.00
98.2449 155.00
98.5492 158.00
98.8534 144.00
99.1577 160.00
99.462 178.00
99.7662 165.00
99.9944 140.00