File: data/xrd_creation/results/PG_1752-1.xy
9.903433 2551.00
10.2077 2283.00
10.512 2304.00
10.8162 2245.00
11.1205 2051.00
11.4247 2021.00
11.729 1923.00
12.0333 1950.00
12.3375 1820.00
12.6418 1732.00
12.946 1608.00
13.2503 1776.00
13.5546 1640.00
13.8588 1614.00
14.1631 1517.00
14.4673 1534.00
14.7716 1479.00
15.0759 1461.00
15.3801 1449.00
15.6844 1352.00
15.9886 1370.00
16.2929 1357.00
16.5972 1397.00
16.9014 1339.00
17.2057 1269.00
17.5099 1460.00
17.8142 1440.00
18.1185 1194.00
18.4227 1212.00
18.727 1103.00
19.0312 1141.00
19.3355 1146.00
19.6398 1149.00
19.944 1072.00
20.2483 1127.00
20.5525 1057.00
20.8568 1018.00
21.1611 1062.00
21.4653 1057.00
21.7696 1005.00
22.0738 1069.00
22.3781 937.00
22.6824 972.00
22.9866 1022.00
23.2909 1012.00
23.5951 970.00
23.8994 1063.00
24.2037 1659.00
24.5079 1791.00
24.8122 1656.00
25.1164 946.00
25.4207 931.00
25.725 869.00
26.0292 899.00
26.3335 832.00
26.6378 853.00
26.942 829.00
27.2463 909.00
27.5505 972.00
27.8548 1023.00
28.1591 2196.00
28.4633 7573.00
28.7676 2309.00
29.0718 1048.00
29.3761 912.00
29.6804 830.00
29.9846 792.00
30.2889 812.00
30.5931 824.00
30.8974 901.00
31.2017 1076.00
31.5059 2219.00
31.8102 6010.00
32.1144 1697.00
32.4187 923.00
32.723 763.00
33.0272 694.00
33.3315 709.00
33.6357 701.00
33.94 829.00
34.2443 1475.00
34.5485 2964.00
34.8528 2317.00
35.157 933.00
35.4613 1397.00
35.7656 2374.00
36.0698 1040.00
36.3741 1091.00
36.6783 708.00
36.9826 648.00
37.2869 602.00
37.5911 679.00
37.8954 624.00
38.1996 653.00
38.5039 625.00
38.8082 992.00
39.1124 1093.00
39.4167 704.00
39.7209 647.00
40.0252 671.00
40.3295 695.00
40.6337 747.00
40.938 1331.00
41.2422 1751.00
41.5465 1187.00
41.8508 1072.00
42.155 683.00
42.4593 657.00
42.7635 577.00
43.0678 606.00
43.3721 618.00
43.6763 613.00
43.9806 622.00
44.2849 624.00
44.5891 656.00
44.8934 739.00
45.1976 968.00
45.5019 822.00
45.8062 1062.00
46.1104 904.00
46.4147 619.00
46.7189 564.00
47.0232 566.00
47.3275 549.00
47.6317 620.00
47.936 558.00
48.2402 563.00
48.5445 624.00
48.8488 643.00
49.153 827.00
49.4573 1652.00
49.7615 2244.00
50.0658 1009.00
50.3701 1841.00
50.6743 3068.00
50.9786 1784.00
51.2828 1162.00
51.5871 997.00
51.8914 870.00
52.1956 675.00
52.4999 605.00
52.8041 623.00
53.1084 622.00
53.4127 587.00
53.7169 642.00
54.0212 718.00
54.3254 1355.00
54.6297 1687.00
54.934 914.00
55.2382 886.00
55.5425 1330.00
55.8467 2281.00
56.151 1892.00
56.4553 1602.00
56.7595 885.00
57.0638 722.00
57.368 1056.00
57.6723 1396.00
57.9766 1058.00
58.2808 1049.00
58.5851 1284.00
58.8893 1043.00
59.1936 722.00
59.4979 652.00
59.8021 831.00
60.1064 1253.00
60.4106 1823.00
60.7149 1188.00
61.0192 661.00
61.3234 739.00
61.6277 946.00
61.932 1356.00
62.2362 1246.00
62.5405 1344.00
62.8447 947.00
63.149 1154.00
63.4533 1612.00
63.7575 894.00
64.0618 646.00
64.366 781.00
64.6703 916.00
64.9745 887.00
65.2788 736.00
65.5831 849.00
65.8873 1282.00
66.1916 1395.00
66.4959 1274.00
66.8001 765.00
67.1044 655.00
67.4086 610.00
67.7129 605.00
68.0172 644.00
68.3214 593.00
68.6257 574.00
68.9299 605.00
69.2342 722.00
69.5385 874.00
69.8427 791.00
70.147 691.00
70.4512 765.00
70.7555 680.00
71.0598 744.00
71.364 907.00
71.6683 1242.00
71.9725 1111.00
72.2768 788.00
72.5811 858.00
72.8853 832.00
73.1896 858.00
73.4938 767.00
73.7981 640.00
74.1024 691.00
74.4066 659.00
74.7109 649.00
75.0151 757.00
75.3194 1022.00
75.6237 1007.00
75.9279 1078.00
76.2322 769.00
76.5364 759.00
76.8407 760.00
77.145 886.00
77.4492 861.00
77.7535 778.00
78.0577 909.00
78.362 873.00
78.6663 828.00
78.9705 782.00
79.2748 800.00
79.579 897.00
79.8833 813.00
80.1876 696.00
80.4918 657.00
80.7961 643.00
81.1003 723.00
81.4046 729.00
81.7089 818.00
82.0131 853.00
82.3174 986.00
82.6217 844.00
82.9259 839.00
83.2302 1072.00
83.5344 1000.00
83.8387 1066.00
84.143 1023.00
84.4472 937.00
84.7515 1044.00
85.0557 1002.00
85.36 811.00
85.6643 915.00
85.9685 734.00
86.2728 720.00
86.577 738.00
86.8813 859.00
87.1856 780.00
87.4898 794.00
87.7941 798.00
88.0983 890.00
88.4026 1021.00
88.7069 1091.00
89.0111 1099.00
89.3154 1123.00
89.6196 924.00
89.9239 962.00
90.2282 933.00
90.5324 1062.00
90.8367 1024.00
91.1409 734.00
91.4452 804.00
91.7495 768.00
92.0537 858.00
92.358 835.00
92.6622 693.00
92.9665 736.00
93.2708 744.00
93.575 702.00
93.8793 879.00
94.1835 811.00
94.4878 859.00
94.7921 872.00
95.0963 838.00
95.4006 919.00
95.7048 915.00
96.0091 1013.00
96.3134 1074.00
96.6176 1049.00
96.9219 1144.00
97.2261 1178.00
97.5304 1263.00
97.8347 1210.00
98.1389 1028.00
98.4432 864.00
98.7474 1017.00
99.0517 1014.00
99.356 1040.00
99.6602 1086.00
99.9645 1137.00
100.095 1129.00