File: data/xrd_creation/results/PG_1945-1.xy
9.903433 2752.00
10.2077 2642.00
10.512 2551.00
10.8162 2463.00
11.1205 2296.00
11.4247 2360.00
11.729 2250.00
12.0333 2071.00
12.3375 2078.00
12.6418 2087.00
12.946 2052.00
13.2503 1964.00
13.5546 1942.00
13.8588 1880.00
14.1631 1841.00
14.4673 1843.00
14.7716 1894.00
15.0759 1832.00
15.3801 1864.00
15.6844 1755.00
15.9886 1757.00
16.2929 1704.00
16.5972 1662.00
16.9014 1637.00
17.2057 1624.00
17.5099 1662.00
17.8142 1660.00
18.1185 1631.00
18.4227 1676.00
18.727 1575.00
19.0312 1562.00
19.3355 1593.00
19.6398 1538.00
19.944 1572.00
20.2483 1635.00
20.5525 1770.00
20.8568 1589.00
21.1611 1589.00
21.4653 1580.00
21.7696 1471.00
22.0738 1442.00
22.3781 1448.00
22.6824 1439.00
22.9866 1489.00
23.2909 1599.00
23.5951 1433.00
23.8994 1482.00
24.2037 1515.00
24.5079 1581.00
24.8122 1877.00
25.1164 5112.00
25.4207 7528.00
25.725 3989.00
26.0292 4409.00
26.3335 1814.00
26.6378 1502.00
26.942 1364.00
27.2463 1413.00
27.5505 1408.00
27.8548 1408.00
28.1591 1341.00
28.4633 1335.00
28.7676 1521.00
29.0718 1400.00
29.3761 1603.00
29.6804 2082.00
29.9846 1863.00
30.2889 1351.00
30.5931 1479.00
30.8974 2677.00
31.2017 1729.00
31.5059 2225.00
31.8102 3066.00
32.1144 1428.00
32.4187 1268.00
32.723 1402.00
33.0272 1217.00
33.3315 1262.00
33.6357 1328.00
33.94 1314.00
34.2443 1434.00
34.5485 1775.00
34.8528 1710.00
35.157 2071.00
35.4613 1986.00
35.7656 1575.00
36.0698 2420.00
36.3741 4275.00
36.6783 4301.00
36.9826 1902.00
37.2869 1321.00
37.5911 1219.00
37.8954 1319.00
38.1996 1538.00
38.5039 1357.00
38.8082 1472.00
39.1124 1768.00
39.4167 1207.00
39.7209 1230.00
40.0252 1228.00
40.3295 1143.00
40.6337 1157.00
40.938 1167.00
41.2422 1476.00
41.5465 1925.00
41.8508 1272.00
42.155 1075.00
42.4593 1105.00
42.7635 1164.00
43.0678 1293.00
43.3721 1396.00
43.6763 1342.00
43.9806 2441.00
44.2849 4120.00
44.5891 1653.00
44.8934 1360.00
45.1976 1462.00
45.5019 1689.00
45.8062 2450.00
46.1104 1433.00
46.4147 1616.00
46.7189 1986.00
47.0232 1608.00
47.3275 1407.00
47.6317 2592.00
47.936 2600.00
48.2402 1300.00
48.5445 1100.00
48.8488 1094.00
49.153 1109.00
49.4573 1342.00
49.7615 2191.00
50.0658 2791.00
50.3701 2138.00
50.6743 1423.00
50.9786 1176.00
51.2828 1005.00
51.5871 1214.00
51.8914 1234.00
52.1956 992.00
52.4999 1126.00
52.8041 1152.00
53.1084 1174.00
53.4127 972.00
53.7169 936.00
54.0212 941.00
54.3254 951.00
54.6297 908.00
54.934 987.00
55.2382 1156.00
55.5425 1108.00
55.8467 974.00
56.151 994.00
56.4553 957.00
56.7595 1132.00
57.0638 1275.00
57.368 1543.00
57.6723 1300.00
57.9766 1077.00
58.2808 958.00
58.5851 1094.00
58.8893 1413.00
59.1936 1312.00
59.4979 1080.00
59.8021 1312.00
60.1064 1328.00
60.4106 1013.00
60.7149 927.00
61.0192 946.00
61.3234 913.00
61.6277 927.00
61.932 897.00
62.2362 859.00
62.5405 1041.00
62.8447 1113.00
63.149 1006.00
63.4533 961.00
63.7575 1124.00
64.0618 1278.00
64.366 1096.00
64.6703 923.00
64.9745 1035.00
65.2788 1229.00
65.5831 1182.00
65.8873 1172.00
66.1916 1148.00
66.4959 1004.00
66.8001 1053.00
67.1044 871.00
67.4086 895.00
67.7129 871.00
68.0172 845.00
68.3214 864.00
68.6257 845.00
68.9299 846.00
69.2342 860.00
69.5385 830.00
69.8427 798.00
70.147 848.00
70.4512 816.00
70.7555 767.00
71.0598 906.00
71.364 856.00
71.6683 895.00
71.9725 1181.00
72.2768 1201.00
72.5811 992.00
72.8853 1055.00
73.1896 1099.00
73.4938 1245.00
73.7981 1459.00
74.1024 1341.00
74.4066 1248.00
74.7109 1156.00
75.0151 1144.00
75.3194 1159.00
75.6237 1061.00
75.9279 1101.00
76.2322 1136.00
76.5364 990.00
76.8407 898.00
77.145 926.00
77.4492 1044.00
77.7535 1210.00
78.0577 993.00
78.362 922.00
78.6663 828.00
78.9705 844.00
79.2748 852.00
79.579 715.00
79.8833 874.00
80.1876 983.00
80.4918 918.00
80.7961 844.00
81.1003 888.00
81.4046 833.00
81.7089 965.00
82.0131 1014.00
82.3174 1098.00
82.6217 991.00
82.9259 910.00
83.2302 1018.00
83.5344 951.00
83.8387 833.00
84.143 934.00
84.4472 892.00
84.7515 873.00
85.0557 888.00
85.36 930.00
85.6643 934.00
85.9685 852.00
86.2728 868.00
86.577 859.00
86.8813 783.00
87.1856 813.00
87.4898 856.00
87.7941 847.00
88.0983 816.00
88.4026 737.00
88.7069 775.00
89.0111 764.00
89.3154 853.00
89.6196 839.00
89.9239 870.00
90.2282 820.00
90.5324 743.00
90.8367 750.00
91.1409 810.00
91.4452 839.00
91.7495 886.00
92.0537 784.00
92.358 762.00
92.6622 781.00
92.9665 766.00
93.2708 797.00
93.575 785.00
93.8793 893.00
94.1835 975.00
94.4878 955.00
94.7921 1015.00
95.0963 1016.00
95.4006 966.00
95.7048 804.00
96.0091 817.00
96.3134 857.00
96.6176 803.00
96.9219 820.00
97.2261 898.00
97.5304 875.00
97.8347 797.00
98.1389 735.00
98.4432 738.00
98.7474 822.00
99.0517 829.00
99.356 931.00
99.6602 863.00
99.9645 767.00
100.095 776.00