File: data/xrd_creation/results/PG_1619-1.xy
10.0094 2352.00
10.3137 2436.00
10.618 2326.00
10.9222 2342.00
11.2265 2912.00
11.5307 5836.00
11.835 2493.00
12.1393 2097.00
12.4435 1891.00
12.7478 1806.00
13.052 1694.00
13.3563 1638.00
13.6606 1472.00
13.9648 1466.00
14.2691 1529.00
14.5733 1457.00
14.8776 1568.00
15.1819 1653.00
15.4861 1392.00
15.7904 1312.00
16.0946 1410.00
16.3989 1446.00
16.7032 1259.00
17.0074 1240.00
17.3117 1340.00
17.6159 1667.00
17.9202 1304.00
18.2245 1420.00
18.5287 1185.00
18.833 1184.00
19.1372 1241.00
19.4415 1136.00
19.7458 1512.00
20.05 1994.00
20.3543 1186.00
20.6585 1184.00
20.9628 1048.00
21.2671 1006.00
21.5713 1032.00
21.8756 1060.00
22.1798 950.00
22.4841 1078.00
22.7884 1280.00
23.0926 2281.00
23.3969 1170.00
23.7011 1177.00
24.0054 1040.00
24.3097 1171.00
24.6139 979.00
24.9182 1055.00
25.2224 1053.00
25.5267 987.00
25.831 1167.00
26.1352 1026.00
26.4395 902.00
26.7438 851.00
27.048 903.00
27.3523 973.00
27.6565 996.00
27.9608 1193.00
28.2651 3068.00
28.5693 2333.00
28.8736 1152.00
29.1778 1019.00
29.4821 1209.00
29.7864 944.00
30.0906 1242.00
30.3949 1054.00
30.6991 906.00
31.0034 933.00
31.3077 2088.00
31.6119 3212.00
31.9162 2448.00
32.2204 1369.00
32.5247 1273.00
32.829 2758.00
33.1332 1393.00
33.4375 991.00
33.7417 1025.00
34.046 1004.00
34.3503 1216.00
34.6545 1140.00
34.9588 1753.00
35.263 998.00
35.5673 1152.00
35.8716 970.00
36.1758 1018.00
36.4801 973.00
36.7843 2636.00
37.0886 1521.00
37.3929 900.00
37.6971 936.00
38.0014 957.00
38.3056 894.00
38.6099 1804.00
38.9142 1255.00
39.2184 860.00
39.5227 809.00
39.8269 837.00
40.1312 710.00
40.4355 1073.00
40.7397 931.00
41.044 712.00
41.3482 726.00
41.6525 615.00
41.9568 604.00
42.261 655.00
42.5653 661.00
42.8695 669.00
43.1738 581.00
43.4781 603.00
43.7823 818.00
44.0866 818.00
44.3909 690.00
44.6951 664.00
44.9994 645.00
45.3036 582.00
45.6079 562.00
45.9122 604.00
46.2164 542.00
46.5207 531.00
46.8249 566.00
47.1292 782.00
47.4335 533.00
47.7377 568.00
48.042 630.00
48.3462 717.00
48.6505 1146.00
48.9548 670.00
49.259 692.00
49.5633 779.00
49.8675 1162.00
50.1718 1307.00
50.4761 691.00
50.7803 576.00
51.0846 665.00
51.3888 631.00
51.6931 630.00
51.9974 586.00
52.3016 684.00
52.6059 621.00
52.9101 870.00
53.2144 1050.00
53.5187 807.00
53.8229 808.00
54.1272 583.00
54.4314 625.00
54.7357 510.00
55.04 491.00
55.3442 518.00
55.6485 797.00
55.9527 620.00
56.257 661.00
56.5613 580.00
56.8655 626.00
57.1698 659.00
57.474 518.00
57.7783 522.00
58.0826 535.00
58.3868 669.00
58.6911 801.00
58.9953 620.00
59.2996 577.00
59.6039 811.00
59.9081 932.00
60.2124 771.00
60.5166 487.00
60.8209 521.00
61.1252 747.00
61.4294 590.00
61.7337 609.00
62.0379 571.00
62.3422 791.00
62.6465 721.00
62.9507 502.00
63.255 671.00
63.5592 754.00
63.8635 472.00
64.1678 447.00
64.472 479.00
64.7763 436.00
65.0806 483.00
65.3848 523.00
65.6891 480.00
65.9933 632.00
66.2976 683.00
66.6019 649.00
66.9061 558.00
67.2104 439.00
67.5146 480.00
67.8189 457.00
68.1232 473.00
68.4274 653.00
68.7317 869.00
69.0359 846.00
69.3402 602.00
69.6445 755.00
69.9487 863.00
70.253 749.00
70.5572 530.00
70.8615 512.00
71.1658 560.00
71.47 554.00
71.7743 577.00
72.0785 582.00
72.3828 582.00
72.6871 491.00
72.9913 500.00
73.2956 432.00
73.5998 541.00
73.9041 471.00
74.2084 486.00
74.5126 467.00
74.8169 480.00
75.1211 415.00
75.4254 419.00
75.7297 564.00
76.0339 608.00
76.3382 546.00
76.6424 448.00
76.9467 392.00
77.251 414.00
77.5552 365.00
77.8595 367.00
78.1637 421.00
78.468 471.00
78.7723 476.00
79.0765 477.00
79.3808 554.00
79.685 535.00
79.9893 445.00
80.2936 413.00
80.5978 381.00
80.9021 353.00
81.2063 456.00
81.5106 537.00
81.8149 513.00
82.1191 456.00
82.4234 455.00
82.7277 405.00
83.0319 383.00
83.3362 373.00
83.6404 374.00
83.9447 384.00
84.249 356.00
84.5532 356.00
84.8575 351.00
85.1617 379.00
85.466 372.00
85.7703 357.00
86.0745 359.00
86.3788 359.00
86.683 359.00
86.9873 349.00
87.2916 388.00
87.5958 367.00
87.9001 395.00
88.2043 391.00
88.5086 420.00
88.8129 410.00
89.1171 345.00
89.4214 381.00
89.7256 433.00
90.0299 421.00
90.3342 407.00
90.6384 368.00
90.9427 411.00
91.2469 380.00
91.5512 381.00
91.8555 333.00
92.1597 315.00
92.464 376.00
92.7682 369.00
93.0725 366.00
93.3768 344.00
93.681 383.00
93.9853 329.00
94.2895 408.00
94.5938 354.00
94.8981 356.00
95.2023 360.00
95.5066 335.00
95.8108 305.00
96.1151 316.00
96.4194 343.00
96.7236 392.00
97.0279 391.00
97.3321 417.00
97.6364 398.00
97.9407 403.00
98.2449 384.00
98.5492 418.00
98.8534 368.00
99.1577 406.00
99.462 359.00
99.7662 434.00
99.9944 424.00