File: data/xrd_creation/results/PG_1848-1.xy
9.903433 2658.00
10.2077 2517.00
10.512 2434.00
10.8162 2495.00
11.1205 2297.00
11.4247 2274.00
11.729 2037.00
12.0333 2106.00
12.3375 2042.00
12.6418 1991.00
12.946 1930.00
13.2503 1932.00
13.5546 1816.00
13.8588 1792.00
14.1631 1718.00
14.4673 1705.00
14.7716 1727.00
15.0759 1673.00
15.3801 1771.00
15.6844 2431.00
15.9886 1683.00
16.2929 1591.00
16.5972 1590.00
16.9014 1592.00
17.2057 1591.00
17.5099 1516.00
17.8142 1526.00
18.1185 1436.00
18.4227 1438.00
18.727 1415.00
19.0312 1360.00
19.3355 1302.00
19.6398 1332.00
19.944 1368.00
20.2483 1418.00
20.5525 3808.00
20.8568 1592.00
21.1611 1344.00
21.4653 1416.00
21.7696 3202.00
22.0738 2743.00
22.3781 1296.00
22.6824 1231.00
22.9866 1179.00
23.2909 1197.00
23.5951 1092.00
23.8994 1109.00
24.2037 1076.00
24.5079 1082.00
24.8122 1010.00
25.1164 1083.00
25.4207 978.00
25.725 1018.00
26.0292 1086.00
26.3335 1377.00
26.6378 1301.00
26.942 964.00
27.2463 906.00
27.5505 961.00
27.8548 996.00
28.1591 940.00
28.4633 879.00
28.7676 870.00
29.0718 940.00
29.3761 817.00
29.6804 877.00
29.9846 1061.00
30.2889 1191.00
30.5931 2023.00
30.8974 29343.00
31.2017 2848.00
31.5059 1849.00
31.8102 992.00
32.1144 959.00
32.4187 917.00
32.723 1874.00
33.0272 948.00
33.3315 980.00
33.6357 1082.00
33.94 781.00
34.2443 763.00
34.5485 1143.00
34.8528 821.00
35.157 813.00
35.4613 1080.00
35.7656 8663.00
36.0698 1186.00
36.3741 990.00
36.6783 730.00
36.9826 705.00
37.2869 722.00
37.5911 726.00
37.8954 1079.00
38.1996 946.00
38.5039 696.00
38.8082 647.00
39.1124 649.00
39.4167 655.00
39.7209 621.00
40.0252 764.00
40.3295 732.00
40.6337 658.00
40.938 635.00
41.2422 659.00
41.5465 1068.00
41.8508 791.00
42.155 2068.00
42.4593 921.00
42.7635 601.00
43.0678 571.00
43.3721 537.00
43.6763 550.00
43.9806 611.00
44.2849 652.00
44.5891 619.00
44.8934 595.00
45.1976 568.00
45.5019 651.00
45.8062 1211.00
46.1104 2259.00
46.4147 648.00
46.7189 560.00
47.0232 538.00
47.3275 567.00
47.6317 1150.00
47.936 654.00
48.2402 884.00
48.5445 580.00
48.8488 577.00
49.153 1007.00
49.4573 690.00
49.7615 1053.00
50.0658 632.00
50.3701 633.00
50.6743 635.00
50.9786 975.00
51.2828 7625.00
51.5871 2370.00
51.8914 789.00
52.1956 715.00
52.4999 669.00
52.8041 600.00
53.1084 851.00
53.4127 506.00
53.7169 543.00
54.0212 564.00
54.3254 508.00
54.6297 642.00
54.934 520.00
55.2382 533.00
55.5425 484.00
55.8467 614.00
56.151 879.00
56.4553 1271.00
56.7595 595.00
57.0638 535.00
57.368 476.00
57.6723 517.00
57.9766 673.00
58.2808 547.00
58.5851 516.00
58.8893 627.00
59.1936 716.00
59.4979 1253.00
59.8021 610.00
60.1064 596.00
60.4106 786.00
60.7149 1094.00
61.0192 5129.00
61.3234 1182.00
61.6277 748.00
61.932 569.00
62.2362 656.00
62.5405 1576.00
62.8447 616.00
63.149 516.00
63.4533 446.00
63.7575 625.00
64.0618 1098.00
64.366 554.00
64.6703 613.00
64.9745 630.00
65.2788 621.00
65.5831 789.00
65.8873 538.00
66.1916 504.00
66.4959 541.00
66.8001 624.00
67.1044 648.00
67.4086 487.00
67.7129 523.00
68.0172 572.00
68.3214 1361.00
68.6257 634.00
68.9299 536.00
69.2342 567.00
69.5385 477.00
69.8427 684.00
70.147 576.00
70.4512 491.00
70.7555 553.00
71.0598 405.00
71.364 453.00
71.6683 470.00
71.9725 465.00
72.2768 493.00
72.5811 603.00
72.8853 613.00
73.1896 578.00
73.4938 485.00
73.7981 569.00
74.1024 702.00
74.4066 464.00
74.7109 588.00
75.0151 612.00
75.3194 1472.00
75.6237 614.00
75.9279 486.00
76.2322 525.00
76.5364 682.00
76.8407 755.00
77.145 464.00
77.4492 468.00
77.7535 515.00
78.0577 962.00
78.362 628.00
78.6663 537.00
78.9705 474.00
79.2748 489.00
79.579 676.00
79.8833 443.00
80.1876 432.00
80.4918 444.00
80.7961 647.00
81.1003 451.00
81.4046 453.00
81.7089 513.00
82.0131 773.00
82.3174 826.00
82.6217 474.00
82.9259 485.00
83.2302 728.00
83.5344 979.00
83.8387 564.00
84.143 468.00
84.4472 460.00
84.7515 542.00
85.0557 446.00
85.36 502.00
85.6643 508.00
85.9685 761.00
86.2728 849.00
86.577 561.00
86.8813 498.00
87.1856 532.00
87.4898 587.00
87.7941 474.00
88.0983 482.00
88.4026 459.00
88.7069 720.00
89.0111 547.00
89.3154 431.00
89.6196 453.00
89.9239 586.00
90.2282 623.00
90.5324 468.00
90.8367 482.00
91.1409 470.00
91.4452 475.00
91.7495 448.00
92.0537 414.00
92.358 432.00
92.6622 768.00
92.9665 679.00
93.2708 463.00
93.575 424.00
93.8793 458.00
94.1835 419.00
94.4878 417.00
94.7921 474.00
95.0963 452.00
95.4006 929.00
95.7048 727.00
96.0091 487.00
96.3134 466.00
96.6176 857.00
96.9219 715.00
97.2261 494.00
97.5304 480.00
97.8347 501.00
98.1389 689.00
98.4432 594.00
98.7474 417.00
99.0517 484.00
99.356 808.00
99.6602 622.00
99.9645 515.00
100.095 464.00