File: data/xrd_creation/results/PG_1740-1.xy
9.903433 2586.00
10.2077 2464.00
10.512 2342.00
10.8162 2263.00
11.1205 2104.00
11.4247 2098.00
11.729 1966.00
12.0333 1966.00
12.3375 1959.00
12.6418 1837.00
12.946 1810.00
13.2503 1599.00
13.5546 1750.00
13.8588 1697.00
14.1631 1770.00
14.4673 2906.00
14.7716 1658.00
15.0759 1493.00
15.3801 1622.00
15.6844 1519.00
15.9886 1513.00
16.2929 1459.00
16.5972 1504.00
16.9014 1395.00
17.2057 1430.00
17.5099 1437.00
17.8142 1856.00
18.1185 1429.00
18.4227 1297.00
18.727 1295.00
19.0312 1293.00
19.3355 1197.00
19.6398 1254.00
19.944 1201.00
20.2483 1210.00
20.5525 1224.00
20.8568 1227.00
21.1611 1182.00
21.4653 1130.00
21.7696 1136.00
22.0738 1170.00
22.3781 1150.00
22.6824 1142.00
22.9866 1120.00
23.2909 1074.00
23.5951 1120.00
23.8994 1131.00
24.2037 1249.00
24.5079 2931.00
24.8122 1869.00
25.1164 1217.00
25.4207 1035.00
25.725 1164.00
26.0292 1187.00
26.3335 1837.00
26.6378 16987.00
26.942 2150.00
27.2463 1294.00
27.5505 1614.00
27.8548 1205.00
28.1591 1411.00
28.4633 3708.00
28.7676 7422.00
29.0718 2415.00
29.3761 2409.00
29.6804 1187.00
29.9846 1083.00
30.2889 1142.00
30.5931 1867.00
30.8974 2054.00
31.2017 2947.00
31.5059 1666.00
31.8102 4063.00
32.1144 5593.00
32.4187 8380.00
32.723 1876.00
33.0272 1213.00
33.3315 1007.00
33.6357 1129.00
33.94 1202.00
34.2443 3663.00
34.5485 3214.00
34.8528 3084.00
35.157 1329.00
35.4613 1107.00
35.7656 3045.00
36.0698 1311.00
36.3741 1619.00
36.6783 962.00
36.9826 1096.00
37.2869 859.00
37.5911 909.00
37.8954 816.00
38.1996 902.00
38.5039 785.00
38.8082 875.00
39.1124 1909.00
39.4167 993.00
39.7209 1261.00
40.0252 1052.00
40.3295 1061.00
40.6337 923.00
40.938 1009.00
41.2422 2273.00
41.5465 1213.00
41.8508 1244.00
42.155 897.00
42.4593 782.00
42.7635 789.00
43.0678 721.00
43.3721 802.00
43.6763 809.00
43.9806 877.00
44.2849 861.00
44.5891 1104.00
44.8934 1940.00
45.1976 1127.00
45.5019 1387.00
45.8062 990.00
46.1104 1925.00
46.4147 2122.00
46.7189 1086.00
47.0232 858.00
47.3275 818.00
47.6317 1388.00
47.936 2262.00
48.2402 852.00
48.5445 901.00
48.8488 968.00
49.153 865.00
49.4573 1235.00
49.7615 2519.00
50.0658 4205.00
50.3701 1633.00
50.6743 3144.00
50.9786 1749.00
51.2828 1904.00
51.5871 1018.00
51.8914 1402.00
52.1956 1679.00
52.4999 3855.00
52.8041 914.00
53.1084 950.00
53.4127 1187.00
53.7169 836.00
54.0212 988.00
54.3254 1007.00
54.6297 1605.00
54.934 1535.00
55.2382 1048.00
55.5425 978.00
55.8467 1592.00
56.151 2626.00
56.4553 2116.00
56.7595 1412.00
57.0638 872.00
57.368 857.00
57.6723 1189.00
57.9766 1606.00
58.2808 2418.00
58.5851 1958.00
58.8893 1419.00
59.1936 1035.00
59.4979 1871.00
59.8021 1054.00
60.1064 1013.00
60.4106 2039.00
60.7149 2731.00
61.0192 1354.00
61.3234 959.00
61.6277 1104.00
61.932 1319.00
62.2362 1191.00
62.5405 1449.00
62.8447 1206.00
63.149 1098.00
63.4533 2066.00
63.7575 1663.00
64.0618 915.00
64.366 1197.00
64.6703 882.00
64.9745 1093.00
65.2788 771.00
65.5831 795.00
65.8873 1009.00
66.1916 2458.00
66.4959 2300.00
66.8001 1012.00
67.1044 811.00
67.4086 796.00
67.7129 751.00
68.0172 641.00
68.3214 780.00
68.6257 847.00
68.9299 713.00
69.2342 805.00
69.5385 904.00
69.8427 1049.00
70.147 1087.00
70.4512 823.00
70.7555 736.00
71.0598 730.00
71.364 744.00
71.6683 957.00
71.9725 1535.00
72.2768 1420.00
72.5811 1016.00
72.8853 951.00
73.1896 867.00
73.4938 921.00
73.7981 869.00
74.1024 1047.00
74.4066 859.00
74.7109 707.00
75.0151 754.00
75.3194 944.00
75.6237 1265.00
75.9279 1247.00
76.2322 896.00
76.5364 1047.00
76.8407 1270.00
77.145 977.00
77.4492 841.00
77.7535 772.00
78.0577 892.00
78.362 903.00
78.6663 830.00
78.9705 890.00
79.2748 807.00
79.579 988.00
79.8833 990.00
80.1876 798.00
80.4918 721.00
80.7961 813.00
81.1003 894.00
81.4046 756.00
81.7089 739.00
82.0131 793.00
82.3174 1116.00
82.6217 1049.00
82.9259 1352.00
83.2302 1457.00
83.5344 1260.00
83.8387 1323.00
84.143 1258.00
84.4472 1067.00
84.7515 1870.00
85.0557 1352.00
85.36 922.00
85.6643 1016.00
85.9685 935.00
86.2728 954.00
86.577 857.00
86.8813 862.00
87.1856 1034.00
87.4898 877.00
87.7941 926.00
88.0983 1010.00
88.4026 1043.00
88.7069 929.00
89.0111 1040.00
89.3154 1126.00
89.6196 1263.00
89.9239 1087.00
90.2282 950.00
90.5324 1019.00
90.8367 985.00
91.1409 890.00
91.4452 1166.00
91.7495 1004.00
92.0537 819.00
92.358 816.00
92.6622 817.00
92.9665 783.00
93.2708 889.00
93.575 790.00
93.8793 753.00
94.1835 757.00
94.4878 792.00
94.7921 821.00
95.0963 799.00
95.4006 715.00
95.7048 841.00
96.0091 1096.00
96.3134 911.00
96.6176 799.00
96.9219 850.00
97.2261 935.00
97.5304 1183.00
97.8347 1340.00
98.1389 1028.00
98.4432 805.00
98.7474 912.00
99.0517 974.00
99.356 958.00
99.6602 895.00
99.9645 910.00
100.095 927.00