File: data/xrd_creation/results/PG_1943-1.xy
9.903433 2650.00
10.2077 2592.00
10.512 2529.00
10.8162 2421.00
11.1205 2386.00
11.4247 2247.00
11.729 2115.00
12.0333 2122.00
12.3375 1962.00
12.6418 1947.00
12.946 1900.00
13.2503 1848.00
13.5546 1765.00
13.8588 1784.00
14.1631 1683.00
14.4673 1639.00
14.7716 1692.00
15.0759 1632.00
15.3801 1599.00
15.6844 1585.00
15.9886 1505.00
16.2929 1563.00
16.5972 1546.00
16.9014 1560.00
17.2057 1545.00
17.5099 1513.00
17.8142 1549.00
18.1185 1578.00
18.4227 1563.00
18.727 1527.00
19.0312 1565.00
19.3355 1592.00
19.6398 1620.00
19.944 1632.00
20.2483 1635.00
20.5525 1649.00
20.8568 1687.00
21.1611 1695.00
21.4653 1781.00
21.7696 1803.00
22.0738 1895.00
22.3781 1795.00
22.6824 1887.00
22.9866 1875.00
23.2909 1973.00
23.5951 1943.00
23.8994 2052.00
24.2037 2136.00
24.5079 2025.00
24.8122 2062.00
25.1164 2118.00
25.4207 2013.00
25.725 1989.00
26.0292 2073.00
26.3335 1998.00
26.6378 2000.00
26.942 1990.00
27.2463 1930.00
27.5505 1913.00
27.8548 1928.00
28.1591 1905.00
28.4633 1861.00
28.7676 1819.00
29.0718 1811.00
29.3761 1712.00
29.6804 1546.00
29.9846 1803.00
30.2889 1725.00
30.5931 1770.00
30.8974 1771.00
31.2017 1563.00
31.5059 1649.00
31.8102 1518.00
32.1144 1341.00
32.4187 1195.00
32.723 1180.00
33.0272 1141.00
33.3315 1167.00
33.6357 1136.00
33.94 1148.00
34.2443 1142.00
34.5485 1066.00
34.8528 1019.00
35.157 979.00
35.4613 949.00
35.7656 951.00
36.0698 923.00
36.3741 978.00
36.6783 906.00
36.9826 864.00
37.2869 829.00
37.5911 791.00
37.8954 928.00
38.1996 926.00
38.5039 838.00
38.8082 864.00
39.1124 871.00
39.4167 897.00
39.7209 752.00
40.0252 793.00
40.3295 773.00
40.6337 803.00
40.938 730.00
41.2422 742.00
41.5465 763.00
41.8508 774.00
42.155 729.00
42.4593 768.00
42.7635 716.00
43.0678 777.00
43.3721 670.00
43.6763 703.00
43.9806 719.00
44.2849 701.00
44.5891 730.00
44.8934 751.00
45.1976 722.00
45.5019 673.00
45.8062 671.00
46.1104 654.00
46.4147 651.00
46.7189 637.00
47.0232 613.00
47.3275 672.00
47.6317 594.00
47.936 580.00
48.2402 606.00
48.5445 577.00
48.8488 658.00
49.153 607.00
49.4573 613.00
49.7615 669.00
50.0658 587.00
50.3701 589.00
50.6743 644.00
50.9786 643.00
51.2828 566.00
51.5871 591.00
51.8914 569.00
52.1956 564.00
52.4999 585.00
52.8041 517.00
53.1084 574.00
53.4127 512.00
53.7169 557.00
54.0212 540.00
54.3254 555.00
54.6297 557.00
54.934 574.00
55.2382 522.00
55.5425 542.00
55.8467 544.00
56.151 518.00
56.4553 507.00
56.7595 518.00
57.0638 511.00
57.368 489.00
57.6723 491.00
57.9766 547.00
58.2808 520.00
58.5851 486.00
58.8893 512.00
59.1936 483.00
59.4979 475.00
59.8021 471.00
60.1064 446.00
60.4106 449.00
60.7149 490.00
61.0192 469.00
61.3234 448.00
61.6277 513.00
61.932 448.00
62.2362 460.00
62.5405 490.00
62.8447 435.00
63.149 448.00
63.4533 478.00
63.7575 436.00
64.0618 441.00
64.366 506.00
64.6703 387.00
64.9745 441.00
65.2788 422.00
65.5831 405.00
65.8873 486.00
66.1916 486.00
66.4959 438.00
66.8001 453.00
67.1044 408.00
67.4086 411.00
67.7129 433.00
68.0172 393.00
68.3214 398.00
68.6257 388.00
68.9299 425.00
69.2342 397.00
69.5385 425.00
69.8427 412.00
70.147 411.00
70.4512 383.00
70.7555 394.00
71.0598 445.00
71.364 425.00
71.6683 418.00
71.9725 433.00
72.2768 397.00
72.5811 402.00
72.8853 380.00
73.1896 374.00
73.4938 394.00
73.7981 408.00
74.1024 388.00
74.4066 372.00
74.7109 404.00
75.0151 411.00
75.3194 404.00
75.6237 413.00
75.9279 334.00
76.2322 410.00
76.5364 402.00
76.8407 382.00
77.145 380.00
77.4492 374.00
77.7535 421.00
78.0577 394.00
78.362 391.00
78.6663 366.00
78.9705 388.00
79.2748 336.00
79.579 369.00
79.8833 393.00
80.1876 383.00
80.4918 343.00
80.7961 380.00
81.1003 360.00
81.4046 356.00
81.7089 374.00
82.0131 368.00
82.3174 360.00
82.6217 350.00
82.9259 330.00
83.2302 354.00
83.5344 324.00
83.8387 346.00
84.143 328.00
84.4472 312.00
84.7515 351.00
85.0557 324.00
85.36 320.00
85.6643 314.00
85.9685 319.00
86.2728 292.00
86.577 303.00
86.8813 358.00
87.1856 330.00
87.4898 327.00
87.7941 312.00
88.0983 296.00
88.4026 322.00
88.7069 281.00
89.0111 244.00
89.3154 306.00
89.6196 300.00
89.9239 261.00
90.2282 304.00
90.5324 283.00
90.8367 300.00
91.1409 274.00
91.4452 270.00
91.7495 286.00
92.0537 237.00
92.358 297.00
92.6622 276.00
92.9665 272.00
93.2708 285.00
93.575 285.00
93.8793 299.00
94.1835 272.00
94.4878 243.00
94.7921 250.00
95.0963 291.00
95.4006 245.00
95.7048 294.00
96.0091 270.00
96.3134 292.00
96.6176 265.00
96.9219 234.00
97.2261 270.00
97.5304 247.00
97.8347 275.00
98.1389 294.00
98.4432 265.00
98.7474 279.00
99.0517 277.00
99.356 261.00
99.6602 263.00
99.9645 266.00
100.095 264.00