File: data/xrd_creation/results/PG_1517-1.xy
10.0094 2255.00
10.3137 2071.00
10.618 2058.00
10.9222 1961.00
11.2265 1870.00
11.5307 1783.00
11.835 1709.00
12.1393 1638.00
12.4435 1661.00
12.7478 1559.00
13.052 1465.00
13.3563 1423.00
13.6606 1351.00
13.9648 1297.00
14.2691 1375.00
14.5733 1311.00
14.8776 1283.00
15.1819 1251.00
15.4861 1180.00
15.7904 1175.00
16.0946 1171.00
16.3989 1143.00
16.7032 1113.00
17.0074 1123.00
17.3117 1125.00
17.6159 1202.00
17.9202 1201.00
18.2245 1096.00
18.5287 1051.00
18.833 972.00
19.1372 1045.00
19.4415 985.00
19.7458 952.00
20.05 900.00
20.3543 976.00
20.6585 839.00
20.9628 839.00
21.2671 847.00
21.5713 890.00
21.8756 752.00
22.1798 805.00
22.4841 812.00
22.7884 814.00
23.0926 810.00
23.3969 785.00
23.7011 779.00
24.0054 819.00
24.3097 1381.00
24.6139 1319.00
24.9182 1729.00
25.2224 771.00
25.5267 742.00
25.831 724.00
26.1352 728.00
26.4395 686.00
26.7438 660.00
27.048 708.00
27.3523 674.00
27.6565 718.00
27.9608 858.00
28.2651 1563.00
28.5693 8374.00
28.8736 1675.00
29.1778 847.00
29.4821 679.00
29.7864 644.00
30.0906 819.00
30.3949 1126.00
30.6991 1386.00
31.0034 865.00
31.3077 866.00
31.6119 1789.00
31.9162 8433.00
32.2204 1475.00
32.5247 757.00
32.829 703.00
33.1332 632.00
33.4375 638.00
33.7417 855.00
34.046 690.00
34.3503 1123.00
34.6545 3114.00
34.9588 2357.00
35.263 1076.00
35.5673 1653.00
35.8716 2486.00
36.1758 930.00
36.4801 894.00
36.7843 567.00
37.0886 556.00
37.3929 606.00
37.6971 793.00
38.0014 666.00
38.3056 588.00
38.6099 976.00
38.9142 978.00
39.2184 960.00
39.5227 571.00
39.8269 559.00
40.1312 516.00
40.4355 712.00
40.7397 599.00
41.044 914.00
41.3482 1517.00
41.6525 1060.00
41.9568 916.00
42.261 548.00
42.5653 493.00
42.8695 516.00
43.1738 569.00
43.4781 533.00
43.7823 468.00
44.0866 445.00
44.3909 485.00
44.6951 449.00
44.9994 565.00
45.3036 992.00
45.6079 613.00
45.9122 1000.00
46.2164 835.00
46.5207 496.00
46.8249 469.00
47.1292 458.00
47.4335 461.00
47.7377 476.00
48.042 429.00
48.3462 494.00
48.6505 545.00
48.9548 657.00
49.259 578.00
49.5633 1056.00
49.8675 2508.00
50.1718 656.00
50.4761 984.00
50.7803 2846.00
51.0846 1878.00
51.3888 838.00
51.6931 882.00
51.9974 698.00
52.3016 503.00
52.6059 452.00
52.9101 487.00
53.2144 489.00
53.5187 452.00
53.8229 485.00
54.1272 519.00
54.4314 837.00
54.7357 1852.00
55.04 680.00
55.3442 658.00
55.6485 876.00
55.9527 2472.00
56.257 1349.00
56.5613 1618.00
56.8655 688.00
57.1698 570.00
57.474 683.00
57.7783 1734.00
58.0826 900.00
58.3868 1004.00
58.6911 1127.00
58.9953 934.00
59.2996 647.00
59.6039 520.00
59.9081 572.00
60.2124 983.00
60.5166 1871.00
60.8209 1166.00
61.1252 781.00
61.4294 643.00
61.7337 761.00
62.0379 1212.00
62.3422 965.00
62.6465 1366.00
62.9507 771.00
63.255 920.00
63.5592 1552.00
63.8635 757.00
64.1678 642.00
64.472 765.00
64.7763 1321.00
65.0806 1181.00
65.3848 651.00
65.6891 667.00
65.9933 1006.00
66.2976 1479.00
66.6019 1183.00
66.9061 591.00
67.2104 485.00
67.5146 489.00
67.8189 489.00
68.1232 499.00
68.4274 504.00
68.7317 434.00
69.0359 495.00
69.3402 645.00
69.6445 933.00
69.9487 670.00
70.253 633.00
70.5572 710.00
70.8615 587.00
71.1658 516.00
71.47 609.00
71.7743 1137.00
72.0785 890.00
72.3828 568.00
72.6871 733.00
72.9913 734.00
73.2956 778.00
73.5998 629.00
73.9041 589.00
74.2084 557.00
74.5126 564.00
74.8169 495.00
75.1211 495.00
75.4254 830.00
75.7297 931.00
76.0339 939.00
76.3382 582.00
76.6424 493.00
76.9467 585.00
77.251 784.00
77.5552 570.00
77.8595 608.00
78.1637 719.00
78.468 618.00
78.7723 666.00
79.0765 590.00
79.3808 612.00
79.685 915.00
79.9893 641.00
80.2936 492.00
80.5978 474.00
80.9021 516.00
81.2063 567.00
81.5106 503.00
81.8149 568.00
82.1191 731.00
82.4234 778.00
82.7277 642.00
83.0319 604.00
83.3362 838.00
83.6404 783.00
83.9447 916.00
84.249 857.00
84.5532 819.00
84.8575 983.00
85.1617 790.00
85.466 654.00
85.7703 755.00
86.0745 627.00
86.3788 581.00
86.683 649.00
86.9873 738.00
87.2916 565.00
87.5958 527.00
87.9001 565.00
88.2043 788.00
88.5086 773.00
88.8129 825.00
89.1171 958.00
89.4214 1002.00
89.7256 770.00
90.0299 743.00
90.3342 810.00
90.6384 956.00
90.9427 748.00
91.2469 668.00
91.5512 676.00
91.8555 655.00
92.1597 702.00
92.464 641.00
92.7682 567.00
93.0725 505.00
93.3768 538.00
93.681 607.00
93.9853 563.00
94.2895 643.00
94.5938 773.00
94.8981 780.00
95.2023 626.00
95.5066 705.00
95.8108 899.00
96.1151 958.00
96.4194 895.00
96.7236 768.00
97.0279 950.00
97.3321 983.00
97.6364 1097.00
97.9407 1044.00
98.2449 841.00
98.5492 668.00
98.8534 784.00
99.1577 846.00
99.462 876.00
99.7662 894.00
99.9944 932.00