File: data/xrd_creation/results/PG_1017-1.xy
10.0094 2220.00
10.3137 2193.00
10.618 2104.00
10.9222 2036.00
11.2265 1920.00
11.5307 1836.00
11.835 1745.00
12.1393 1693.00
12.4435 1627.00
12.7478 1598.00
13.052 1487.00
13.3563 1443.00
13.6606 1455.00
13.9648 1402.00
14.2691 1308.00
14.5733 1332.00
14.8776 1354.00
15.1819 1222.00
15.4861 1333.00
15.7904 1221.00
16.0946 1230.00
16.3989 1230.00
16.7032 1252.00
17.0074 1104.00
17.3117 1129.00
17.6159 1296.00
17.9202 1128.00
18.2245 1058.00
18.5287 1030.00
18.833 1069.00
19.1372 1054.00
19.4415 959.00
19.7458 941.00
20.05 987.00
20.3543 894.00
20.6585 978.00
20.9628 912.00
21.2671 895.00
21.5713 827.00
21.8756 903.00
22.1798 891.00
22.4841 894.00
22.7884 808.00
23.0926 834.00
23.3969 838.00
23.7011 822.00
24.0054 932.00
24.3097 1354.00
24.6139 1383.00
24.9182 1270.00
25.2224 791.00
25.5267 797.00
25.831 801.00
26.1352 740.00
26.4395 717.00
26.7438 713.00
27.048 658.00
27.3523 714.00
27.6565 775.00
27.9608 826.00
28.2651 1640.00
28.5693 6460.00
28.8736 1316.00
29.1778 772.00
29.4821 718.00
29.7864 629.00
30.0906 662.00
30.3949 643.00
30.6991 703.00
31.0034 738.00
31.3077 812.00
31.6119 1566.00
31.9162 5397.00
32.2204 1007.00
32.5247 706.00
32.829 672.00
33.1332 621.00
33.4375 616.00
33.7417 1160.00
34.046 741.00
34.3503 1143.00
34.6545 2069.00
34.9588 1591.00
35.263 726.00
35.5673 1044.00
35.8716 1540.00
36.1758 939.00
36.4801 1438.00
36.7843 555.00
37.0886 532.00
37.3929 560.00
37.6971 559.00
38.0014 521.00
38.3056 532.00
38.6099 535.00
38.9142 898.00
39.2184 752.00
39.5227 536.00
39.8269 565.00
40.1312 557.00
40.4355 560.00
40.7397 540.00
41.044 908.00
41.3482 1110.00
41.6525 1143.00
41.9568 737.00
42.261 513.00
42.5653 474.00
42.8695 524.00
43.1738 514.00
43.4781 551.00
43.7823 479.00
44.0866 498.00
44.3909 503.00
44.6951 484.00
44.9994 506.00
45.3036 862.00
45.6079 599.00
45.9122 920.00
46.2164 616.00
46.5207 495.00
46.8249 508.00
47.1292 465.00
47.4335 443.00
47.7377 472.00
48.042 467.00
48.3462 480.00
48.6505 474.00
48.9548 491.00
49.259 602.00
49.5633 947.00
49.8675 1820.00
50.1718 686.00
50.4761 1371.00
50.7803 2045.00
51.0846 1608.00
51.3888 683.00
51.6931 899.00
51.9974 584.00
52.3016 462.00
52.6059 451.00
52.9101 474.00
53.2144 469.00
53.5187 502.00
53.8229 474.00
54.1272 574.00
54.4314 883.00
54.7357 1357.00
55.04 1591.00
55.3442 717.00
55.6485 928.00
55.9527 1898.00
56.257 1066.00
56.5613 1254.00
56.8655 647.00
57.1698 548.00
57.474 663.00
57.7783 1205.00
58.0826 662.00
58.3868 970.00
58.6911 994.00
58.9953 830.00
59.2996 534.00
59.6039 553.00
59.9081 534.00
60.2124 746.00
60.5166 1426.00
60.8209 863.00
61.1252 572.00
61.4294 555.00
61.7337 754.00
62.0379 1026.00
62.3422 902.00
62.6465 1098.00
62.9507 705.00
63.255 800.00
63.5592 1367.00
63.8635 780.00
64.1678 505.00
64.472 605.00
64.7763 854.00
65.0806 695.00
65.3848 823.00
65.6891 599.00
65.9933 908.00
66.2976 1314.00
66.6019 883.00
66.9061 521.00
67.2104 521.00
67.5146 444.00
67.8189 448.00
68.1232 489.00
68.4274 475.00
68.7317 452.00
69.0359 500.00
69.3402 500.00
69.6445 722.00
69.9487 560.00
70.253 557.00
70.5572 527.00
70.8615 538.00
71.1658 517.00
71.47 664.00
71.7743 1078.00
72.0785 762.00
72.3828 574.00
72.6871 716.00
72.9913 744.00
73.2956 782.00
73.5998 579.00
73.9041 521.00
74.2084 567.00
74.5126 499.00
74.8169 489.00
75.1211 554.00
75.4254 740.00
75.7297 871.00
76.0339 820.00
76.3382 591.00
76.6424 557.00
76.9467 707.00
77.251 745.00
77.5552 578.00
77.8595 629.00
78.1637 740.00
78.468 618.00
78.7723 673.00
79.0765 656.00
79.3808 626.00
79.685 800.00
79.9893 588.00
80.2936 534.00
80.5978 523.00
80.9021 515.00
81.2063 546.00
81.5106 554.00
81.8149 537.00
82.1191 706.00
82.4234 705.00
82.7277 606.00
83.0319 649.00
83.3362 798.00
83.6404 778.00
83.9447 797.00
84.249 740.00
84.5532 788.00
84.8575 817.00
85.1617 750.00
85.466 617.00
85.7703 716.00
86.0745 641.00
86.3788 584.00
86.683 697.00
86.9873 729.00
87.2916 588.00
87.5958 572.00
87.9001 613.00
88.2043 739.00
88.5086 739.00
88.8129 747.00
89.1171 813.00
89.4214 860.00
89.7256 695.00
90.0299 638.00
90.3342 837.00
90.6384 983.00
90.9427 713.00
91.2469 606.00
91.5512 559.00
91.8555 598.00
92.1597 719.00
92.464 586.00
92.7682 553.00
93.0725 566.00
93.3768 536.00
93.681 567.00
93.9853 567.00
94.2895 559.00
94.5938 726.00
94.8981 690.00
95.2023 640.00
95.5066 824.00
95.8108 852.00
96.1151 779.00
96.4194 669.00
96.7236 714.00
97.0279 911.00
97.3321 907.00
97.6364 1024.00
97.9407 908.00
98.2449 708.00
98.5492 599.00
98.8534 775.00
99.1577 734.00
99.462 791.00
99.7662 843.00
99.9944 877.00