File: data/xrd_creation/results/PG_1218-1.xy
10.0094 2441.00
10.3137 2353.00
10.618 2358.00
10.9222 2162.00
11.2265 2168.00
11.5307 2116.00
11.835 2009.00
12.1393 1982.00
12.4435 1954.00
12.7478 1821.00
13.052 1728.00
13.3563 1713.00
13.6606 1757.00
13.9648 1654.00
14.2691 1618.00
14.5733 1633.00
14.8776 1636.00
15.1819 1669.00
15.4861 1552.00
15.7904 1572.00
16.0946 1534.00
16.3989 1606.00
16.7032 1465.00
17.0074 1575.00
17.3117 1533.00
17.6159 1492.00
17.9202 1354.00
18.2245 1453.00
18.5287 1355.00
18.833 1411.00
19.1372 1372.00
19.4415 1418.00
19.7458 1269.00
20.05 1379.00
20.3543 1272.00
20.6585 1304.00
20.9628 1281.00
21.2671 1260.00
21.5713 1423.00
21.8756 1411.00
22.1798 1209.00
22.4841 1218.00
22.7884 1209.00
23.0926 1180.00
23.3969 1200.00
23.7011 1184.00
24.0054 1189.00
24.3097 1383.00
24.6139 1067.00
24.9182 1096.00
25.2224 1169.00
25.5267 1125.00
25.831 1066.00
26.1352 1049.00
26.4395 1034.00
26.7438 1070.00
27.048 1065.00
27.3523 1009.00
27.6565 1061.00
27.9608 967.00
28.2651 975.00
28.5693 1002.00
28.8736 951.00
29.1778 1008.00
29.4821 995.00
29.7864 969.00
30.0906 1061.00
30.3949 1193.00
30.6991 3332.00
31.0034 2540.00
31.3077 1065.00
31.6119 992.00
31.9162 967.00
32.2204 954.00
32.5247 972.00
32.829 970.00
33.1332 1155.00
33.4375 1704.00
33.7417 1053.00
34.046 977.00
34.3503 925.00
34.6545 955.00
34.9588 983.00
35.263 1040.00
35.5673 1905.00
35.8716 2119.00
36.1758 983.00
36.4801 954.00
36.7843 898.00
37.0886 858.00
37.3929 912.00
37.6971 948.00
38.0014 1235.00
38.3056 990.00
38.6099 860.00
38.9142 922.00
39.2184 918.00
39.5227 941.00
39.8269 906.00
40.1312 970.00
40.4355 902.00
40.7397 901.00
41.044 1126.00
41.3482 885.00
41.6525 919.00
41.9568 1037.00
42.261 958.00
42.5653 940.00
42.8695 786.00
43.1738 891.00
43.4781 926.00
43.7823 916.00
44.0866 1013.00
44.3909 841.00
44.6951 843.00
44.9994 887.00
45.3036 850.00
45.6079 904.00
45.9122 1543.00
46.2164 902.00
46.5207 846.00
46.8249 855.00
47.1292 903.00
47.4335 897.00
47.7377 886.00
48.042 858.00
48.3462 875.00
48.6505 862.00
48.9548 903.00
49.259 910.00
49.5633 1531.00
49.8675 971.00
50.1718 884.00
50.4761 948.00
50.7803 965.00
51.0846 1511.00
51.3888 3000.00
51.6931 1089.00
51.9974 880.00
52.3016 893.00
52.6059 858.00
52.9101 1052.00
53.2144 983.00
53.5187 860.00
53.8229 937.00
54.1272 1393.00
54.4314 1021.00
54.7357 902.00
55.04 873.00
55.3442 848.00
55.6485 822.00
55.9527 963.00
56.257 1325.00
56.5613 922.00
56.8655 904.00
57.1698 937.00
57.474 957.00
57.7783 1080.00
58.0826 883.00
58.3868 901.00
58.6911 864.00
58.9953 927.00
59.2996 1229.00
59.6039 999.00
59.9081 939.00
60.2124 985.00
60.5166 1009.00
60.8209 2563.00
61.1252 1749.00
61.4294 934.00
61.7337 920.00
62.0379 953.00
62.3422 1502.00
62.6465 1345.00
62.9507 927.00
63.255 947.00
63.5592 960.00
63.8635 1632.00
64.1678 1169.00
64.472 912.00
64.7763 922.00
65.0806 938.00
65.3848 1142.00
65.6891 934.00
65.9933 874.00
66.2976 912.00
66.6019 917.00
66.9061 1007.00
67.2104 1003.00
67.5146 859.00
67.8189 908.00
68.1232 1046.00
68.4274 1108.00
68.7317 936.00
69.0359 983.00
69.3402 867.00
69.6445 1133.00
69.9487 1019.00
70.253 894.00
70.5572 975.00
70.8615 896.00
71.1658 972.00
71.47 971.00
71.7743 968.00
72.0785 1074.00
72.3828 972.00
72.6871 947.00
72.9913 921.00
73.2956 933.00
73.5998 948.00
73.9041 1171.00
74.2084 1050.00
74.5126 982.00
74.8169 979.00
75.1211 1096.00
75.4254 1219.00
75.7297 990.00
76.0339 1003.00
76.3382 930.00
76.6424 1285.00
76.9467 1096.00
77.251 965.00
77.5552 969.00
77.8595 1054.00
78.1637 1016.00
78.468 1006.00
78.7723 1033.00
79.0765 967.00
79.3808 1092.00
79.685 998.00
79.9893 1009.00
80.2936 983.00
80.5978 1096.00
80.9021 1099.00
81.2063 922.00
81.5106 1029.00
81.8149 1019.00
82.1191 1194.00
82.4234 1035.00
82.7277 1084.00
83.0319 1135.00
83.3362 1614.00
83.6404 1325.00
83.9447 1056.00
84.249 999.00
84.5532 1078.00
84.8575 1133.00
85.1617 1054.00
85.466 1055.00
85.7703 1093.00
86.0745 1333.00
86.3788 1113.00
86.683 1009.00
86.9873 1046.00
87.2916 1032.00
87.5958 1078.00
87.9001 1035.00
88.2043 1019.00
88.5086 1134.00
88.8129 1061.00
89.1171 1069.00
89.4214 1008.00
89.7256 1057.00
90.0299 1267.00
90.3342 1086.00
90.6384 1054.00
90.9427 1088.00
91.2469 1102.00
91.5512 1087.00
91.8555 1033.00
92.1597 1055.00
92.464 1094.00
92.7682 1089.00
93.0725 1071.00
93.3768 997.00
93.681 1094.00
93.9853 1074.00
94.2895 1048.00
94.5938 1022.00
94.8981 1028.00
95.2023 1209.00
95.5066 1170.00
95.8108 1135.00
96.1151 1116.00
96.4194 1175.00
96.7236 1333.00
97.0279 1239.00
97.3321 1096.00
97.6364 1176.00
97.9407 1279.00
98.2449 1234.00
98.5492 1095.00
98.8534 1106.00
99.1577 1105.00
99.462 1182.00
99.7662 1126.00
99.9944 1129.00