File: data/xrd_creation/results/PG_1319-1.xy
10.0094 2166.00
10.3137 2153.00
10.618 1993.00
10.9222 1944.00
11.2265 1815.00
11.5307 1819.00
11.835 1682.00
12.1393 1556.00
12.4435 1574.00
12.7478 1518.00
13.052 1418.00
13.3563 1282.00
13.6606 1266.00
13.9648 1318.00
14.2691 1213.00
14.5733 1210.00
14.8776 1177.00
15.1819 1104.00
15.4861 1077.00
15.7904 1084.00
16.0946 1125.00
16.3989 1051.00
16.7032 1091.00
17.0074 1063.00
17.3117 969.00
17.6159 931.00
17.9202 976.00
18.2245 916.00
18.5287 917.00
18.833 883.00
19.1372 907.00
19.4415 817.00
19.7458 809.00
20.05 811.00
20.3543 775.00
20.6585 768.00
20.9628 758.00
21.2671 693.00
21.5713 752.00
21.8756 655.00
22.1798 664.00
22.4841 637.00
22.7884 644.00
23.0926 688.00
23.3969 650.00
23.7011 617.00
24.0054 622.00
24.3097 568.00
24.6139 599.00
24.9182 590.00
25.2224 617.00
25.5267 569.00
25.831 577.00
26.1352 522.00
26.4395 557.00
26.7438 478.00
27.048 521.00
27.3523 540.00
27.6565 512.00
27.9608 504.00
28.2651 529.00
28.5693 480.00
28.8736 500.00
29.1778 452.00
29.4821 477.00
29.7864 409.00
30.0906 424.00
30.3949 409.00
30.6991 458.00
31.0034 396.00
31.3077 421.00
31.6119 416.00
31.9162 450.00
32.2204 413.00
32.5247 377.00
32.829 383.00
33.1332 360.00
33.4375 370.00
33.7417 378.00
34.046 356.00
34.3503 351.00
34.6545 394.00
34.9588 387.00
35.263 353.00
35.5673 349.00
35.8716 351.00
36.1758 348.00
36.4801 348.00
36.7843 355.00
37.0886 330.00
37.3929 324.00
37.6971 267.00
38.0014 292.00
38.3056 291.00
38.6099 290.00
38.9142 301.00
39.2184 282.00
39.5227 321.00
39.8269 267.00
40.1312 299.00
40.4355 264.00
40.7397 271.00
41.044 244.00
41.3482 264.00
41.6525 270.00
41.9568 264.00
42.261 287.00
42.5653 240.00
42.8695 267.00
43.1738 258.00
43.4781 223.00
43.7823 207.00
44.0866 223.00
44.3909 218.00
44.6951 246.00
44.9994 212.00
45.3036 243.00
45.6079 272.00
45.9122 226.00
46.2164 249.00
46.5207 239.00
46.8249 211.00
47.1292 218.00
47.4335 249.00
47.7377 237.00
48.042 235.00
48.3462 217.00
48.6505 221.00
48.9548 210.00
49.259 203.00
49.5633 200.00
49.8675 178.00
50.1718 203.00
50.4761 206.00
50.7803 191.00
51.0846 207.00
51.3888 210.00
51.6931 223.00
51.9974 212.00
52.3016 219.00
52.6059 178.00
52.9101 220.00
53.2144 197.00
53.5187 198.00
53.8229 197.00
54.1272 225.00
54.4314 185.00
54.7357 176.00
55.04 217.00
55.3442 168.00
55.6485 157.00
55.9527 182.00
56.257 152.00
56.5613 173.00
56.8655 170.00
57.1698 158.00
57.474 178.00
57.7783 173.00
58.0826 155.00
58.3868 161.00
58.6911 156.00
58.9953 163.00
59.2996 149.00
59.6039 162.00
59.9081 187.00
60.2124 158.00
60.5166 165.00
60.8209 157.00
61.1252 149.00
61.4294 179.00
61.7337 176.00
62.0379 172.00
62.3422 149.00
62.6465 154.00
62.9507 179.00
63.255 165.00
63.5592 179.00
63.8635 160.00
64.1678 163.00
64.472 141.00
64.7763 151.00
65.0806 146.00
65.3848 141.00
65.6891 168.00
65.9933 145.00
66.2976 142.00
66.6019 146.00
66.9061 165.00
67.2104 161.00
67.5146 166.00
67.8189 164.00
68.1232 129.00
68.4274 144.00
68.7317 167.00
69.0359 163.00
69.3402 126.00
69.6445 147.00
69.9487 151.00
70.253 162.00
70.5572 176.00
70.8615 165.00
71.1658 158.00
71.47 128.00
71.7743 143.00
72.0785 172.00
72.3828 138.00
72.6871 162.00
72.9913 154.00
73.2956 175.00
73.5998 152.00
73.9041 186.00
74.2084 183.00
74.5126 186.00
74.8169 161.00
75.1211 148.00
75.4254 191.00
75.7297 152.00
76.0339 177.00
76.3382 169.00
76.6424 152.00
76.9467 167.00
77.251 177.00
77.5552 159.00
77.8595 171.00
78.1637 152.00
78.468 167.00
78.7723 168.00
79.0765 182.00
79.3808 184.00
79.685 186.00
79.9893 182.00
80.2936 152.00
80.5978 202.00
80.9021 206.00
81.2063 189.00
81.5106 184.00
81.8149 179.00
82.1191 188.00
82.4234 205.00
82.7277 211.00
83.0319 183.00
83.3362 221.00
83.6404 181.00
83.9447 189.00
84.249 164.00
84.5532 174.00
84.8575 178.00
85.1617 166.00
85.466 166.00
85.7703 154.00
86.0745 153.00
86.3788 181.00
86.683 155.00
86.9873 151.00
87.2916 171.00
87.5958 177.00
87.9001 156.00
88.2043 140.00
88.5086 150.00
88.8129 153.00
89.1171 140.00
89.4214 160.00
89.7256 129.00
90.0299 135.00
90.3342 165.00
90.6384 144.00
90.9427 137.00
91.2469 161.00
91.5512 147.00
91.8555 154.00
92.1597 135.00
92.464 147.00
92.7682 147.00
93.0725 148.00
93.3768 147.00
93.681 132.00
93.9853 159.00
94.2895 161.00
94.5938 134.00
94.8981 150.00
95.2023 138.00
95.5066 168.00
95.8108 118.00
96.1151 149.00
96.4194 144.00
96.7236 142.00
97.0279 150.00
97.3321 164.00
97.6364 164.00
97.9407 158.00
98.2449 156.00
98.5492 152.00
98.8534 156.00
99.1577 133.00
99.462 131.00
99.7662 143.00
99.9944 130.00