File: data/xrd_creation/results/PG_1221-1.xy
10.0094 2619.00
10.3137 2617.00
10.618 2500.00
10.9222 2477.00
11.2265 2372.00
11.5307 2250.00
11.835 2244.00
12.1393 2158.00
12.4435 2192.00
12.7478 2080.00
13.052 2107.00
13.3563 2038.00
13.6606 2046.00
13.9648 2066.00
14.2691 1885.00
14.5733 1969.00
14.8776 1946.00
15.1819 1955.00
15.4861 2204.00
15.7904 4034.00
16.0946 5568.00
16.3989 2219.00
16.7032 1984.00
17.0074 1899.00
17.3117 1918.00
17.6159 1773.00
17.9202 1818.00
18.2245 1784.00
18.5287 1799.00
18.833 1730.00
19.1372 1783.00
19.4415 1669.00
19.7458 1759.00
20.05 1654.00
20.3543 1582.00
20.6585 1717.00
20.9628 1633.00
21.2671 1574.00
21.5713 1665.00
21.8756 1545.00
22.1798 1567.00
22.4841 1483.00
22.7884 1593.00
23.0926 1515.00
23.3969 1582.00
23.7011 1542.00
24.0054 1548.00
24.3097 1556.00
24.6139 1518.00
24.9182 1505.00
25.2224 1430.00
25.5267 1570.00
25.831 1453.00
26.1352 1537.00
26.4395 1482.00
26.7438 1517.00
27.048 1605.00
27.3523 2381.00
27.6565 6720.00
27.9608 2607.00
28.2651 7822.00
28.5693 2754.00
28.8736 1656.00
29.1778 1522.00
29.4821 1512.00
29.7864 1455.00
30.0906 1437.00
30.3949 1607.00
30.6991 1557.00
31.0034 1487.00
31.3077 1482.00
31.6119 1499.00
31.9162 2559.00
32.2204 1580.00
32.5247 1348.00
32.829 1367.00
33.1332 1371.00
33.4375 1342.00
33.7417 1319.00
34.046 1297.00
34.3503 1297.00
34.6545 1261.00
34.9588 1325.00
35.263 1306.00
35.5673 1341.00
35.8716 3799.00
36.1758 1677.00
36.4801 1534.00
36.7843 1325.00
37.0886 1256.00
37.3929 1282.00
37.6971 1297.00
38.0014 1214.00
38.3056 1209.00
38.6099 1234.00
38.9142 1316.00
39.2184 1454.00
39.5227 2139.00
39.8269 6189.00
40.1312 2101.00
40.4355 1369.00
40.7397 1235.00
41.044 1219.00
41.3482 1234.00
41.6525 1252.00
41.9568 1216.00
42.261 1359.00
42.5653 2067.00
42.8695 1370.00
43.1738 1240.00
43.4781 1468.00
43.7823 1379.00
44.0866 1166.00
44.3909 1195.00
44.6951 1135.00
44.9994 1141.00
45.3036 1261.00
45.6079 1108.00
45.9122 1243.00
46.2164 1182.00
46.5207 1183.00
46.8249 1198.00
47.1292 1298.00
47.4335 2109.00
47.7377 1455.00
48.042 1355.00
48.3462 2025.00
48.6505 3333.00
48.9548 5264.00
49.259 2394.00
49.5633 1477.00
49.8675 1314.00
50.1718 1625.00
50.4761 1477.00
50.7803 1216.00
51.0846 1139.00
51.3888 1172.00
51.6931 1156.00
51.9974 1206.00
52.3016 1101.00
52.6059 1080.00
52.9101 1135.00
53.2144 1049.00
53.5187 1152.00
53.8229 1147.00
54.1272 1259.00
54.4314 1183.00
54.7357 1141.00
55.04 1118.00
55.3442 1427.00
55.6485 2157.00
55.9527 1401.00
56.257 1305.00
56.5613 1701.00
56.8655 1407.00
57.1698 1178.00
57.474 1859.00
57.7783 1326.00
58.0826 1405.00
58.3868 1255.00
58.6911 1137.00
58.9953 1406.00
59.2996 1354.00
59.6039 1212.00
59.9081 1109.00
60.2124 1081.00
60.5166 1099.00
60.8209 1101.00
61.1252 1084.00
61.4294 1150.00
61.7337 1165.00
62.0379 1057.00
62.3422 1149.00
62.6465 1115.00
62.9507 1370.00
63.255 1820.00
63.5592 1175.00
63.8635 1271.00
64.1678 1731.00
64.472 1805.00
64.7763 1299.00
65.0806 1245.00
65.3848 1428.00
65.6891 1283.00
65.9933 1224.00
66.2976 1199.00
66.6019 1157.00
66.9061 1102.00
67.2104 1079.00
67.5146 1149.00
67.8189 1121.00
68.1232 1114.00
68.4274 1128.00
68.7317 1117.00
69.0359 1090.00
69.3402 1149.00
69.6445 1286.00
69.9487 1666.00
70.253 1365.00
70.5572 1265.00
70.8615 1231.00
71.1658 1360.00
71.47 1310.00
71.7743 1120.00
72.0785 1148.00
72.3828 1110.00
72.6871 1108.00
72.9913 1221.00
73.2956 1207.00
73.5998 1099.00
73.9041 1090.00
74.2084 1158.00
74.5126 1170.00
74.8169 1164.00
75.1211 1098.00
75.4254 1145.00
75.7297 1190.00
76.0339 1312.00
76.3382 1379.00
76.6424 1545.00
76.9467 1359.00
77.251 1468.00
77.5552 1803.00
77.8595 1907.00
78.1637 1471.00
78.468 1230.00
78.7723 1326.00
79.0765 1204.00
79.3808 1114.00
79.685 1149.00
79.9893 1118.00
80.2936 1107.00
80.5978 1055.00
80.9021 1085.00
81.2063 1155.00
81.5106 1066.00
81.8149 1143.00
82.1191 1136.00
82.4234 1202.00
82.7277 1280.00
83.0319 1152.00
83.3362 1055.00
83.6404 1079.00
83.9447 1065.00
84.249 1093.00
84.5532 1153.00
84.8575 1119.00
85.1617 1173.00
85.466 1142.00
85.7703 1070.00
86.0745 1135.00
86.3788 1123.00
86.683 1140.00
86.9873 1092.00
87.2916 1125.00
87.5958 1197.00
87.9001 1055.00
88.2043 1140.00
88.5086 1128.00
88.8129 1300.00
89.1171 1384.00
89.4214 1297.00
89.7256 1147.00
90.0299 1185.00
90.3342 1437.00
90.6384 1427.00
90.9427 1212.00
91.2469 1143.00
91.5512 1234.00
91.8555 1172.00
92.1597 1207.00
92.464 1120.00
92.7682 1081.00
93.0725 1128.00
93.3768 1089.00
93.681 1081.00
93.9853 1101.00
94.2895 1160.00
94.5938 1143.00
94.8981 1174.00
95.2023 1253.00
95.5066 1247.00
95.8108 1473.00
96.1151 1377.00
96.4194 1242.00
96.7236 1308.00
97.0279 1305.00
97.3321 1270.00
97.6364 1179.00
97.9407 1120.00
98.2449 1101.00
98.5492 1139.00
98.8534 1070.00
99.1577 1091.00
99.462 1090.00
99.7662 1057.00
99.9944 1131.00