File: data/xrd_creation/results/PG_1851-1.xy
9.903433 2550.00
10.2077 2401.00
10.512 2420.00
10.8162 2306.00
11.1205 2140.00
11.4247 2155.00
11.729 2081.00
12.0333 1952.00
12.3375 1808.00
12.6418 1792.00
12.946 1760.00
13.2503 1693.00
13.5546 1620.00
13.8588 1566.00
14.1631 1571.00
14.4673 1636.00
14.7716 1451.00
15.0759 1405.00
15.3801 1507.00
15.6844 1376.00
15.9886 1349.00
16.2929 1305.00
16.5972 1308.00
16.9014 1287.00
17.2057 1273.00
17.5099 1315.00
17.8142 1313.00
18.1185 1238.00
18.4227 1204.00
18.727 1114.00
19.0312 1057.00
19.3355 1096.00
19.6398 1070.00
19.944 1041.00
20.2483 1058.00
20.5525 954.00
20.8568 985.00
21.1611 1057.00
21.4653 1160.00
21.7696 2031.00
22.0738 968.00
22.3781 969.00
22.6824 942.00
22.9866 938.00
23.2909 885.00
23.5951 848.00
23.8994 872.00
24.2037 842.00
24.5079 834.00
24.8122 891.00
25.1164 799.00
25.4207 785.00
25.725 743.00
26.0292 732.00
26.3335 742.00
26.6378 731.00
26.942 702.00
27.2463 741.00
27.5505 701.00
27.8548 828.00
28.1591 720.00
28.4633 645.00
28.7676 635.00
29.0718 676.00
29.3761 631.00
29.6804 646.00
29.9846 692.00
30.2889 804.00
30.5931 1485.00
30.8974 11349.00
31.2017 1542.00
31.5059 1433.00
31.8102 1401.00
32.1144 1053.00
32.4187 984.00
32.723 1069.00
33.0272 899.00
33.3315 845.00
33.6357 691.00
33.94 745.00
34.2443 734.00
34.5485 834.00
34.8528 1172.00
35.157 1537.00
35.4613 1441.00
35.7656 5350.00
36.0698 1259.00
36.3741 1512.00
36.6783 905.00
36.9826 617.00
37.2869 590.00
37.5911 593.00
37.8954 942.00
38.1996 569.00
38.5039 494.00
38.8082 492.00
39.1124 466.00
39.4167 433.00
39.7209 486.00
40.0252 597.00
40.3295 457.00
40.6337 410.00
40.938 440.00
41.2422 515.00
41.5465 453.00
41.8508 444.00
42.155 904.00
42.4593 437.00
42.7635 400.00
43.0678 376.00
43.3721 427.00
43.6763 436.00
43.9806 484.00
44.2849 440.00
44.5891 529.00
44.8934 409.00
45.1976 417.00
45.5019 471.00
45.8062 686.00
46.1104 803.00
46.4147 420.00
46.7189 531.00
47.0232 719.00
47.3275 515.00
47.6317 621.00
47.936 606.00
48.2402 412.00
48.5445 387.00
48.8488 395.00
49.153 372.00
49.4573 545.00
49.7615 435.00
50.0658 423.00
50.3701 405.00
50.6743 473.00
50.9786 683.00
51.2828 5948.00
51.5871 531.00
51.8914 370.00
52.1956 407.00
52.4999 378.00
52.8041 385.00
53.1084 537.00
53.4127 395.00
53.7169 374.00
54.0212 367.00
54.3254 422.00
54.6297 486.00
54.934 441.00
55.2382 703.00
55.5425 1245.00
55.8467 590.00
56.151 1001.00
56.4553 734.00
56.7595 737.00
57.0638 440.00
57.368 458.00
57.6723 406.00
57.9766 462.00
58.2808 350.00
58.5851 358.00
58.8893 535.00
59.1936 535.00
59.4979 748.00
59.8021 437.00
60.1064 455.00
60.4106 722.00
60.7149 920.00
61.0192 2382.00
61.3234 500.00
61.6277 465.00
61.932 502.00
62.2362 549.00
62.5405 899.00
62.8447 533.00
63.149 632.00
63.4533 565.00
63.7575 583.00
64.0618 804.00
64.366 412.00
64.6703 379.00
64.9745 550.00
65.2788 623.00
65.5831 993.00
65.8873 609.00
66.1916 497.00
66.4959 479.00
66.8001 687.00
67.1044 659.00
67.4086 615.00
67.7129 661.00
68.0172 615.00
68.3214 808.00
68.6257 562.00
68.9299 455.00
69.2342 469.00
69.5385 424.00
69.8427 455.00
70.147 343.00
70.4512 307.00
70.7555 336.00
71.0598 324.00
71.364 327.00
71.6683 278.00
71.9725 354.00
72.2768 357.00
72.5811 347.00
72.8853 350.00
73.1896 349.00
73.4938 343.00
73.7981 520.00
74.1024 476.00
74.4066 346.00
74.7109 332.00
75.0151 357.00
75.3194 683.00
75.6237 415.00
75.9279 342.00
76.2322 371.00
76.5364 658.00
76.8407 656.00
77.145 397.00
77.4492 319.00
77.7535 344.00
78.0577 443.00
78.362 384.00
78.6663 314.00
78.9705 346.00
79.2748 558.00
79.579 510.00
79.8833 323.00
80.1876 334.00
80.4918 356.00
80.7961 400.00
81.1003 369.00
81.4046 314.00
81.7089 355.00
82.0131 799.00
82.3174 476.00
82.6217 342.00
82.9259 331.00
83.2302 612.00
83.5344 731.00
83.8387 314.00
84.143 342.00
84.4472 335.00
84.7515 309.00
85.0557 368.00
85.36 393.00
85.6643 382.00
85.9685 895.00
86.2728 794.00
86.577 337.00
86.8813 360.00
87.1856 367.00
87.4898 349.00
87.7941 335.00
88.0983 356.00
88.4026 354.00
88.7069 506.00
89.0111 408.00
89.3154 406.00
89.6196 409.00
89.9239 622.00
90.2282 573.00
90.5324 388.00
90.8367 361.00
91.1409 357.00
91.4452 357.00
91.7495 371.00
92.0537 405.00
92.358 515.00
92.6622 926.00
92.9665 685.00
93.2708 405.00
93.575 399.00
93.8793 342.00
94.1835 346.00
94.4878 356.00
94.7921 397.00
95.0963 433.00
95.4006 548.00
95.7048 449.00
96.0091 361.00
96.3134 354.00
96.6176 971.00
96.9219 673.00
97.2261 372.00
97.5304 368.00
97.8347 421.00
98.1389 425.00
98.4432 412.00
98.7474 413.00
99.0517 394.00
99.356 563.00
99.6602 445.00
99.9645 389.00
100.095 401.00