File: data/xrd_creation/results/PG_1746-1.xy
9.903433 2270.00
10.2077 2163.00
10.512 2163.00
10.8162 2081.00
11.1205 2081.00
11.4247 1824.00
11.729 1889.00
12.0333 1832.00
12.3375 1734.00
12.6418 1643.00
12.946 1615.00
13.2503 1625.00
13.5546 1511.00
13.8588 1450.00
14.1631 1430.00
14.4673 1418.00
14.7716 1303.00
15.0759 1355.00
15.3801 1323.00
15.6844 1263.00
15.9886 1265.00
16.2929 1314.00
16.5972 1200.00
16.9014 1297.00
17.2057 1234.00
17.5099 1197.00
17.8142 1255.00
18.1185 1215.00
18.4227 1159.00
18.727 1093.00
19.0312 1039.00
19.3355 1034.00
19.6398 1023.00
19.944 1012.00
20.2483 1013.00
20.5525 952.00
20.8568 977.00
21.1611 945.00
21.4653 957.00
21.7696 841.00
22.0738 885.00
22.3781 914.00
22.6824 866.00
22.9866 878.00
23.2909 867.00
23.5951 822.00
23.8994 842.00
24.2037 1001.00
24.5079 1579.00
24.8122 1226.00
25.1164 1094.00
25.4207 837.00
25.725 914.00
26.0292 799.00
26.3335 803.00
26.6378 788.00
26.942 730.00
27.2463 810.00
27.5505 1269.00
27.8548 1808.00
28.1591 1042.00
28.4633 2706.00
28.7676 6693.00
29.0718 1191.00
29.3761 798.00
29.6804 789.00
29.9846 757.00
30.2889 734.00
30.5931 714.00
30.8974 740.00
31.2017 805.00
31.5059 991.00
31.8102 2806.00
32.1144 4665.00
32.4187 964.00
32.723 720.00
33.0272 634.00
33.3315 688.00
33.6357 652.00
33.94 641.00
34.2443 767.00
34.5485 1727.00
34.8528 2205.00
35.157 1323.00
35.4613 791.00
35.7656 1762.00
36.0698 1469.00
36.3741 1796.00
36.6783 755.00
36.9826 566.00
37.2869 573.00
37.5911 517.00
37.8954 594.00
38.1996 574.00
38.5039 591.00
38.8082 671.00
39.1124 1207.00
39.4167 794.00
39.7209 548.00
40.0252 546.00
40.3295 560.00
40.6337 622.00
40.938 658.00
41.2422 1390.00
41.5465 1425.00
41.8508 971.00
42.155 712.00
42.4593 542.00
42.7635 494.00
43.0678 509.00
43.3721 489.00
43.6763 477.00
43.9806 495.00
44.2849 620.00
44.5891 518.00
44.8934 505.00
45.1976 634.00
45.5019 886.00
45.8062 691.00
46.1104 1073.00
46.4147 631.00
46.7189 507.00
47.0232 503.00
47.3275 485.00
47.6317 460.00
47.936 502.00
48.2402 552.00
48.5445 494.00
48.8488 478.00
49.153 526.00
49.4573 703.00
49.7615 1439.00
50.0658 1517.00
50.3701 713.00
50.6743 1711.00
50.9786 1832.00
51.2828 1562.00
51.5871 680.00
51.8914 1004.00
52.1956 563.00
52.4999 499.00
52.8041 455.00
53.1084 524.00
53.4127 509.00
53.7169 525.00
54.0212 579.00
54.3254 1067.00
54.6297 2012.00
54.934 1204.00
55.2382 722.00
55.5425 692.00
55.8467 1305.00
56.151 2002.00
56.4553 1185.00
56.7595 1389.00
57.0638 695.00
57.368 602.00
57.6723 864.00
57.9766 1222.00
58.2808 697.00
58.5851 1153.00
58.8893 985.00
59.1936 731.00
59.4979 590.00
59.8021 535.00
60.1064 629.00
60.4106 1200.00
60.7149 1524.00
61.0192 806.00
61.3234 587.00
61.6277 607.00
61.932 984.00
62.2362 973.00
62.5405 1197.00
62.8447 1105.00
63.149 780.00
63.4533 1231.00
63.7575 1129.00
64.0618 639.00
64.366 691.00
64.6703 597.00
64.9745 903.00
65.2788 605.00
65.5831 550.00
65.8873 632.00
66.1916 991.00
66.4959 1409.00
66.8001 815.00
67.1044 514.00
67.4086 469.00
67.7129 476.00
68.0172 499.00
68.3214 475.00
68.6257 561.00
68.9299 693.00
69.2342 848.00
69.5385 794.00
69.8427 863.00
70.147 608.00
70.4512 602.00
70.7555 513.00
71.0598 477.00
71.364 518.00
71.6683 695.00
71.9725 1110.00
72.2768 734.00
72.5811 616.00
72.8853 711.00
73.1896 706.00
73.4938 725.00
73.7981 514.00
74.1024 552.00
74.4066 491.00
74.7109 500.00
75.0151 483.00
75.3194 602.00
75.6237 751.00
75.9279 943.00
76.2322 752.00
76.5364 571.00
76.8407 529.00
77.145 712.00
77.4492 710.00
77.7535 609.00
78.0577 640.00
78.362 664.00
78.6663 657.00
78.9705 637.00
79.2748 610.00
79.579 696.00
79.8833 812.00
80.1876 586.00
80.4918 508.00
80.7961 489.00
81.1003 567.00
81.4046 533.00
81.7089 531.00
82.0131 614.00
82.3174 877.00
82.6217 750.00
82.9259 665.00
83.2302 646.00
83.5344 791.00
83.8387 831.00
84.143 846.00
84.4472 830.00
84.7515 869.00
85.0557 889.00
85.36 714.00
85.6643 718.00
85.9685 653.00
86.2728 549.00
86.577 520.00
86.8813 668.00
87.1856 687.00
87.4898 560.00
87.7941 592.00
88.0983 614.00
88.4026 724.00
88.7069 759.00
89.0111 865.00
89.3154 955.00
89.6196 866.00
89.9239 782.00
90.2282 718.00
90.5324 761.00
90.8367 909.00
91.1409 686.00
91.4452 632.00
91.7495 612.00
92.0537 654.00
92.358 644.00
92.6622 573.00
92.9665 524.00
93.2708 541.00
93.575 520.00
93.8793 550.00
94.1835 572.00
94.4878 613.00
94.7921 700.00
95.0963 755.00
95.4006 733.00
95.7048 824.00
96.0091 879.00
96.3134 886.00
96.6176 629.00
96.9219 725.00
97.2261 909.00
97.5304 1169.00
97.8347 1016.00
98.1389 882.00
98.4432 713.00
98.7474 666.00
99.0517 825.00
99.356 811.00
99.6602 828.00
99.9645 815.00
100.095 873.00