File: data/xrd_creation/results/PG_1847-1.xy
9.903433 2497.00
10.2077 2444.00
10.512 2429.00
10.8162 2284.00
11.1205 2230.00
11.4247 2204.00
11.729 2007.00
12.0333 1939.00
12.3375 1910.00
12.6418 1782.00
12.946 1757.00
13.2503 1735.00
13.5546 1660.00
13.8588 1707.00
14.1631 1630.00
14.4673 1644.00
14.7716 1503.00
15.0759 1519.00
15.3801 1473.00
15.6844 1482.00
15.9886 1448.00
16.2929 1423.00
16.5972 1403.00
16.9014 1393.00
17.2057 1381.00
17.5099 1424.00
17.8142 1383.00
18.1185 1348.00
18.4227 1438.00
18.727 2035.00
19.0312 2888.00
19.3355 1278.00
19.6398 1200.00
19.944 1173.00
20.2483 1199.00
20.5525 1205.00
20.8568 1351.00
21.1611 4100.00
21.4653 1173.00
21.7696 1155.00
22.0738 1092.00
22.3781 1026.00
22.6824 1075.00
22.9866 1067.00
23.2909 2467.00
23.5951 1055.00
23.8994 1045.00
24.2037 973.00
24.5079 1005.00
24.8122 920.00
25.1164 1504.00
25.4207 904.00
25.725 934.00
26.0292 851.00
26.3335 825.00
26.6378 904.00
26.942 806.00
27.2463 957.00
27.5505 892.00
27.8548 836.00
28.1591 766.00
28.4633 765.00
28.7676 818.00
29.0718 790.00
29.3761 796.00
29.6804 719.00
29.9846 696.00
30.2889 717.00
30.5931 715.00
30.8974 846.00
31.2017 961.00
31.5059 1938.00
31.8102 701.00
32.1144 697.00
32.4187 768.00
32.723 761.00
33.0272 838.00
33.3315 6753.00
33.6357 922.00
33.94 706.00
34.2443 688.00
34.5485 679.00
34.8528 1168.00
35.157 735.00
35.4613 2987.00
35.7656 793.00
36.0698 627.00
36.3741 614.00
36.6783 606.00
36.9826 611.00
37.2869 554.00
37.5911 575.00
37.8954 657.00
38.1996 706.00
38.5039 549.00
38.8082 563.00
39.1124 564.00
39.4167 581.00
39.7209 552.00
40.0252 547.00
40.3295 501.00
40.6337 810.00
40.938 499.00
41.2422 518.00
41.5465 556.00
41.8508 748.00
42.155 931.00
42.4593 558.00
42.7635 1267.00
43.0678 533.00
43.3721 460.00
43.6763 508.00
43.9806 515.00
44.2849 493.00
44.5891 523.00
44.8934 494.00
45.1976 835.00
45.5019 564.00
45.8062 555.00
46.1104 497.00
46.4147 459.00
46.7189 481.00
47.0232 555.00
47.3275 3815.00
47.6317 562.00
47.936 500.00
48.2402 478.00
48.5445 438.00
48.8488 636.00
49.153 523.00
49.4573 419.00
49.7615 440.00
50.0658 431.00
50.3701 468.00
50.6743 473.00
50.9786 923.00
51.2828 1744.00
51.5871 494.00
51.8914 479.00
52.1956 453.00
52.4999 444.00
52.8041 430.00
53.1084 428.00
53.4127 414.00
53.7169 712.00
54.0212 433.00
54.3254 447.00
54.6297 428.00
54.934 440.00
55.2382 443.00
55.5425 706.00
55.8467 512.00
56.151 1587.00
56.4553 837.00
56.7595 1533.00
57.0638 707.00
57.368 543.00
57.6723 416.00
57.9766 496.00
58.2808 1749.00
58.5851 540.00
58.8893 432.00
59.1936 437.00
59.4979 456.00
59.8021 723.00
60.1064 501.00
60.4106 504.00
60.7149 879.00
61.0192 593.00
61.3234 1312.00
61.6277 470.00
61.932 424.00
62.2362 408.00
62.5405 387.00
62.8447 455.00
63.149 376.00
63.4533 429.00
63.7575 1016.00
64.0618 464.00
64.366 409.00
64.6703 419.00
64.9745 853.00
65.2788 638.00
65.5831 1645.00
65.8873 558.00
66.1916 545.00
66.4959 421.00
66.8001 468.00
67.1044 379.00
67.4086 410.00
67.7129 428.00
68.0172 2141.00
68.3214 518.00
68.6257 430.00
68.9299 425.00
69.2342 489.00
69.5385 531.00
69.8427 640.00
70.147 420.00
70.4512 375.00
70.7555 560.00
71.0598 365.00
71.364 356.00
71.6683 355.00
71.9725 403.00
72.2768 640.00
72.5811 446.00
72.8853 496.00
73.1896 351.00
73.4938 394.00
73.7981 482.00
74.1024 391.00
74.4066 376.00
74.7109 917.00
75.0151 531.00
75.3194 422.00
75.6237 556.00
75.9279 609.00
76.2322 482.00
76.5364 521.00
76.8407 349.00
77.145 386.00
77.4492 542.00
77.7535 396.00
78.0577 360.00
78.362 354.00
78.6663 366.00
78.9705 346.00
79.2748 358.00
79.579 346.00
79.8833 359.00
80.1876 363.00
80.4918 389.00
80.7961 567.00
81.1003 1229.00
81.4046 589.00
81.7089 367.00
82.0131 323.00
82.3174 358.00
82.6217 337.00
82.9259 357.00
83.2302 380.00
83.5344 1046.00
83.8387 516.00
84.143 450.00
84.4472 438.00
84.7515 413.00
85.0557 573.00
85.36 442.00
85.6643 369.00
85.9685 398.00
86.2728 392.00
86.577 366.00
86.8813 425.00
87.1856 1001.00
87.4898 544.00
87.7941 362.00
88.0983 357.00
88.4026 368.00
88.7069 378.00
89.0111 528.00
89.3154 386.00
89.6196 382.00
89.9239 358.00
90.2282 366.00
90.5324 377.00
90.8367 565.00
91.1409 566.00
91.4452 880.00
91.7495 1078.00
92.0537 554.00
92.358 528.00
92.6622 917.00
92.9665 676.00
93.2708 468.00
93.575 431.00
93.8793 385.00
94.1835 371.00
94.4878 398.00
94.7921 443.00
95.0963 370.00
95.4006 399.00
95.7048 358.00
96.0091 349.00
96.3134 356.00
96.6176 403.00
96.9219 343.00
97.2261 374.00
97.5304 392.00
97.8347 401.00
98.1389 370.00
98.4432 368.00
98.7474 379.00
99.0517 440.00
99.356 497.00
99.6602 421.00
99.9645 1299.00
100.095 553.00