File: data/xrd_creation/results/PG_1841-1.xy
9.903433 2635.00
10.2077 2450.00
10.512 2434.00
10.8162 2308.00
11.1205 2151.00
11.4247 2137.00
11.729 2116.00
12.0333 2071.00
12.3375 1901.00
12.6418 1947.00
12.946 1888.00
13.2503 1712.00
13.5546 1830.00
13.8588 2016.00
14.1631 2096.00
14.4673 1611.00
14.7716 1589.00
15.0759 1479.00
15.3801 1586.00
15.6844 1561.00
15.9886 1582.00
16.2929 1507.00
16.5972 1592.00
16.9014 1447.00
17.2057 1440.00
17.5099 1373.00
17.8142 1417.00
18.1185 1372.00
18.4227 1334.00
18.727 1260.00
19.0312 1319.00
19.3355 1241.00
19.6398 1322.00
19.944 1246.00
20.2483 1184.00
20.5525 1202.00
20.8568 1203.00
21.1611 1240.00
21.4653 1189.00
21.7696 2220.00
22.0738 1144.00
22.3781 1128.00
22.6824 1109.00
22.9866 1054.00
23.2909 1093.00
23.5951 1045.00
23.8994 1027.00
24.2037 992.00
24.5079 1015.00
24.8122 943.00
25.1164 1015.00
25.4207 974.00
25.725 1003.00
26.0292 932.00
26.3335 918.00
26.6378 905.00
26.942 957.00
27.2463 1016.00
27.5505 1289.00
27.8548 5011.00
28.1591 3412.00
28.4633 1107.00
28.7676 1266.00
29.0718 962.00
29.3761 885.00
29.6804 880.00
29.9846 951.00
30.2889 1026.00
30.5931 1667.00
30.8974 17194.00
31.2017 1340.00
31.5059 963.00
31.8102 893.00
32.1144 1164.00
32.4187 6980.00
32.723 1020.00
33.0272 861.00
33.3315 888.00
33.6357 777.00
33.94 764.00
34.2443 733.00
34.5485 703.00
34.8528 778.00
35.157 885.00
35.4613 1835.00
35.7656 5580.00
36.0698 881.00
36.3741 649.00
36.6783 640.00
36.9826 729.00
37.2869 688.00
37.5911 620.00
37.8954 847.00
38.1996 683.00
38.5039 643.00
38.8082 594.00
39.1124 594.00
39.4167 603.00
39.7209 579.00
40.0252 670.00
40.3295 552.00
40.6337 515.00
40.938 560.00
41.2422 566.00
41.5465 550.00
41.8508 616.00
42.155 1390.00
42.4593 828.00
42.7635 531.00
43.0678 484.00
43.3721 571.00
43.6763 446.00
43.9806 557.00
44.2849 538.00
44.5891 564.00
44.8934 541.00
45.1976 530.00
45.5019 549.00
45.8062 763.00
46.1104 2123.00
46.4147 4699.00
46.7189 715.00
47.0232 530.00
47.3275 596.00
47.6317 462.00
47.936 480.00
48.2402 527.00
48.5445 762.00
48.8488 498.00
49.153 531.00
49.4573 565.00
49.7615 633.00
50.0658 580.00
50.3701 548.00
50.6743 552.00
50.9786 815.00
51.2828 5811.00
51.5871 979.00
51.8914 546.00
52.1956 531.00
52.4999 488.00
52.8041 489.00
53.1084 678.00
53.4127 508.00
53.7169 472.00
54.0212 522.00
54.3254 563.00
54.6297 1368.00
54.934 4235.00
55.2382 822.00
55.5425 558.00
55.8467 525.00
56.151 679.00
56.4553 799.00
56.7595 510.00
57.0638 540.00
57.368 1167.00
57.6723 1088.00
57.9766 598.00
58.2808 491.00
58.5851 476.00
58.8893 511.00
59.1936 666.00
59.4979 1351.00
59.8021 505.00
60.1064 490.00
60.4106 554.00
60.7149 811.00
61.0192 2361.00
61.3234 692.00
61.6277 496.00
61.932 525.00
62.2362 500.00
62.5405 847.00
62.8447 508.00
63.149 446.00
63.4533 449.00
63.7575 522.00
64.0618 859.00
64.366 1075.00
64.6703 546.00
64.9745 418.00
65.2788 466.00
65.5831 586.00
65.8873 433.00
66.1916 446.00
66.4959 401.00
66.8001 524.00
67.1044 526.00
67.4086 861.00
67.7129 464.00
68.0172 452.00
68.3214 784.00
68.6257 459.00
68.9299 506.00
69.2342 726.00
69.5385 451.00
69.8427 486.00
70.147 412.00
70.4512 355.00
70.7555 393.00
71.0598 382.00
71.364 389.00
71.6683 411.00
71.9725 467.00
72.2768 429.00
72.5811 408.00
72.8853 348.00
73.1896 378.00
73.4938 450.00
73.7981 622.00
74.1024 826.00
74.4066 1206.00
74.7109 588.00
75.0151 459.00
75.3194 836.00
75.6237 484.00
75.9279 438.00
76.2322 526.00
76.5364 1903.00
76.8407 1197.00
77.145 480.00
77.4492 394.00
77.7535 423.00
78.0577 640.00
78.362 537.00
78.6663 437.00
78.9705 428.00
79.2748 477.00
79.579 519.00
79.8833 393.00
80.1876 397.00
80.4918 382.00
80.7961 450.00
81.1003 414.00
81.4046 411.00
81.7089 412.00
82.0131 720.00
82.3174 652.00
82.6217 543.00
82.9259 540.00
83.2302 555.00
83.5344 657.00
83.8387 457.00
84.143 401.00
84.4472 377.00
84.7515 409.00
85.0557 462.00
85.36 939.00
85.6643 894.00
85.9685 706.00
86.2728 658.00
86.577 444.00
86.8813 408.00
87.1856 426.00
87.4898 476.00
87.7941 366.00
88.0983 377.00
88.4026 373.00
88.7069 504.00
89.0111 442.00
89.3154 373.00
89.6196 401.00
89.9239 490.00
90.2282 505.00
90.5324 394.00
90.8367 378.00
91.1409 453.00
91.4452 1038.00
91.7495 755.00
92.0537 960.00
92.358 628.00
92.6622 647.00
92.9665 546.00
93.2708 383.00
93.575 396.00
93.8793 329.00
94.1835 375.00
94.4878 354.00
94.7921 374.00
95.0963 423.00
95.4006 604.00
95.7048 563.00
96.0091 434.00
96.3134 447.00
96.6176 717.00
96.9219 556.00
97.2261 445.00
97.5304 381.00
97.8347 391.00
98.1389 462.00
98.4432 439.00
98.7474 371.00
99.0517 434.00
99.356 539.00
99.6602 445.00
99.9645 423.00
100.095 440.00