File: data/xrd_creation/results/PG_1745-1.xy
9.903433 2592.00
10.2077 2387.00
10.512 2337.00
10.8162 2252.00
11.1205 2117.00
11.4247 2111.00
11.729 2029.00
12.0333 1966.00
12.3375 1963.00
12.6418 1854.00
12.946 1776.00
13.2503 1703.00
13.5546 1739.00
13.8588 1730.00
14.1631 1654.00
14.4673 1565.00
14.7716 1540.00
15.0759 1534.00
15.3801 1516.00
15.6844 1538.00
15.9886 1487.00
16.2929 1460.00
16.5972 1415.00
16.9014 1392.00
17.2057 1420.00
17.5099 1380.00
17.8142 1549.00
18.1185 1368.00
18.4227 1268.00
18.727 1315.00
19.0312 1286.00
19.3355 1219.00
19.6398 1217.00
19.944 1283.00
20.2483 1264.00
20.5525 1236.00
20.8568 1146.00
21.1611 1090.00
21.4653 1235.00
21.7696 1248.00
22.0738 1410.00
22.3781 1199.00
22.6824 1101.00
22.9866 1075.00
23.2909 1067.00
23.5951 972.00
23.8994 1037.00
24.2037 1164.00
24.5079 2181.00
24.8122 1796.00
25.1164 1274.00
25.4207 3839.00
25.725 1314.00
26.0292 2385.00
26.3335 1114.00
26.6378 1009.00
26.942 968.00
27.2463 937.00
27.5505 972.00
27.8548 1050.00
28.1591 1247.00
28.4633 3725.00
28.7676 5170.00
29.0718 1435.00
29.3761 1063.00
29.6804 1134.00
29.9846 1346.00
30.2889 1094.00
30.5931 1447.00
30.8974 2176.00
31.2017 2884.00
31.5059 2376.00
31.8102 4998.00
32.1144 3239.00
32.4187 1263.00
32.723 952.00
33.0272 916.00
33.3315 880.00
33.6357 877.00
33.94 907.00
34.2443 1063.00
34.5485 2682.00
34.8528 2826.00
35.157 1296.00
35.4613 1492.00
35.7656 2753.00
36.0698 1126.00
36.3741 1907.00
36.6783 1452.00
36.9826 1446.00
37.2869 776.00
37.5911 716.00
37.8954 768.00
38.1996 796.00
38.5039 768.00
38.8082 835.00
39.1124 1466.00
39.4167 836.00
39.7209 778.00
40.0252 775.00
40.3295 794.00
40.6337 745.00
40.938 881.00
41.2422 1761.00
41.5465 1424.00
41.8508 1149.00
42.155 832.00
42.4593 708.00
42.7635 723.00
43.0678 727.00
43.3721 818.00
43.6763 784.00
43.9806 892.00
44.2849 2042.00
44.5891 1514.00
44.8934 1022.00
45.1976 1047.00
45.5019 1083.00
45.8062 1204.00
46.1104 1430.00
46.4147 821.00
46.7189 979.00
47.0232 965.00
47.3275 765.00
47.6317 763.00
47.936 1459.00
48.2402 827.00
48.5445 737.00
48.8488 743.00
49.153 758.00
49.4573 1026.00
49.7615 2205.00
50.0658 1755.00
50.3701 1429.00
50.6743 2781.00
50.9786 1595.00
51.2828 1358.00
51.5871 873.00
51.8914 1151.00
52.1956 762.00
52.4999 706.00
52.8041 686.00
53.1084 727.00
53.4127 761.00
53.7169 695.00
54.0212 851.00
54.3254 956.00
54.6297 1801.00
54.934 1577.00
55.2382 1597.00
55.5425 1442.00
55.8467 2026.00
56.151 1882.00
56.4553 1487.00
56.7595 1127.00
57.0638 831.00
57.368 934.00
57.6723 1337.00
57.9766 1175.00
58.2808 862.00
58.5851 1300.00
58.8893 1143.00
59.1936 1055.00
59.4979 749.00
59.8021 779.00
60.1064 1068.00
60.4106 1556.00
60.7149 1381.00
61.0192 868.00
61.3234 785.00
61.6277 801.00
61.932 1277.00
62.2362 1028.00
62.5405 1384.00
62.8447 992.00
63.149 986.00
63.4533 1513.00
63.7575 1144.00
64.0618 1002.00
64.366 1017.00
64.6703 1108.00
64.9745 1144.00
65.2788 869.00
65.5831 895.00
65.8873 1074.00
66.1916 1282.00
66.4959 1347.00
66.8001 939.00
67.1044 788.00
67.4086 717.00
67.7129 705.00
68.0172 657.00
68.3214 674.00
68.6257 732.00
68.9299 755.00
69.2342 731.00
69.5385 908.00
69.8427 848.00
70.147 770.00
70.4512 731.00
70.7555 724.00
71.0598 750.00
71.364 788.00
71.6683 1035.00
71.9725 1294.00
72.2768 1040.00
72.5811 919.00
72.8853 1022.00
73.1896 1152.00
73.4938 1031.00
73.7981 1129.00
74.1024 1044.00
74.4066 886.00
74.7109 874.00
75.0151 822.00
75.3194 1007.00
75.6237 1030.00
75.9279 1094.00
76.2322 941.00
76.5364 770.00
76.8407 795.00
77.145 998.00
77.4492 861.00
77.7535 974.00
78.0577 908.00
78.362 956.00
78.6663 853.00
78.9705 839.00
79.2748 743.00
79.579 917.00
79.8833 929.00
80.1876 800.00
80.4918 814.00
80.7961 726.00
81.1003 773.00
81.4046 761.00
81.7089 847.00
82.0131 932.00
82.3174 1141.00
82.6217 883.00
82.9259 893.00
83.2302 1034.00
83.5344 957.00
83.8387 1049.00
84.143 954.00
84.4472 955.00
84.7515 1035.00
85.0557 973.00
85.36 896.00
85.6643 973.00
85.9685 853.00
86.2728 794.00
86.577 784.00
86.8813 891.00
87.1856 851.00
87.4898 773.00
87.7941 791.00
88.0983 878.00
88.4026 959.00
88.7069 963.00
89.0111 1041.00
89.3154 1251.00
89.6196 1087.00
89.9239 1152.00
90.2282 1115.00
90.5324 1089.00
90.8367 1036.00
91.1409 886.00
91.4452 781.00
91.7495 868.00
92.0537 910.00
92.358 853.00
92.6622 754.00
92.9665 764.00
93.2708 758.00
93.575 723.00
93.8793 816.00
94.1835 815.00
94.4878 837.00
94.7921 988.00
95.0963 890.00
95.4006 874.00
95.7048 936.00
96.0091 1008.00
96.3134 1012.00
96.6176 861.00
96.9219 1001.00
97.2261 1120.00
97.5304 1290.00
97.8347 1227.00
98.1389 947.00
98.4432 870.00
98.7474 869.00
99.0517 1022.00
99.356 1083.00
99.6602 1031.00
99.9645 1061.00
100.095 1079.00