File: data/xrd_creation/results/PG_1845-1.xy
9.903433 2695.00
10.2077 2485.00
10.512 2440.00
10.8162 2367.00
11.1205 2213.00
11.4247 2277.00
11.729 2240.00
12.0333 2075.00
12.3375 2085.00
12.6418 1909.00
12.946 1974.00
13.2503 1947.00
13.5546 1898.00
13.8588 1986.00
14.1631 1823.00
14.4673 1783.00
14.7716 1774.00
15.0759 1713.00
15.3801 1806.00
15.6844 1812.00
15.9886 1657.00
16.2929 1732.00
16.5972 1625.00
16.9014 1763.00
17.2057 1795.00
17.5099 1742.00
17.8142 1691.00
18.1185 1913.00
18.4227 1694.00
18.727 1711.00
19.0312 1523.00
19.3355 1657.00
19.6398 1587.00
19.944 1513.00
20.2483 1505.00
20.5525 1591.00
20.8568 1497.00
21.1611 1499.00
21.4653 1485.00
21.7696 1620.00
22.0738 1412.00
22.3781 1457.00
22.6824 1458.00
22.9866 1448.00
23.2909 1435.00
23.5951 1374.00
23.8994 1530.00
24.2037 1397.00
24.5079 1427.00
24.8122 1472.00
25.1164 1637.00
25.4207 6793.00
25.725 1595.00
26.0292 3682.00
26.3335 1410.00
26.6378 1286.00
26.942 1269.00
27.2463 1328.00
27.5505 1268.00
27.8548 1290.00
28.1591 1233.00
28.4633 1249.00
28.7676 1342.00
29.0718 1281.00
29.3761 1260.00
29.6804 1354.00
29.9846 1611.00
30.2889 1303.00
30.5931 1390.00
30.8974 3177.00
31.2017 1893.00
31.5059 3750.00
31.8102 3479.00
32.1144 1376.00
32.4187 1285.00
32.723 1663.00
33.0272 4788.00
33.3315 1911.00
33.6357 1223.00
33.94 1166.00
34.2443 1260.00
34.5485 1246.00
34.8528 1425.00
35.157 1185.00
35.4613 1926.00
35.7656 1847.00
36.0698 1228.00
36.3741 2172.00
36.6783 1982.00
36.9826 1882.00
37.2869 1184.00
37.5911 1947.00
37.8954 1192.00
38.1996 1031.00
38.5039 1107.00
38.8082 1078.00
39.1124 1125.00
39.4167 1038.00
39.7209 1078.00
40.0252 1599.00
40.3295 1112.00
40.6337 1068.00
40.938 1090.00
41.2422 1072.00
41.5465 1572.00
41.8508 1095.00
42.155 1205.00
42.4593 1056.00
42.7635 1133.00
43.0678 1411.00
43.3721 1259.00
43.6763 1070.00
43.9806 1140.00
44.2849 2870.00
44.5891 1273.00
44.8934 1007.00
45.1976 1028.00
45.5019 1020.00
45.8062 1856.00
46.1104 2999.00
46.4147 2328.00
46.7189 1574.00
47.0232 1441.00
47.3275 1255.00
47.6317 1121.00
47.936 2724.00
48.2402 1100.00
48.5445 1171.00
48.8488 1149.00
49.153 1168.00
49.4573 1145.00
49.7615 1102.00
50.0658 1699.00
50.3701 1578.00
50.6743 1328.00
50.9786 1191.00
51.2828 1943.00
51.5871 1155.00
51.8914 1233.00
52.1956 1119.00
52.4999 1079.00
52.8041 995.00
53.1084 1027.00
53.4127 1014.00
53.7169 977.00
54.0212 977.00
54.3254 1008.00
54.6297 954.00
54.934 998.00
55.2382 1143.00
55.5425 1124.00
55.8467 1455.00
56.151 1360.00
56.4553 1993.00
56.7595 2193.00
57.0638 2395.00
57.368 1554.00
57.6723 1335.00
57.9766 1123.00
58.2808 989.00
58.5851 960.00
58.8893 1080.00
59.1936 1611.00
59.4979 1121.00
59.8021 1037.00
60.1064 1468.00
60.4106 1044.00
60.7149 985.00
61.0192 1265.00
61.3234 987.00
61.6277 1098.00
61.932 986.00
62.2362 1067.00
62.5405 1098.00
62.8447 1041.00
63.149 1076.00
63.4533 1006.00
63.7575 1087.00
64.0618 1242.00
64.366 1275.00
64.6703 1052.00
64.9745 1015.00
65.2788 1154.00
65.5831 1399.00
65.8873 2243.00
66.1916 2191.00
66.4959 1222.00
66.8001 1167.00
67.1044 1050.00
67.4086 994.00
67.7129 971.00
68.0172 905.00
68.3214 1112.00
68.6257 1183.00
68.9299 1026.00
69.2342 1008.00
69.5385 950.00
69.8427 916.00
70.147 920.00
70.4512 1038.00
70.7555 968.00
71.0598 984.00
71.364 948.00
71.6683 915.00
71.9725 1066.00
72.2768 1338.00
72.5811 1198.00
72.8853 1133.00
73.1896 1120.00
73.4938 1031.00
73.7981 1348.00
74.1024 1460.00
74.4066 1149.00
74.7109 1183.00
75.0151 1183.00
75.3194 1468.00
75.6237 1377.00
75.9279 1108.00
76.2322 1301.00
76.5364 1157.00
76.8407 1129.00
77.145 984.00
77.4492 1119.00
77.7535 1261.00
78.0577 1228.00
78.362 1093.00
78.6663 940.00
78.9705 992.00
79.2748 976.00
79.579 1084.00
79.8833 1088.00
80.1876 1092.00
80.4918 1081.00
80.7961 1008.00
81.1003 1043.00
81.4046 944.00
81.7089 951.00
82.0131 1190.00
82.3174 1191.00
82.6217 1071.00
82.9259 1069.00
83.2302 1519.00
83.5344 1539.00
83.8387 1283.00
84.143 1155.00
84.4472 1226.00
84.7515 1092.00
85.0557 971.00
85.36 1096.00
85.6643 1087.00
85.9685 1112.00
86.2728 1041.00
86.577 934.00
86.8813 951.00
87.1856 1049.00
87.4898 1030.00
87.7941 1073.00
88.0983 1033.00
88.4026 1023.00
88.7069 995.00
89.0111 1013.00
89.3154 982.00
89.6196 1058.00
89.9239 1103.00
90.2282 1029.00
90.5324 1055.00
90.8367 1011.00
91.1409 1102.00
91.4452 1110.00
91.7495 1350.00
92.0537 1570.00
92.358 1402.00
92.6622 1157.00
92.9665 1142.00
93.2708 1114.00
93.575 1086.00
93.8793 1101.00
94.1835 1096.00
94.4878 1015.00
94.7921 1226.00
95.0963 1136.00
95.4006 1170.00
95.7048 1073.00
96.0091 993.00
96.3134 1073.00
96.6176 1146.00
96.9219 1009.00
97.2261 1092.00
97.5304 1165.00
97.8347 1086.00
98.1389 1020.00
98.4432 1056.00
98.7474 1060.00
99.0517 1065.00
99.356 1178.00
99.6602 1068.00
99.9645 1020.00
100.095 989.00