File: data/xrd_creation/results/PG_1019-1.xy
10.0094 2426.00
10.3137 2404.00
10.618 2303.00
10.9222 2206.00
11.2265 2118.00
11.5307 2087.00
11.835 2021.00
12.1393 1969.00
12.4435 1848.00
12.7478 1838.00
13.052 1816.00
13.3563 1694.00
13.6606 1614.00
13.9648 1624.00
14.2691 1668.00
14.5733 1669.00
14.8776 1574.00
15.1819 1486.00
15.4861 1489.00
15.7904 1528.00
16.0946 1459.00
16.3989 1505.00
16.7032 1471.00
17.0074 1433.00
17.3117 1648.00
17.6159 1476.00
17.9202 1301.00
18.2245 1307.00
18.5287 1258.00
18.833 1329.00
19.1372 1250.00
19.4415 1261.00
19.7458 1170.00
20.05 1197.00
20.3543 1193.00
20.6585 1233.00
20.9628 2174.00
21.2671 1232.00
21.5713 1114.00
21.8756 1120.00
22.1798 1161.00
22.4841 1049.00
22.7884 1050.00
23.0926 1080.00
23.3969 1336.00
23.7011 1033.00
24.0054 1067.00
24.3097 1029.00
24.6139 1492.00
24.9182 1345.00
25.2224 995.00
25.5267 914.00
25.831 1183.00
26.1352 938.00
26.4395 950.00
26.7438 884.00
27.048 934.00
27.3523 894.00
27.6565 900.00
27.9608 1118.00
28.2651 922.00
28.5693 976.00
28.8736 916.00
29.1778 2080.00
29.4821 930.00
29.7864 907.00
30.0906 3301.00
30.3949 2489.00
30.6991 865.00
31.0034 804.00
31.3077 867.00
31.6119 1093.00
31.9162 795.00
32.2204 774.00
32.5247 811.00
32.829 829.00
33.1332 773.00
33.4375 780.00
33.7417 1486.00
34.046 1143.00
34.3503 830.00
34.6545 851.00
34.9588 832.00
35.263 1004.00
35.5673 697.00
35.8716 731.00
36.1758 834.00
36.4801 3625.00
36.7843 746.00
37.0886 806.00
37.3929 652.00
37.6971 727.00
38.0014 706.00
38.3056 727.00
38.6099 651.00
38.9142 686.00
39.2184 638.00
39.5227 1343.00
39.8269 931.00
40.1312 755.00
40.4355 618.00
40.7397 626.00
41.044 647.00
41.3482 648.00
41.6525 937.00
41.9568 824.00
42.261 919.00
42.5653 1653.00
42.8695 661.00
43.1738 597.00
43.4781 620.00
43.7823 595.00
44.0866 575.00
44.3909 799.00
44.6951 624.00
44.9994 629.00
45.3036 608.00
45.6079 608.00
45.9122 580.00
46.2164 598.00
46.5207 688.00
46.8249 559.00
47.1292 786.00
47.4335 602.00
47.7377 698.00
48.042 796.00
48.3462 547.00
48.6505 659.00
48.9548 592.00
49.259 566.00
49.5633 576.00
49.8675 588.00
50.1718 726.00
50.4761 1535.00
50.7803 629.00
51.0846 627.00
51.3888 532.00
51.6931 559.00
51.9974 540.00
52.3016 615.00
52.6059 641.00
52.9101 685.00
53.2144 690.00
53.5187 597.00
53.8229 659.00
54.1272 496.00
54.4314 535.00
54.7357 601.00
55.04 2250.00
55.3442 917.00
55.6485 671.00
55.9527 513.00
56.257 576.00
56.5613 572.00
56.8655 563.00
57.1698 559.00
57.474 799.00
57.7783 572.00
58.0826 544.00
58.3868 573.00
58.6911 685.00
58.9953 541.00
59.2996 521.00
59.6039 612.00
59.9081 568.00
60.2124 542.00
60.5166 535.00
60.8209 580.00
61.1252 580.00
61.4294 524.00
61.7337 568.00
62.0379 510.00
62.3422 612.00
62.6465 558.00
62.9507 777.00
63.255 612.00
63.5592 775.00
63.8635 946.00
64.1678 622.00
64.472 543.00
64.7763 574.00
65.0806 600.00
65.3848 1253.00
65.6891 619.00
65.9933 515.00
66.2976 556.00
66.6019 590.00
66.9061 501.00
67.2104 545.00
67.5146 644.00
67.8189 543.00
68.1232 510.00
68.4274 569.00
68.7317 516.00
69.0359 522.00
69.3402 494.00
69.6445 529.00
69.9487 509.00
70.253 466.00
70.5572 562.00
70.8615 561.00
71.1658 495.00
71.47 545.00
71.7743 601.00
72.0785 565.00
72.3828 480.00
72.6871 513.00
72.9913 585.00
73.2956 659.00
73.5998 674.00
73.9041 558.00
74.2084 541.00
74.5126 533.00
74.8169 535.00
75.1211 495.00
75.4254 489.00
75.7297 514.00
76.0339 546.00
76.3382 504.00
76.6424 503.00
76.9467 608.00
77.251 581.00
77.5552 513.00
77.8595 518.00
78.1637 471.00
78.468 503.00
78.7723 538.00
79.0765 536.00
79.3808 595.00
79.685 610.00
79.9893 539.00
80.2936 522.00
80.5978 518.00
80.9021 562.00
81.2063 534.00
81.5106 543.00
81.8149 498.00
82.1191 523.00
82.4234 574.00
82.7277 520.00
83.0319 505.00
83.3362 468.00
83.6404 539.00
83.9447 509.00
84.249 584.00
84.5532 607.00
84.8575 552.00
85.1617 496.00
85.466 524.00
85.7703 503.00
86.0745 538.00
86.3788 496.00
86.683 692.00
86.9873 627.00
87.2916 555.00
87.5958 495.00
87.9001 482.00
88.2043 490.00
88.5086 542.00
88.8129 519.00
89.1171 464.00
89.4214 531.00
89.7256 506.00
90.0299 512.00
90.3342 765.00
90.6384 640.00
90.9427 484.00
91.2469 496.00
91.5512 550.00
91.8555 489.00
92.1597 538.00
92.464 527.00
92.7682 490.00
93.0725 507.00
93.3768 548.00
93.681 500.00
93.9853 490.00
94.2895 546.00
94.5938 533.00
94.8981 503.00
95.2023 536.00
95.5066 720.00
95.8108 645.00
96.1151 528.00
96.4194 505.00
96.7236 527.00
97.0279 461.00
97.3321 497.00
97.6364 514.00
97.9407 540.00
98.2449 501.00
98.5492 547.00
98.8534 490.00
99.1577 544.00
99.462 547.00
99.7662 526.00
99.9944 516.00