File: data/xrd_creation/results/PG_1948-1.xy
9.903433 2421.00
10.2077 2362.00
10.512 2291.00
10.8162 2191.00
11.1205 2141.00
11.4247 1989.00
11.729 1953.00
12.0333 1881.00
12.3375 1773.00
12.6418 1642.00
12.946 1603.00
13.2503 1597.00
13.5546 1506.00
13.8588 1424.00
14.1631 1405.00
14.4673 1355.00
14.7716 1381.00
15.0759 1330.00
15.3801 1296.00
15.6844 1222.00
15.9886 1218.00
16.2929 1218.00
16.5972 1179.00
16.9014 1216.00
17.2057 1094.00
17.5099 1081.00
17.8142 1115.00
18.1185 1094.00
18.4227 1073.00
18.727 1069.00
19.0312 960.00
19.3355 938.00
19.6398 951.00
19.944 896.00
20.2483 913.00
20.5525 908.00
20.8568 814.00
21.1611 843.00
21.4653 856.00
21.7696 843.00
22.0738 843.00
22.3781 818.00
22.6824 765.00
22.9866 759.00
23.2909 786.00
23.5951 799.00
23.8994 751.00
24.2037 720.00
24.5079 694.00
24.8122 692.00
25.1164 656.00
25.4207 670.00
25.725 653.00
26.0292 659.00
26.3335 700.00
26.6378 652.00
26.942 648.00
27.2463 618.00
27.5505 639.00
27.8548 582.00
28.1591 686.00
28.4633 906.00
28.7676 586.00
29.0718 606.00
29.3761 585.00
29.6804 530.00
29.9846 570.00
30.2889 543.00
30.5931 549.00
30.8974 529.00
31.2017 651.00
31.5059 457.00
31.8102 495.00
32.1144 492.00
32.4187 496.00
32.723 510.00
33.0272 525.00
33.3315 455.00
33.6357 471.00
33.94 497.00
34.2443 454.00
34.5485 490.00
34.8528 426.00
35.157 423.00
35.4613 449.00
35.7656 439.00
36.0698 437.00
36.3741 435.00
36.6783 444.00
36.9826 377.00
37.2869 413.00
37.5911 412.00
37.8954 405.00
38.1996 390.00
38.5039 353.00
38.8082 380.00
39.1124 371.00
39.4167 356.00
39.7209 376.00
40.0252 325.00
40.3295 342.00
40.6337 338.00
40.938 325.00
41.2422 320.00
41.5465 346.00
41.8508 336.00
42.155 346.00
42.4593 305.00
42.7635 311.00
43.0678 364.00
43.3721 345.00
43.6763 294.00
43.9806 279.00
44.2849 299.00
44.5891 271.00
44.8934 318.00
45.1976 318.00
45.5019 301.00
45.8062 295.00
46.1104 297.00
46.4147 285.00
46.7189 303.00
47.0232 278.00
47.3275 299.00
47.6317 292.00
47.936 289.00
48.2402 307.00
48.5445 289.00
48.8488 316.00
49.153 310.00
49.4573 293.00
49.7615 278.00
50.0658 226.00
50.3701 280.00
50.6743 304.00
50.9786 270.00
51.2828 256.00
51.5871 283.00
51.8914 239.00
52.1956 265.00
52.4999 267.00
52.8041 243.00
53.1084 219.00
53.4127 241.00
53.7169 268.00
54.0212 229.00
54.3254 280.00
54.6297 258.00
54.934 219.00
55.2382 257.00
55.5425 257.00
55.8467 216.00
56.151 244.00
56.4553 248.00
56.7595 246.00
57.0638 228.00
57.368 222.00
57.6723 233.00
57.9766 242.00
58.2808 215.00
58.5851 216.00
58.8893 211.00
59.1936 229.00
59.4979 198.00
59.8021 205.00
60.1064 194.00
60.4106 209.00
60.7149 224.00
61.0192 193.00
61.3234 200.00
61.6277 208.00
61.932 164.00
62.2362 212.00
62.5405 222.00
62.8447 239.00
63.149 195.00
63.4533 171.00
63.7575 181.00
64.0618 192.00
64.366 195.00
64.6703 205.00
64.9745 178.00
65.2788 200.00
65.5831 187.00
65.8873 179.00
66.1916 205.00
66.4959 163.00
66.8001 203.00
67.1044 194.00
67.4086 202.00
67.7129 185.00
68.0172 172.00
68.3214 172.00
68.6257 177.00
68.9299 190.00
69.2342 189.00
69.5385 205.00
69.8427 179.00
70.147 154.00
70.4512 187.00
70.7555 201.00
71.0598 204.00
71.364 197.00
71.6683 196.00
71.9725 209.00
72.2768 196.00
72.5811 174.00
72.8853 227.00
73.1896 187.00
73.4938 172.00
73.7981 187.00
74.1024 197.00
74.4066 210.00
74.7109 191.00
75.0151 209.00
75.3194 203.00
75.6237 221.00
75.9279 214.00
76.2322 217.00
76.5364 190.00
76.8407 203.00
77.145 202.00
77.4492 198.00
77.7535 204.00
78.0577 198.00
78.362 195.00
78.6663 206.00
78.9705 232.00
79.2748 230.00
79.579 235.00
79.8833 213.00
80.1876 215.00
80.4918 231.00
80.7961 209.00
81.1003 239.00
81.4046 212.00
81.7089 230.00
82.0131 222.00
82.3174 223.00
82.6217 240.00
82.9259 229.00
83.2302 194.00
83.5344 203.00
83.8387 195.00
84.143 226.00
84.4472 202.00
84.7515 196.00
85.0557 230.00
85.36 192.00
85.6643 208.00
85.9685 216.00
86.2728 229.00
86.577 173.00
86.8813 220.00
87.1856 187.00
87.4898 162.00
87.7941 205.00
88.0983 172.00
88.4026 184.00
88.7069 173.00
89.0111 182.00
89.3154 200.00
89.6196 180.00
89.9239 188.00
90.2282 211.00
90.5324 187.00
90.8367 171.00
91.1409 198.00
91.4452 170.00
91.7495 167.00
92.0537 207.00
92.358 182.00
92.6622 167.00
92.9665 178.00
93.2708 181.00
93.575 180.00
93.8793 179.00
94.1835 182.00
94.4878 181.00
94.7921 168.00
95.0963 172.00
95.4006 191.00
95.7048 206.00
96.0091 176.00
96.3134 180.00
96.6176 178.00
96.9219 174.00
97.2261 196.00
97.5304 175.00
97.8347 179.00
98.1389 178.00
98.4432 173.00
98.7474 198.00
99.0517 182.00
99.356 207.00
99.6602 159.00
99.9645 185.00
100.095 172.00