File: data/xrd_creation/results/PG_1518-1.xy
10.0094 2328.00
10.3137 2195.00
10.618 2222.00
10.9222 2082.00
11.2265 1932.00
11.5307 1862.00
11.835 1827.00
12.1393 1781.00
12.4435 1762.00
12.7478 1679.00
13.052 1562.00
13.3563 1560.00
13.6606 1487.00
13.9648 1445.00
14.2691 1444.00
14.5733 1414.00
14.8776 1378.00
15.1819 1319.00
15.4861 1371.00
15.7904 1324.00
16.0946 1356.00
16.3989 1290.00
16.7032 1320.00
17.0074 1248.00
17.3117 1199.00
17.6159 1266.00
17.9202 1191.00
18.2245 1172.00
18.5287 1189.00
18.833 1186.00
19.1372 1381.00
19.4415 1116.00
19.7458 1109.00
20.05 990.00
20.3543 1058.00
20.6585 1005.00
20.9628 1042.00
21.2671 981.00
21.5713 1411.00
21.8756 2015.00
22.1798 941.00
22.4841 926.00
22.7884 886.00
23.0926 934.00
23.3969 849.00
23.7011 837.00
24.0054 876.00
24.3097 840.00
24.6139 795.00
24.9182 818.00
25.2224 798.00
25.5267 756.00
25.831 751.00
26.1352 707.00
26.4395 752.00
26.7438 711.00
27.048 734.00
27.3523 700.00
27.6565 725.00
27.9608 700.00
28.2651 758.00
28.5693 733.00
28.8736 801.00
29.1778 792.00
29.4821 845.00
29.7864 987.00
30.0906 1311.00
30.3949 2229.00
30.6991 6190.00
31.0034 7516.00
31.3077 1295.00
31.6119 1278.00
31.9162 2606.00
32.2204 1292.00
32.5247 831.00
32.829 729.00
33.1332 816.00
33.4375 1116.00
33.7417 1118.00
34.046 834.00
34.3503 814.00
34.6545 897.00
34.9588 949.00
35.263 1878.00
35.5673 2779.00
35.8716 3680.00
36.1758 787.00
36.4801 706.00
36.7843 676.00
37.0886 777.00
37.3929 916.00
37.6971 1295.00
38.0014 2192.00
38.3056 959.00
38.6099 1522.00
38.9142 777.00
39.2184 571.00
39.5227 507.00
39.8269 596.00
40.1312 774.00
40.4355 509.00
40.7397 489.00
41.044 486.00
41.3482 544.00
41.6525 545.00
41.9568 623.00
42.261 1057.00
42.5653 534.00
42.8695 583.00
43.1738 618.00
43.4781 534.00
43.7823 463.00
44.0866 714.00
44.3909 479.00
44.6951 525.00
44.9994 608.00
45.3036 584.00
45.6079 664.00
45.9122 2528.00
46.2164 880.00
46.5207 483.00
46.8249 430.00
47.1292 481.00
47.4335 493.00
47.7377 458.00
48.042 477.00
48.3462 487.00
48.6505 632.00
48.9548 684.00
49.259 481.00
49.5633 1193.00
49.8675 561.00
50.1718 521.00
50.4761 469.00
50.7803 525.00
51.0846 1328.00
51.3888 5951.00
51.6931 687.00
51.9974 488.00
52.3016 472.00
52.6059 503.00
52.9101 826.00
53.2144 490.00
53.5187 457.00
53.8229 446.00
54.1272 446.00
54.4314 475.00
54.7357 613.00
55.04 478.00
55.3442 408.00
55.6485 426.00
55.9527 491.00
56.257 1738.00
56.5613 571.00
56.8655 537.00
57.1698 542.00
57.474 624.00
57.7783 1154.00
58.0826 709.00
58.3868 522.00
58.6911 482.00
58.9953 538.00
59.2996 1126.00
59.6039 863.00
59.9081 740.00
60.2124 835.00
60.5166 871.00
60.8209 3134.00
61.1252 3389.00
61.4294 735.00
61.7337 517.00
62.0379 540.00
62.3422 1138.00
62.6465 1107.00
62.9507 665.00
63.255 585.00
63.5592 587.00
63.8635 1415.00
64.1678 1042.00
64.472 980.00
64.7763 1392.00
65.0806 942.00
65.3848 1087.00
65.6891 469.00
65.9933 405.00
66.2976 399.00
66.6019 459.00
66.9061 561.00
67.2104 377.00
67.5146 385.00
67.8189 423.00
68.1232 545.00
68.4274 803.00
68.7317 445.00
69.0359 464.00
69.3402 526.00
69.6445 875.00
69.9487 674.00
70.253 540.00
70.5572 554.00
70.8615 450.00
71.1658 382.00
71.47 349.00
71.7743 406.00
72.0785 376.00
72.3828 444.00
72.6871 503.00
72.9913 430.00
73.2956 375.00
73.5998 436.00
73.9041 1003.00
74.2084 512.00
74.5126 420.00
74.8169 445.00
75.1211 521.00
75.4254 726.00
75.7297 416.00
76.0339 389.00
76.3382 394.00
76.6424 1236.00
76.9467 565.00
77.251 357.00
77.5552 345.00
77.8595 511.00
78.1637 568.00
78.468 371.00
78.7723 428.00
79.0765 399.00
79.3808 771.00
79.685 449.00
79.9893 352.00
80.2936 359.00
80.5978 446.00
80.9021 498.00
81.2063 360.00
81.5106 373.00
81.8149 458.00
82.1191 649.00
82.4234 456.00
82.7277 424.00
83.0319 454.00
83.3362 1592.00
83.6404 1253.00
83.9447 447.00
84.249 428.00
84.5532 470.00
84.8575 434.00
85.1617 411.00
85.466 408.00
85.7703 460.00
86.0745 1315.00
86.3788 719.00
86.683 352.00
86.9873 378.00
87.2916 441.00
87.5958 441.00
87.9001 342.00
88.2043 348.00
88.5086 382.00
88.8129 400.00
89.1171 437.00
89.4214 424.00
89.7256 353.00
90.0299 907.00
90.3342 669.00
90.6384 407.00
90.9427 385.00
91.2469 460.00
91.5512 495.00
91.8555 421.00
92.1597 413.00
92.464 451.00
92.7682 617.00
93.0725 472.00
93.3768 431.00
93.681 404.00
93.9853 385.00
94.2895 468.00
94.5938 504.00
94.8981 447.00
95.2023 605.00
95.5066 564.00
95.8108 493.00
96.1151 565.00
96.4194 639.00
96.7236 1119.00
97.0279 724.00
97.3321 398.00
97.6364 395.00
97.9407 755.00
98.2449 577.00
98.5492 450.00
98.8534 427.00
99.1577 526.00
99.462 521.00
99.7662 475.00
99.9944 366.00