File: data/xrd_creation/results/PG_1217-1.xy
10.0094 2403.00
10.3137 2256.00
10.618 2199.00
10.9222 2056.00
11.2265 2007.00
11.5307 1987.00
11.835 1948.00
12.1393 1874.00
12.4435 1836.00
12.7478 1742.00
13.052 1707.00
13.3563 1606.00
13.6606 1647.00
13.9648 1607.00
14.2691 1549.00
14.5733 1548.00
14.8776 1433.00
15.1819 1501.00
15.4861 1505.00
15.7904 1394.00
16.0946 1467.00
16.3989 1351.00
16.7032 1396.00
17.0074 1415.00
17.3117 1365.00
17.6159 1492.00
17.9202 1320.00
18.2245 1330.00
18.5287 1355.00
18.833 1244.00
19.1372 1237.00
19.4415 1277.00
19.7458 1243.00
20.05 1148.00
20.3543 1167.00
20.6585 1124.00
20.9628 1174.00
21.2671 1159.00
21.5713 1081.00
21.8756 1117.00
22.1798 1127.00
22.4841 1083.00
22.7884 1135.00
23.0926 1136.00
23.3969 1053.00
23.7011 1141.00
24.0054 1138.00
24.3097 1715.00
24.6139 1294.00
24.9182 1539.00
25.2224 1076.00
25.5267 1018.00
25.831 1085.00
26.1352 1011.00
26.4395 965.00
26.7438 1019.00
27.048 982.00
27.3523 971.00
27.6565 1050.00
27.9608 1137.00
28.2651 1576.00
28.5693 6611.00
28.8736 1556.00
29.1778 1124.00
29.4821 1022.00
29.7864 1045.00
30.0906 1070.00
30.3949 1040.00
30.6991 1000.00
31.0034 1045.00
31.3077 1075.00
31.6119 1598.00
31.9162 5623.00
32.2204 1300.00
32.5247 996.00
32.829 996.00
33.1332 1095.00
33.4375 1868.00
33.7417 1003.00
34.046 995.00
34.3503 1298.00
34.6545 2368.00
34.9588 1991.00
35.263 1081.00
35.5673 1499.00
35.8716 2600.00
36.1758 1194.00
36.4801 1107.00
36.7843 997.00
37.0886 897.00
37.3929 893.00
37.6971 925.00
38.0014 880.00
38.3056 953.00
38.6099 945.00
38.9142 1260.00
39.2184 1193.00
39.5227 921.00
39.8269 940.00
40.1312 911.00
40.4355 963.00
40.7397 962.00
41.044 1571.00
41.3482 1570.00
41.6525 1282.00
41.9568 1109.00
42.261 946.00
42.5653 918.00
42.8695 922.00
43.1738 914.00
43.4781 895.00
43.7823 973.00
44.0866 883.00
44.3909 890.00
44.6951 912.00
44.9994 994.00
45.3036 1291.00
45.6079 963.00
45.9122 1290.00
46.2164 1096.00
46.5207 947.00
46.8249 943.00
47.1292 878.00
47.4335 894.00
47.7377 960.00
48.042 914.00
48.3462 953.00
48.6505 966.00
48.9548 1051.00
49.259 1065.00
49.5633 1630.00
49.8675 2208.00
50.1718 1130.00
50.4761 1371.00
50.7803 2362.00
51.0846 1969.00
51.3888 1120.00
51.6931 1290.00
51.9974 1084.00
52.3016 965.00
52.6059 987.00
52.9101 964.00
53.2144 968.00
53.5187 1010.00
53.8229 989.00
54.1272 1278.00
54.4314 1544.00
54.7357 1671.00
55.04 1103.00
55.3442 1084.00
55.6485 1235.00
55.9527 2162.00
56.257 1582.00
56.5613 1703.00
56.8655 1059.00
57.1698 1056.00
57.474 1160.00
57.7783 1739.00
58.0826 1127.00
58.3868 1382.00
58.6911 1456.00
58.9953 1259.00
59.2996 1125.00
59.6039 1065.00
59.9081 1020.00
60.2124 1244.00
60.5166 1884.00
60.8209 1300.00
61.1252 1055.00
61.4294 1013.00
61.7337 1319.00
62.0379 1447.00
62.3422 1384.00
62.6465 1878.00
62.9507 1183.00
63.255 1375.00
63.5592 1721.00
63.8635 1199.00
64.1678 1481.00
64.472 1069.00
64.7763 1293.00
65.0806 1167.00
65.3848 1154.00
65.6891 1143.00
65.9933 1367.00
66.2976 1774.00
66.6019 1462.00
66.9061 1104.00
67.2104 1074.00
67.5146 1077.00
67.8189 1100.00
68.1232 1063.00
68.4274 1068.00
68.7317 1062.00
69.0359 997.00
69.3402 1059.00
69.6445 1359.00
69.9487 1124.00
70.253 1224.00
70.5572 1138.00
70.8615 1119.00
71.1658 1091.00
71.47 1148.00
71.7743 1601.00
72.0785 1538.00
72.3828 1232.00
72.6871 1259.00
72.9913 1205.00
73.2956 1310.00
73.5998 1149.00
73.9041 1140.00
74.2084 1153.00
74.5126 1142.00
74.8169 1131.00
75.1211 1130.00
75.4254 1341.00
75.7297 1520.00
76.0339 1447.00
76.3382 1205.00
76.6424 1141.00
76.9467 1196.00
77.251 1358.00
77.5552 1217.00
77.8595 1222.00
78.1637 1308.00
78.468 1206.00
78.7723 1273.00
79.0765 1211.00
79.3808 1219.00
79.685 1403.00
79.9893 1268.00
80.2936 1116.00
80.5978 1143.00
80.9021 1199.00
81.2063 1214.00
81.5106 1256.00
81.8149 1221.00
82.1191 1320.00
82.4234 1321.00
82.7277 1233.00
83.0319 1371.00
83.3362 1412.00
83.6404 1408.00
83.9447 1354.00
84.249 1298.00
84.5532 1350.00
84.8575 1455.00
85.1617 1363.00
85.466 1311.00
85.7703 1331.00
86.0745 1164.00
86.3788 1218.00
86.683 1263.00
86.9873 1318.00
87.2916 1211.00
87.5958 1286.00
87.9001 1325.00
88.2043 1410.00
88.5086 1435.00
88.8129 1546.00
89.1171 1524.00
89.4214 1471.00
89.7256 1379.00
90.0299 1344.00
90.3342 1420.00
90.6384 1535.00
90.9427 1367.00
91.2469 1310.00
91.5512 1276.00
91.8555 1340.00
92.1597 1307.00
92.464 1262.00
92.7682 1274.00
93.0725 1210.00
93.3768 1330.00
93.681 1359.00
93.9853 1328.00
94.2895 1238.00
94.5938 1366.00
94.8981 1361.00
95.2023 1324.00
95.5066 1331.00
95.8108 1428.00
96.1151 1561.00
96.4194 1445.00
96.7236 1344.00
97.0279 1577.00
97.3321 1615.00
97.6364 1707.00
97.9407 1541.00
98.2449 1405.00
98.5492 1395.00
98.8534 1456.00
99.1577 1448.00
99.462 1491.00
99.7662 1499.00
99.9944 1517.00