File: data/xrd_creation/results/PG_1846-1.xy
9.903433 2659.00
10.2077 2469.00
10.512 2282.00
10.8162 2243.00
11.1205 2213.00
11.4247 2151.00
11.729 2074.00
12.0333 1931.00
12.3375 2000.00
12.6418 1869.00
12.946 1861.00
13.2503 1801.00
13.5546 1760.00
13.8588 1968.00
14.1631 1693.00
14.4673 1606.00
14.7716 1644.00
15.0759 1539.00
15.3801 1565.00
15.6844 1536.00
15.9886 1523.00
16.2929 1487.00
16.5972 1444.00
16.9014 1415.00
17.2057 1578.00
17.5099 1447.00
17.8142 1426.00
18.1185 1378.00
18.4227 1315.00
18.727 1310.00
19.0312 1278.00
19.3355 1277.00
19.6398 1197.00
19.944 1179.00
20.2483 1194.00
20.5525 1178.00
20.8568 1141.00
21.1611 1097.00
21.4653 1171.00
21.7696 1169.00
22.0738 1097.00
22.3781 1091.00
22.6824 1098.00
22.9866 985.00
23.2909 994.00
23.5951 1004.00
23.8994 1030.00
24.2037 1078.00
24.5079 992.00
24.8122 981.00
25.1164 997.00
25.4207 975.00
25.725 956.00
26.0292 844.00
26.3335 885.00
26.6378 863.00
26.942 895.00
27.2463 888.00
27.5505 1521.00
27.8548 1066.00
28.1591 829.00
28.4633 828.00
28.7676 815.00
29.0718 802.00
29.3761 700.00
29.6804 775.00
29.9846 798.00
30.2889 811.00
30.5931 1446.00
30.8974 5973.00
31.2017 1207.00
31.5059 6790.00
31.8102 894.00
32.1144 741.00
32.4187 775.00
32.723 909.00
33.0272 698.00
33.3315 614.00
33.6357 690.00
33.94 696.00
34.2443 706.00
34.5485 658.00
34.8528 1090.00
35.157 640.00
35.4613 673.00
35.7656 1604.00
36.0698 1161.00
36.3741 2285.00
36.6783 768.00
36.9826 587.00
37.2869 615.00
37.5911 983.00
37.8954 722.00
38.1996 589.00
38.5039 525.00
38.8082 554.00
39.1124 515.00
39.4167 786.00
39.7209 620.00
40.0252 620.00
40.3295 478.00
40.6337 500.00
40.938 557.00
41.2422 519.00
41.5465 778.00
41.8508 998.00
42.155 662.00
42.4593 452.00
42.7635 472.00
43.0678 470.00
43.3721 475.00
43.6763 488.00
43.9806 448.00
44.2849 582.00
44.5891 466.00
44.8934 461.00
45.1976 450.00
45.5019 410.00
45.8062 477.00
46.1104 522.00
46.4147 658.00
46.7189 460.00
47.0232 426.00
47.3275 513.00
47.6317 714.00
47.936 455.00
48.2402 471.00
48.5445 445.00
48.8488 465.00
49.153 421.00
49.4573 475.00
49.7615 478.00
50.0658 398.00
50.3701 461.00
50.6743 786.00
50.9786 1056.00
51.2828 1219.00
51.5871 540.00
51.8914 2841.00
52.1956 781.00
52.4999 1273.00
52.8041 483.00
53.1084 447.00
53.4127 393.00
53.7169 410.00
54.0212 429.00
54.3254 475.00
54.6297 994.00
54.934 427.00
55.2382 391.00
55.5425 516.00
55.8467 607.00
56.151 429.00
56.4553 437.00
56.7595 629.00
57.0638 599.00
57.368 431.00
57.6723 645.00
57.9766 486.00
58.2808 412.00
58.5851 424.00
58.8893 1003.00
59.1936 494.00
59.4979 408.00
59.8021 495.00
60.1064 768.00
60.4106 433.00
60.7149 1309.00
61.0192 689.00
61.3234 453.00
61.6277 570.00
61.932 2342.00
62.2362 1319.00
62.5405 492.00
62.8447 488.00
63.149 1057.00
63.4533 457.00
63.7575 607.00
64.0618 539.00
64.366 617.00
64.6703 381.00
64.9745 364.00
65.2788 577.00
65.5831 615.00
65.8873 353.00
66.1916 335.00
66.4959 351.00
66.8001 346.00
67.1044 373.00
67.4086 491.00
67.7129 354.00
68.0172 377.00
68.3214 458.00
68.6257 367.00
68.9299 398.00
69.2342 824.00
69.5385 451.00
69.8427 388.00
70.147 369.00
70.4512 341.00
70.7555 351.00
71.0598 412.00
71.364 368.00
71.6683 317.00
71.9725 365.00
72.2768 323.00
72.5811 341.00
72.8853 357.00
73.1896 338.00
73.4938 339.00
73.7981 339.00
74.1024 360.00
74.4066 334.00
74.7109 323.00
75.0151 352.00
75.3194 479.00
75.6237 619.00
75.9279 791.00
76.2322 528.00
76.5364 390.00
76.8407 474.00
77.145 458.00
77.4492 327.00
77.7535 335.00
78.0577 329.00
78.362 359.00
78.6663 364.00
78.9705 439.00
79.2748 360.00
79.579 333.00
79.8833 371.00
80.1876 362.00
80.4918 324.00
80.7961 597.00
81.1003 368.00
81.4046 340.00
81.7089 404.00
82.0131 400.00
82.3174 396.00
82.6217 382.00
82.9259 382.00
83.2302 362.00
83.5344 522.00
83.8387 381.00
84.143 402.00
84.4472 517.00
84.7515 450.00
85.0557 776.00
85.36 858.00
85.6643 594.00
85.9685 449.00
86.2728 473.00
86.577 324.00
86.8813 539.00
87.1856 443.00
87.4898 389.00
87.7941 749.00
88.0983 563.00
88.4026 349.00
88.7069 359.00
89.0111 397.00
89.3154 319.00
89.6196 356.00
89.9239 516.00
90.2282 407.00
90.5324 350.00
90.8367 557.00
91.1409 413.00
91.4452 343.00
91.7495 424.00
92.0537 373.00
92.358 299.00
92.6622 429.00
92.9665 396.00
93.2708 338.00
93.575 379.00
93.8793 326.00
94.1835 328.00
94.4878 380.00
94.7921 367.00
95.0963 342.00
95.4006 481.00
95.7048 467.00
96.0091 441.00
96.3134 416.00
96.6176 376.00
96.9219 373.00
97.2261 305.00
97.5304 364.00
97.8347 433.00
98.1389 384.00
98.4432 368.00
98.7474 373.00
99.0517 818.00
99.356 759.00
99.6602 470.00
99.9645 390.00
100.095 459.00