File: data/xrd_creation/results/PG_1949-1.xy
9.903433 2589.00
10.2077 2428.00
10.512 2351.00
10.8162 2207.00
11.1205 2231.00
11.4247 2067.00
11.729 2084.00
12.0333 2179.00
12.3375 2164.00
12.6418 2780.00
12.946 3486.00
13.2503 2362.00
13.5546 1758.00
13.8588 1541.00
14.1631 1603.00
14.4673 1523.00
14.7716 1663.00
15.0759 1458.00
15.3801 1407.00
15.6844 1590.00
15.9886 1500.00
16.2929 1599.00
16.5972 1591.00
16.9014 1449.00
17.2057 1387.00
17.5099 1361.00
17.8142 1494.00
18.1185 1321.00
18.4227 1255.00
18.727 1485.00
19.0312 1289.00
19.3355 1145.00
19.6398 1993.00
19.944 2011.00
20.2483 1201.00
20.5525 1036.00
20.8568 989.00
21.1611 1022.00
21.4653 1408.00
21.7696 1283.00
22.0738 1078.00
22.3781 1109.00
22.6824 1406.00
22.9866 3138.00
23.2909 1503.00
23.5951 999.00
23.8994 1017.00
24.2037 1053.00
24.5079 1238.00
24.8122 1129.00
25.1164 1077.00
25.4207 1188.00
25.725 1166.00
26.0292 1456.00
26.3335 2056.00
26.6378 1851.00
26.942 1079.00
27.2463 1027.00
27.5505 982.00
27.8548 1357.00
28.1591 3229.00
28.4633 2567.00
28.7676 1858.00
29.0718 1842.00
29.3761 1408.00
29.6804 1398.00
29.9846 3690.00
30.2889 4703.00
30.5931 2357.00
30.8974 1212.00
31.2017 1008.00
31.5059 912.00
31.8102 1333.00
32.1144 1039.00
32.4187 1033.00
32.723 1051.00
33.0272 851.00
33.3315 865.00
33.6357 718.00
33.94 812.00
34.2443 744.00
34.5485 716.00
34.8528 702.00
35.157 658.00
35.4613 580.00
35.7656 593.00
36.0698 756.00
36.3741 704.00
36.6783 1037.00
36.9826 795.00
37.2869 683.00
37.5911 604.00
37.8954 976.00
38.1996 1063.00
38.5039 846.00
38.8082 681.00
39.1124 641.00
39.4167 733.00
39.7209 908.00
40.0252 767.00
40.3295 796.00
40.6337 862.00
40.938 522.00
41.2422 563.00
41.5465 554.00
41.8508 537.00
42.155 498.00
42.4593 791.00
42.7635 647.00
43.0678 564.00
43.3721 589.00
43.6763 541.00
43.9806 577.00
44.2849 713.00
44.5891 688.00
44.8934 600.00
45.1976 493.00
45.5019 566.00
45.8062 921.00
46.1104 766.00
46.4147 683.00
46.7189 1152.00
47.0232 1291.00
47.3275 641.00
47.6317 847.00
47.936 754.00
48.2402 674.00
48.5445 633.00
48.8488 765.00
49.153 1285.00
49.4573 927.00
49.7615 633.00
50.0658 843.00
50.3701 1012.00
50.6743 1051.00
50.9786 948.00
51.2828 887.00
51.5871 647.00
51.8914 648.00
52.1956 1056.00
52.4999 1032.00
52.8041 716.00
53.1084 714.00
53.4127 1181.00
53.7169 1154.00
54.0212 761.00
54.3254 614.00
54.6297 525.00
54.934 534.00
55.2382 627.00
55.5425 886.00
55.8467 1056.00
56.151 919.00
56.4553 966.00
56.7595 888.00
57.0638 881.00
57.368 730.00
57.6723 729.00
57.9766 775.00
58.2808 707.00
58.5851 976.00
58.8893 703.00
59.1936 601.00
59.4979 730.00
59.8021 629.00
60.1064 552.00
60.4106 495.00
60.7149 536.00
61.0192 447.00
61.3234 486.00
61.6277 466.00
61.932 550.00
62.2362 606.00
62.5405 801.00
62.8447 763.00
63.149 481.00
63.4533 558.00
63.7575 549.00
64.0618 493.00
64.366 474.00
64.6703 540.00
64.9745 496.00
65.2788 455.00
65.5831 509.00
65.8873 598.00
66.1916 463.00
66.4959 506.00
66.8001 603.00
67.1044 641.00
67.4086 776.00
67.7129 752.00
68.0172 622.00
68.3214 472.00
68.6257 489.00
68.9299 558.00
69.2342 424.00
69.5385 424.00
69.8427 506.00
70.147 482.00
70.4512 575.00
70.7555 600.00
71.0598 524.00
71.364 497.00
71.6683 455.00
71.9725 500.00
72.2768 531.00
72.5811 462.00
72.8853 612.00
73.1896 608.00
73.4938 443.00
73.7981 503.00
74.1024 512.00
74.4066 400.00
74.7109 519.00
75.0151 673.00
75.3194 598.00
75.6237 504.00
75.9279 539.00
76.2322 658.00
76.5364 733.00
76.8407 649.00
77.145 543.00
77.4492 478.00
77.7535 458.00
78.0577 428.00
78.362 417.00
78.6663 410.00
78.9705 453.00
79.2748 445.00
79.579 463.00
79.8833 411.00
80.1876 380.00
80.4918 421.00
80.7961 598.00
81.1003 537.00
81.4046 569.00
81.7089 584.00
82.0131 556.00
82.3174 450.00
82.6217 478.00
82.9259 492.00
83.2302 450.00
83.5344 345.00
83.8387 383.00
84.143 410.00
84.4472 469.00
84.7515 413.00
85.0557 445.00
85.36 490.00
85.6643 454.00
85.9685 400.00
86.2728 558.00
86.577 475.00
86.8813 436.00
87.1856 449.00
87.4898 409.00
87.7941 422.00
88.0983 405.00
88.4026 448.00
88.7069 428.00
89.0111 386.00
89.3154 389.00
89.6196 406.00
89.9239 412.00
90.2282 455.00
90.5324 496.00
90.8367 555.00
91.1409 563.00
91.4452 479.00
91.7495 451.00
92.0537 433.00
92.358 400.00
92.6622 409.00
92.9665 422.00
93.2708 425.00
93.575 409.00
93.8793 396.00
94.1835 387.00
94.4878 397.00
94.7921 367.00
95.0963 381.00
95.4006 382.00
95.7048 427.00
96.0091 369.00
96.3134 373.00
96.6176 380.00
96.9219 407.00
97.2261 377.00
97.5304 358.00
97.8347 360.00
98.1389 325.00
98.4432 429.00
98.7474 387.00
99.0517 390.00
99.356 408.00
99.6602 367.00
99.9645 396.00
100.095 450.00