File: data/xrd_creation/results/PG_1952-1.xy
9.903433 2918.00
10.2077 2785.00
10.512 2752.00
10.8162 2671.00
11.1205 2690.00
11.4247 2499.00
11.729 2500.00
12.0333 2369.00
12.3375 2417.00
12.6418 2403.00
12.946 2752.00
13.2503 2579.00
13.5546 2412.00
13.8588 2212.00
14.1631 2267.00
14.4673 2264.00
14.7716 2230.00
15.0759 2222.00
15.3801 2235.00
15.6844 2162.00
15.9886 2176.00
16.2929 2114.00
16.5972 2231.00
16.9014 2239.00
17.2057 2225.00
17.5099 2250.00
17.8142 2823.00
18.1185 2183.00
18.4227 2070.00
18.727 1900.00
19.0312 2049.00
19.3355 2005.00
19.6398 1896.00
19.944 1920.00
20.2483 1932.00
20.5525 1819.00
20.8568 1875.00
21.1611 1790.00
21.4653 1798.00
21.7696 1802.00
22.0738 1834.00
22.3781 1806.00
22.6824 1873.00
22.9866 1935.00
23.2909 1942.00
23.5951 1856.00
23.8994 1851.00
24.2037 2516.00
24.5079 3286.00
24.8122 3758.00
25.1164 1850.00
25.4207 1909.00
25.725 1837.00
26.0292 2272.00
26.3335 1734.00
26.6378 1814.00
26.942 1837.00
27.2463 2096.00
27.5505 1896.00
27.8548 2112.00
28.1591 2747.00
28.4633 16614.00
28.7676 3679.00
29.0718 2116.00
29.3761 1856.00
29.6804 1868.00
29.9846 3094.00
30.2889 1953.00
30.5931 1885.00
30.8974 1982.00
31.2017 2331.00
31.5059 3084.00
31.8102 14916.00
32.1144 2941.00
32.4187 4104.00
32.723 3672.00
33.0272 3467.00
33.3315 1694.00
33.6357 1735.00
33.94 1823.00
34.2443 2261.00
34.5485 5378.00
34.8528 2984.00
35.157 1867.00
35.4613 2492.00
35.7656 2886.00
36.0698 1723.00
36.3741 1789.00
36.6783 1530.00
36.9826 1408.00
37.2869 1431.00
37.5911 1476.00
37.8954 1486.00
38.1996 1524.00
38.5039 1655.00
38.8082 2640.00
39.1124 2078.00
39.4167 2000.00
39.7209 1691.00
40.0252 2125.00
40.3295 1731.00
40.6337 1678.00
40.938 2612.00
41.2422 2265.00
41.5465 2907.00
41.8508 2195.00
42.155 1731.00
42.4593 1427.00
42.7635 1404.00
43.0678 1436.00
43.3721 1527.00
43.6763 1544.00
43.9806 1327.00
44.2849 1378.00
44.5891 1431.00
44.8934 1538.00
45.1976 2615.00
45.5019 1634.00
45.8062 2372.00
46.1104 1536.00
46.4147 1407.00
46.7189 1337.00
47.0232 1377.00
47.3275 1298.00
47.6317 1397.00
47.936 1390.00
48.2402 1465.00
48.5445 1402.00
48.8488 1575.00
49.153 1812.00
49.4573 2775.00
49.7615 3003.00
50.0658 1770.00
50.3701 4483.00
50.6743 2604.00
50.9786 3115.00
51.2828 1836.00
51.5871 2278.00
51.8914 1717.00
52.1956 1449.00
52.4999 1320.00
52.8041 1426.00
53.1084 1367.00
53.4127 1426.00
53.7169 1509.00
54.0212 1642.00
54.3254 2679.00
54.6297 2116.00
54.934 1459.00
55.2382 1554.00
55.5425 2480.00
55.8467 3398.00
56.151 2695.00
56.4553 1882.00
56.7595 1445.00
57.0638 1486.00
57.368 2145.00
57.6723 2047.00
57.9766 1571.00
58.2808 2070.00
58.5851 1861.00
58.8893 1335.00
59.1936 1395.00
59.4979 1448.00
59.8021 1561.00
60.1064 2929.00
60.4106 2441.00
60.7149 1549.00
61.0192 1428.00
61.3234 1439.00
61.6277 2218.00
61.932 1722.00
62.2362 2254.00
62.5405 1725.00
62.8447 1534.00
63.149 2778.00
63.4533 1601.00
63.7575 1315.00
64.0618 1329.00
64.366 1577.00
64.6703 1677.00
64.9745 1327.00
65.2788 1369.00
65.5831 1625.00
65.8873 2005.00
66.1916 2130.00
66.4959 1458.00
66.8001 1268.00
67.1044 1235.00
67.4086 1317.00
67.7129 1276.00
68.0172 1201.00
68.3214 1196.00
68.6257 1224.00
68.9299 1282.00
69.2342 1634.00
69.5385 1394.00
69.8427 1387.00
70.147 1431.00
70.4512 1349.00
70.7555 1275.00
71.0598 1361.00
71.364 1825.00
71.6683 1696.00
71.9725 1448.00
72.2768 1534.00
72.5811 1486.00
72.8853 1500.00
73.1896 1265.00
73.4938 1295.00
73.7981 1249.00
74.1024 1259.00
74.4066 1280.00
74.7109 1298.00
75.0151 1478.00
75.3194 1874.00
75.6237 1593.00
75.9279 1369.00
76.2322 1272.00
76.5364 1304.00
76.8407 1390.00
77.145 1349.00
77.4492 1313.00
77.7535 1454.00
78.0577 1275.00
78.362 1405.00
78.6663 1288.00
78.9705 1405.00
79.2748 1405.00
79.579 1237.00
79.8833 1191.00
80.1876 1323.00
80.4918 1272.00
80.7961 1269.00
81.1003 1300.00
81.4046 1289.00
81.7089 1394.00
82.0131 1342.00
82.3174 1311.00
82.6217 1310.00
82.9259 1451.00
83.2302 1475.00
83.5344 1526.00
83.8387 1465.00
84.143 1625.00
84.4472 1496.00
84.7515 1318.00
85.0557 1376.00
85.36 1325.00
85.6643 1222.00
85.9685 1210.00
86.2728 1382.00
86.577 1431.00
86.8813 1286.00
87.1856 1317.00
87.4898 1356.00
87.7941 1454.00
88.0983 1321.00
88.4026 1588.00
88.7069 1725.00
89.0111 1416.00
89.3154 1297.00
89.6196 1400.00
89.9239 1481.00
90.2282 1540.00
90.5324 1307.00
90.8367 1337.00
91.1409 1283.00
91.4452 1283.00
91.7495 1248.00
92.0537 1238.00
92.358 1201.00
92.6622 1164.00
92.9665 1218.00
93.2708 1252.00
93.575 1245.00
93.8793 1274.00
94.1835 1365.00
94.4878 1307.00
94.7921 1358.00
95.0963 1435.00
95.4006 1496.00
95.7048 1374.00
96.0091 1199.00
96.3134 1417.00
96.6176 1591.00
96.9219 1633.00
97.2261 1646.00
97.5304 1432.00
97.8347 1311.00
98.1389 1532.00
98.4432 1366.00
98.7474 1393.00
99.0517 1451.00
99.356 1465.00
99.6602 1662.00
99.9645 1447.00
100.095 1433.00