File: data/xrd_creation/results/PG_1750-1.xy
9.903433 2640.00
10.2077 2519.00
10.512 2384.00
10.8162 2377.00
11.1205 2327.00
11.4247 2179.00
11.729 2144.00
12.0333 2008.00
12.3375 1971.00
12.6418 1895.00
12.946 1842.00
13.2503 1759.00
13.5546 1786.00
13.8588 1773.00
14.1631 1688.00
14.4673 1712.00
14.7716 1694.00
15.0759 1552.00
15.3801 1569.00
15.6844 1666.00
15.9886 1531.00
16.2929 1528.00
16.5972 1491.00
16.9014 1580.00
17.2057 1547.00
17.5099 1598.00
17.8142 1962.00
18.1185 1431.00
18.4227 1371.00
18.727 1409.00
19.0312 1414.00
19.3355 1390.00
19.6398 1326.00
19.944 1334.00
20.2483 1350.00
20.5525 1547.00
20.8568 2448.00
21.1611 1309.00
21.4653 1247.00
21.7696 1303.00
22.0738 1246.00
22.3781 1130.00
22.6824 1262.00
22.9866 1190.00
23.2909 1176.00
23.5951 1186.00
23.8994 1273.00
24.2037 1514.00
24.5079 3083.00
24.8122 2081.00
25.1164 1307.00
25.4207 1069.00
25.725 1118.00
26.0292 1059.00
26.3335 1100.00
26.6378 1063.00
26.942 1115.00
27.2463 1120.00
27.5505 1145.00
27.8548 1311.00
28.1591 1653.00
28.4633 5391.00
28.7676 7561.00
29.0718 2339.00
29.3761 10213.00
29.6804 2118.00
29.9846 1395.00
30.2889 1302.00
30.5931 1189.00
30.8974 1222.00
31.2017 1313.00
31.5059 1670.00
31.8102 5614.00
32.1144 4322.00
32.4187 1353.00
32.723 1109.00
33.0272 1017.00
33.3315 1047.00
33.6357 1123.00
33.94 2136.00
34.2443 2022.00
34.5485 3848.00
34.8528 3528.00
35.157 1538.00
35.4613 1260.00
35.7656 3806.00
36.0698 1654.00
36.3741 2034.00
36.6783 1009.00
36.9826 953.00
37.2869 938.00
37.5911 909.00
37.8954 932.00
38.1996 1100.00
38.5039 961.00
38.8082 1034.00
39.1124 2107.00
39.4167 1081.00
39.7209 913.00
40.0252 1259.00
40.3295 1083.00
40.6337 1028.00
40.938 1128.00
41.2422 2616.00
41.5465 1457.00
41.8508 1494.00
42.155 1003.00
42.4593 831.00
42.7635 891.00
43.0678 856.00
43.3721 900.00
43.6763 1472.00
43.9806 1013.00
44.2849 866.00
44.5891 859.00
44.8934 829.00
45.1976 1029.00
45.5019 1225.00
45.8062 1086.00
46.1104 1635.00
46.4147 911.00
46.7189 816.00
47.0232 966.00
47.3275 1025.00
47.6317 876.00
47.936 893.00
48.2402 917.00
48.5445 1459.00
48.8488 6781.00
49.153 1167.00
49.4573 1262.00
49.7615 2848.00
50.0658 1651.00
50.3701 1466.00
50.6743 3795.00
50.9786 1945.00
51.2828 1920.00
51.5871 1128.00
51.8914 1556.00
52.1956 894.00
52.4999 863.00
52.8041 825.00
53.1084 865.00
53.4127 1359.00
53.7169 935.00
54.0212 913.00
54.3254 1011.00
54.6297 1982.00
54.934 1570.00
55.2382 1066.00
55.5425 1052.00
55.8467 2325.00
56.151 2656.00
56.4553 2524.00
56.7595 1574.00
57.0638 923.00
57.368 1095.00
57.6723 2062.00
57.9766 4014.00
58.2808 1288.00
58.5851 1775.00
58.8893 1479.00
59.1936 1414.00
59.4979 1320.00
59.8021 940.00
60.1064 977.00
60.4106 2132.00
60.7149 2719.00
61.0192 1063.00
61.3234 887.00
61.6277 996.00
61.932 1748.00
62.2362 1563.00
62.5405 1864.00
62.8447 1320.00
63.149 1128.00
63.4533 2084.00
63.7575 1473.00
64.0618 899.00
64.366 866.00
64.6703 1282.00
64.9745 1604.00
65.2788 857.00
65.5831 898.00
65.8873 1030.00
66.1916 1552.00
66.4959 1731.00
66.8001 1044.00
67.1044 820.00
67.4086 810.00
67.7129 787.00
68.0172 827.00
68.3214 886.00
68.6257 776.00
68.9299 842.00
69.2342 816.00
69.5385 1039.00
69.8427 1010.00
70.147 1030.00
70.4512 900.00
70.7555 831.00
71.0598 925.00
71.364 1274.00
71.6683 1293.00
71.9725 1581.00
72.2768 1053.00
72.5811 1515.00
72.8853 1143.00
73.1896 1056.00
73.4938 1033.00
73.7981 1056.00
74.1024 1041.00
74.4066 875.00
74.7109 832.00
75.0151 968.00
75.3194 1235.00
75.6237 1087.00
75.9279 1374.00
76.2322 1029.00
76.5364 881.00
76.8407 886.00
77.145 1069.00
77.4492 1165.00
77.7535 1134.00
78.0577 1110.00
78.362 1096.00
78.6663 1225.00
78.9705 1343.00
79.2748 884.00
79.579 1111.00
79.8833 1075.00
80.1876 822.00
80.4918 869.00
80.7961 863.00
81.1003 1056.00
81.4046 1136.00
81.7089 841.00
82.0131 960.00
82.3174 1158.00
82.6217 1024.00
82.9259 897.00
83.2302 1027.00
83.5344 1178.00
83.8387 1351.00
84.143 1224.00
84.4472 1050.00
84.7515 1328.00
85.0557 1313.00
85.36 963.00
85.6643 1108.00
85.9685 998.00
86.2728 829.00
86.577 871.00
86.8813 1069.00
87.1856 1004.00
87.4898 977.00
87.7941 904.00
88.0983 922.00
88.4026 1074.00
88.7069 1098.00
89.0111 1213.00
89.3154 1339.00
89.6196 1219.00
89.9239 1078.00
90.2282 1044.00
90.5324 1142.00
90.8367 1362.00
91.1409 1180.00
91.4452 952.00
91.7495 951.00
92.0537 1126.00
92.358 1033.00
92.6622 888.00
92.9665 826.00
93.2708 961.00
93.575 902.00
93.8793 878.00
94.1835 920.00
94.4878 971.00
94.7921 1078.00
95.0963 905.00
95.4006 974.00
95.7048 1279.00
96.0091 1286.00
96.3134 1085.00
96.6176 951.00
96.9219 1116.00
97.2261 1274.00
97.5304 1426.00
97.8347 1415.00
98.1389 1514.00
98.4432 1165.00
98.7474 1018.00
99.0517 1154.00
99.356 1262.00
99.6602 1294.00
99.9645 1181.00
100.095 1194.00