File: data/xrd_creation/results/PG_1843-1.xy
9.903433 2969.00
10.2077 2705.00
10.512 2673.00
10.8162 2695.00
11.1205 2522.00
11.4247 2465.00
11.729 2321.00
12.0333 2280.00
12.3375 2282.00
12.6418 2163.00
12.946 2106.00
13.2503 2066.00
13.5546 2082.00
13.8588 1975.00
14.1631 1986.00
14.4673 2012.00
14.7716 1955.00
15.0759 1887.00
15.3801 1916.00
15.6844 1817.00
15.9886 1803.00
16.2929 1828.00
16.5972 1822.00
16.9014 1774.00
17.2057 1732.00
17.5099 1840.00
17.8142 1850.00
18.1185 1777.00
18.4227 1687.00
18.727 1659.00
19.0312 1638.00
19.3355 1617.00
19.6398 1639.00
19.944 1593.00
20.2483 1604.00
20.5525 1637.00
20.8568 1618.00
21.1611 1678.00
21.4653 1757.00
21.7696 5578.00
22.0738 1704.00
22.3781 1542.00
22.6824 1460.00
22.9866 1455.00
23.2909 1436.00
23.5951 1430.00
23.8994 1389.00
24.2037 1317.00
24.5079 1354.00
24.8122 1309.00
25.1164 1278.00
25.4207 1205.00
25.725 1223.00
26.0292 1183.00
26.3335 1154.00
26.6378 1165.00
26.942 1094.00
27.2463 1093.00
27.5505 1105.00
27.8548 1161.00
28.1591 1058.00
28.4633 1085.00
28.7676 1057.00
29.0718 996.00
29.3761 1050.00
29.6804 1115.00
29.9846 1184.00
30.2889 1412.00
30.5931 2634.00
30.8974 49388.00
31.2017 2448.00
31.5059 1199.00
31.8102 1141.00
32.1144 1070.00
32.4187 982.00
32.723 1006.00
33.0272 959.00
33.3315 1142.00
33.6357 943.00
33.94 950.00
34.2443 869.00
34.5485 837.00
34.8528 915.00
35.157 959.00
35.4613 1293.00
35.7656 14980.00
36.0698 1312.00
36.3741 895.00
36.6783 894.00
36.9826 816.00
37.2869 809.00
37.5911 797.00
37.8954 1634.00
38.1996 970.00
38.5039 764.00
38.8082 696.00
39.1124 703.00
39.4167 731.00
39.7209 702.00
40.0252 917.00
40.3295 722.00
40.6337 680.00
40.938 663.00
41.2422 656.00
41.5465 653.00
41.8508 728.00
42.155 2729.00
42.4593 708.00
42.7635 669.00
43.0678 665.00
43.3721 587.00
43.6763 614.00
43.9806 721.00
44.2849 705.00
44.5891 603.00
44.8934 556.00
45.1976 625.00
45.5019 687.00
45.8062 998.00
46.1104 2563.00
46.4147 680.00
46.7189 600.00
47.0232 601.00
47.3275 595.00
47.6317 566.00
47.936 568.00
48.2402 579.00
48.5445 579.00
48.8488 590.00
49.153 635.00
49.4573 811.00
49.7615 895.00
50.0658 652.00
50.3701 631.00
50.6743 741.00
50.9786 1147.00
51.2828 16034.00
51.5871 1725.00
51.8914 736.00
52.1956 614.00
52.4999 632.00
52.8041 640.00
53.1084 1120.00
53.4127 585.00
53.7169 527.00
54.0212 538.00
54.3254 563.00
54.6297 750.00
54.934 578.00
55.2382 545.00
55.5425 506.00
55.8467 605.00
56.151 1159.00
56.4553 1095.00
56.7595 496.00
57.0638 515.00
57.368 527.00
57.6723 546.00
57.9766 804.00
58.2808 502.00
58.5851 509.00
58.8893 554.00
59.1936 713.00
59.4979 1236.00
59.8021 603.00
60.1064 545.00
60.4106 731.00
60.7149 1386.00
61.0192 5190.00
61.3234 1002.00
61.6277 647.00
61.932 606.00
62.2362 727.00
62.5405 1448.00
62.8447 628.00
63.149 532.00
63.4533 542.00
63.7575 694.00
64.0618 1479.00
64.366 550.00
64.6703 474.00
64.9745 511.00
65.2788 661.00
65.5831 973.00
65.8873 499.00
66.1916 483.00
66.4959 536.00
66.8001 771.00
67.1044 587.00
67.4086 456.00
67.7129 492.00
68.0172 520.00
68.3214 1438.00
68.6257 573.00
68.9299 406.00
69.2342 471.00
69.5385 502.00
69.8427 705.00
70.147 431.00
70.4512 439.00
70.7555 448.00
71.0598 436.00
71.364 446.00
71.6683 396.00
71.9725 412.00
72.2768 419.00
72.5811 449.00
72.8853 420.00
73.1896 427.00
73.4938 426.00
73.7981 624.00
74.1024 915.00
74.4066 465.00
74.7109 492.00
75.0151 512.00
75.3194 1463.00
75.6237 670.00
75.9279 493.00
76.2322 451.00
76.5364 740.00
76.8407 1103.00
77.145 461.00
77.4492 431.00
77.7535 480.00
78.0577 889.00
78.362 529.00
78.6663 424.00
78.9705 436.00
79.2748 700.00
79.579 822.00
79.8833 427.00
80.1876 393.00
80.4918 442.00
80.7961 605.00
81.1003 466.00
81.4046 431.00
81.7089 489.00
82.0131 1267.00
82.3174 985.00
82.6217 460.00
82.9259 519.00
83.2302 773.00
83.5344 1116.00
83.8387 589.00
84.143 428.00
84.4472 409.00
84.7515 450.00
85.0557 416.00
85.36 414.00
85.6643 465.00
85.9685 1126.00
86.2728 1121.00
86.577 438.00
86.8813 435.00
87.1856 444.00
87.4898 514.00
87.7941 431.00
88.0983 423.00
88.4026 419.00
88.7069 772.00
89.0111 556.00
89.3154 394.00
89.6196 400.00
89.9239 574.00
90.2282 600.00
90.5324 415.00
90.8367 350.00
91.1409 366.00
91.4452 394.00
91.7495 378.00
92.0537 384.00
92.358 433.00
92.6622 1088.00
92.9665 763.00
93.2708 375.00
93.575 379.00
93.8793 376.00
94.1835 396.00
94.4878 422.00
94.7921 385.00
95.0963 491.00
95.4006 867.00
95.7048 704.00
96.0091 419.00
96.3134 503.00
96.6176 1331.00
96.9219 874.00
97.2261 491.00
97.5304 383.00
97.8347 543.00
98.1389 634.00
98.4432 545.00
98.7474 411.00
99.0517 442.00
99.356 898.00
99.6602 624.00
99.9645 412.00
100.095 399.00