File: data/xrd_creation/results/PG_1744-1.xy
9.903433 2361.00
10.2077 2193.00
10.512 2184.00
10.8162 2120.00
11.1205 2001.00
11.4247 1862.00
11.729 1841.00
12.0333 1757.00
12.3375 1800.00
12.6418 1623.00
12.946 1665.00
13.2503 1563.00
13.5546 1538.00
13.8588 1548.00
14.1631 1504.00
14.4673 1463.00
14.7716 1365.00
15.0759 1333.00
15.3801 1393.00
15.6844 1357.00
15.9886 1381.00
16.2929 1314.00
16.5972 1254.00
16.9014 1283.00
17.2057 1199.00
17.5099 1268.00
17.8142 1357.00
18.1185 1214.00
18.4227 1117.00
18.727 1119.00
19.0312 1133.00
19.3355 1093.00
19.6398 1023.00
19.944 1027.00
20.2483 1036.00
20.5525 1017.00
20.8568 1032.00
21.1611 985.00
21.4653 920.00
21.7696 897.00
22.0738 918.00
22.3781 943.00
22.6824 910.00
22.9866 900.00
23.2909 892.00
23.5951 866.00
23.8994 866.00
24.2037 945.00
24.5079 1522.00
24.8122 1238.00
25.1164 833.00
25.4207 835.00
25.725 826.00
26.0292 822.00
26.3335 911.00
26.6378 1667.00
26.942 3700.00
27.2463 937.00
27.5505 764.00
27.8548 778.00
28.1591 939.00
28.4633 2575.00
28.7676 2570.00
29.0718 906.00
29.3761 745.00
29.6804 698.00
29.9846 680.00
30.2889 707.00
30.5931 704.00
30.8974 684.00
31.2017 734.00
31.5059 874.00
31.8102 2667.00
32.1144 1644.00
32.4187 769.00
32.723 647.00
33.0272 608.00
33.3315 654.00
33.6357 711.00
33.94 1500.00
34.2443 3221.00
34.5485 1931.00
34.8528 1745.00
35.157 716.00
35.4613 713.00
35.7656 1880.00
36.0698 745.00
36.3741 915.00
36.6783 544.00
36.9826 573.00
37.2869 559.00
37.5911 590.00
37.8954 573.00
38.1996 1674.00
38.5039 633.00
38.8082 630.00
39.1124 1118.00
39.4167 656.00
39.7209 548.00
40.0252 535.00
40.3295 511.00
40.6337 530.00
40.938 614.00
41.2422 1214.00
41.5465 762.00
41.8508 685.00
42.155 532.00
42.4593 452.00
42.7635 510.00
43.0678 467.00
43.3721 458.00
43.6763 435.00
43.9806 461.00
44.2849 462.00
44.5891 443.00
44.8934 479.00
45.1976 581.00
45.5019 585.00
45.8062 576.00
46.1104 771.00
46.4147 527.00
46.7189 451.00
47.0232 443.00
47.3275 434.00
47.6317 422.00
47.936 427.00
48.2402 428.00
48.5445 449.00
48.8488 435.00
49.153 432.00
49.4573 610.00
49.7615 1514.00
50.0658 688.00
50.3701 631.00
50.6743 2047.00
50.9786 964.00
51.2828 973.00
51.5871 734.00
51.8914 2351.00
52.1956 2329.00
52.4999 574.00
52.8041 525.00
53.1084 444.00
53.4127 448.00
53.7169 435.00
54.0212 462.00
54.3254 573.00
54.6297 1206.00
54.934 1340.00
55.2382 809.00
55.5425 572.00
55.8467 1273.00
56.151 1251.00
56.4553 955.00
56.7595 712.00
57.0638 467.00
57.368 530.00
57.6723 811.00
57.9766 1102.00
58.2808 752.00
58.5851 936.00
58.8893 754.00
59.1936 491.00
59.4979 448.00
59.8021 468.00
60.1064 553.00
60.4106 1134.00
60.7149 972.00
61.0192 523.00
61.3234 470.00
61.6277 568.00
61.932 1108.00
62.2362 1248.00
62.5405 968.00
62.8447 643.00
63.149 572.00
63.4533 1020.00
63.7575 688.00
64.0618 476.00
64.366 461.00
64.6703 640.00
64.9745 1543.00
65.2788 641.00
65.5831 546.00
65.8873 708.00
66.1916 1799.00
66.4959 1201.00
66.8001 578.00
67.1044 479.00
67.4086 410.00
67.7129 441.00
68.0172 400.00
68.3214 407.00
68.6257 391.00
68.9299 384.00
69.2342 443.00
69.5385 582.00
69.8427 557.00
70.147 464.00
70.4512 453.00
70.7555 452.00
71.0598 463.00
71.364 655.00
71.6683 992.00
71.9725 817.00
72.2768 507.00
72.5811 509.00
72.8853 549.00
73.1896 549.00
73.4938 553.00
73.7981 422.00
74.1024 419.00
74.4066 460.00
74.7109 420.00
75.0151 461.00
75.3194 562.00
75.6237 600.00
75.9279 695.00
76.2322 492.00
76.5364 442.00
76.8407 464.00
77.145 656.00
77.4492 534.00
77.7535 498.00
78.0577 581.00
78.362 571.00
78.6663 671.00
78.9705 1130.00
79.2748 637.00
79.579 626.00
79.8833 587.00
80.1876 424.00
80.4918 396.00
80.7961 427.00
81.1003 519.00
81.4046 653.00
81.7089 524.00
82.0131 509.00
82.3174 645.00
82.6217 585.00
82.9259 523.00
83.2302 589.00
83.5344 637.00
83.8387 1076.00
84.143 932.00
84.4472 594.00
84.7515 703.00
85.0557 631.00
85.36 569.00
85.6643 566.00
85.9685 540.00
86.2728 434.00
86.577 483.00
86.8813 566.00
87.1856 514.00
87.4898 618.00
87.7941 540.00
88.0983 545.00
88.4026 598.00
88.7069 550.00
89.0111 706.00
89.3154 738.00
89.6196 688.00
89.9239 1125.00
90.2282 947.00
90.5324 771.00
90.8367 804.00
91.1409 1056.00
91.4452 743.00
91.7495 536.00
92.0537 530.00
92.358 501.00
92.6622 466.00
92.9665 488.00
93.2708 562.00
93.575 682.00
93.8793 532.00
94.1835 501.00
94.4878 552.00
94.7921 564.00
95.0963 537.00
95.4006 511.00
95.7048 618.00
96.0091 801.00
96.3134 751.00
96.6176 576.00
96.9219 650.00
97.2261 688.00
97.5304 827.00
97.8347 866.00
98.1389 612.00
98.4432 568.00
98.7474 568.00
99.0517 639.00
99.356 611.00
99.6602 683.00
99.9645 654.00
100.095 727.00