File: data/xrd_creation/results/PG_1318-1.xy
10.0094 2234.00
10.3137 2221.00
10.618 2225.00
10.9222 2066.00
11.2265 2017.00
11.5307 1926.00
11.835 1982.00
12.1393 1859.00
12.4435 1746.00
12.7478 1754.00
13.052 1738.00
13.3563 1614.00
13.6606 1606.00
13.9648 1505.00
14.2691 1628.00
14.5733 1539.00
14.8776 1524.00
15.1819 1493.00
15.4861 1489.00
15.7904 1426.00
16.0946 1413.00
16.3989 1463.00
16.7032 1451.00
17.0074 1392.00
17.3117 1320.00
17.6159 1337.00
17.9202 1368.00
18.2245 1362.00
18.5287 1307.00
18.833 1382.00
19.1372 1275.00
19.4415 1257.00
19.7458 1269.00
20.05 1225.00
20.3543 1184.00
20.6585 1195.00
20.9628 1249.00
21.2671 1231.00
21.5713 1385.00
21.8756 1304.00
22.1798 1178.00
22.4841 1171.00
22.7884 1051.00
23.0926 1142.00
23.3969 1132.00
23.7011 1028.00
24.0054 1197.00
24.3097 1238.00
24.6139 1071.00
24.9182 1030.00
25.2224 982.00
25.5267 1013.00
25.831 1099.00
26.1352 985.00
26.4395 1004.00
26.7438 998.00
27.048 996.00
27.3523 1014.00
27.6565 976.00
27.9608 1003.00
28.2651 912.00
28.5693 985.00
28.8736 1003.00
29.1778 929.00
29.4821 993.00
29.7864 970.00
30.0906 933.00
30.3949 1312.00
30.6991 3487.00
31.0034 2238.00
31.3077 972.00
31.6119 892.00
31.9162 890.00
32.2204 938.00
32.5247 951.00
32.829 936.00
33.1332 1448.00
33.4375 1351.00
33.7417 944.00
34.046 853.00
34.3503 924.00
34.6545 888.00
34.9588 866.00
35.263 1010.00
35.5673 2178.00
35.8716 1652.00
36.1758 890.00
36.4801 875.00
36.7843 895.00
37.0886 826.00
37.3929 882.00
37.6971 993.00
38.0014 1048.00
38.3056 838.00
38.6099 863.00
38.9142 857.00
39.2184 858.00
39.5227 829.00
39.8269 836.00
40.1312 876.00
40.4355 849.00
40.7397 938.00
41.044 953.00
41.3482 853.00
41.6525 832.00
41.9568 961.00
42.261 920.00
42.5653 883.00
42.8695 795.00
43.1738 864.00
43.4781 876.00
43.7823 878.00
44.0866 841.00
44.3909 800.00
44.6951 806.00
44.9994 836.00
45.3036 912.00
45.6079 946.00
45.9122 1187.00
46.2164 883.00
46.5207 854.00
46.8249 860.00
47.1292 844.00
47.4335 860.00
47.7377 829.00
48.042 864.00
48.3462 844.00
48.6505 854.00
48.9548 787.00
49.259 1084.00
49.5633 1293.00
49.8675 863.00
50.1718 869.00
50.4761 901.00
50.7803 968.00
51.0846 1910.00
51.3888 2069.00
51.6931 925.00
51.9974 892.00
52.3016 854.00
52.6059 931.00
52.9101 1038.00
53.2144 921.00
53.5187 891.00
53.8229 1004.00
54.1272 1274.00
54.4314 963.00
54.7357 840.00
55.04 834.00
55.3442 939.00
55.6485 867.00
55.9527 984.00
56.257 1092.00
56.5613 915.00
56.8655 876.00
57.1698 924.00
57.474 961.00
57.7783 1020.00
58.0826 882.00
58.3868 914.00
58.6911 953.00
58.9953 923.00
59.2996 1132.00
59.6039 1017.00
59.9081 930.00
60.2124 965.00
60.5166 1109.00
60.8209 2095.00
61.1252 1431.00
61.4294 1000.00
61.7337 966.00
62.0379 1097.00
62.3422 1499.00
62.6465 1130.00
62.9507 977.00
63.255 882.00
63.5592 1065.00
63.8635 1514.00
64.1678 1114.00
64.472 934.00
64.7763 974.00
65.0806 964.00
65.3848 1056.00
65.6891 940.00
65.9933 918.00
66.2976 946.00
66.6019 993.00
66.9061 1068.00
67.2104 908.00
67.5146 945.00
67.8189 894.00
68.1232 1078.00
68.4274 1037.00
68.7317 959.00
69.0359 895.00
69.3402 967.00
69.6445 1043.00
69.9487 989.00
70.253 916.00
70.5572 970.00
70.8615 920.00
71.1658 999.00
71.47 937.00
71.7743 1062.00
72.0785 1086.00
72.3828 945.00
72.6871 979.00
72.9913 935.00
73.2956 1006.00
73.5998 1027.00
73.9041 1081.00
74.2084 1020.00
74.5126 1051.00
74.8169 964.00
75.1211 1250.00
75.4254 1133.00
75.7297 1016.00
76.0339 1004.00
76.3382 1020.00
76.6424 1194.00
76.9467 1033.00
77.251 1038.00
77.5552 978.00
77.8595 1121.00
78.1637 1133.00
78.468 1040.00
78.7723 1040.00
79.0765 1046.00
79.3808 1098.00
79.685 1052.00
79.9893 1006.00
80.2936 1053.00
80.5978 1181.00
80.9021 1055.00
81.2063 1063.00
81.5106 1074.00
81.8149 1075.00
82.1191 1249.00
82.4234 1098.00
82.7277 1081.00
83.0319 1180.00
83.3362 1427.00
83.6404 1264.00
83.9447 1036.00
84.249 1053.00
84.5532 1152.00
84.8575 1159.00
85.1617 1072.00
85.466 1059.00
85.7703 1167.00
86.0745 1348.00
86.3788 1138.00
86.683 1132.00
86.9873 1116.00
87.2916 1105.00
87.5958 1128.00
87.9001 1132.00
88.2043 1148.00
88.5086 1230.00
88.8129 1092.00
89.1171 1137.00
89.4214 1098.00
89.7256 1146.00
90.0299 1192.00
90.3342 1109.00
90.6384 1048.00
90.9427 1093.00
91.2469 1066.00
91.5512 1169.00
91.8555 1074.00
92.1597 1116.00
92.464 1196.00
92.7682 1197.00
93.0725 1179.00
93.3768 1202.00
93.681 1149.00
93.9853 1136.00
94.2895 1180.00
94.5938 1134.00
94.8981 1125.00
95.2023 1360.00
95.5066 1240.00
95.8108 1173.00
96.1151 1174.00
96.4194 1258.00
96.7236 1361.00
97.0279 1199.00
97.3321 1191.00
97.6364 1168.00
97.9407 1271.00
98.2449 1273.00
98.5492 1184.00
98.8534 1188.00
99.1577 1173.00
99.462 1293.00
99.7662 1158.00
99.9944 1145.00