File: data/xrd_creation/results/PG_1419-1.xy
10.0094 4125.00
10.3137 4241.00
10.618 4069.00
10.9222 4043.00
11.2265 4006.00
11.5307 3899.00
11.835 3982.00
12.1393 3862.00
12.4435 3861.00
12.7478 3867.00
13.052 3923.00
13.3563 3934.00
13.6606 3798.00
13.9648 3916.00
14.2691 3944.00
14.5733 3950.00
14.8776 3984.00
15.1819 4076.00
15.4861 3852.00
15.7904 3987.00
16.0946 4039.00
16.3989 4019.00
16.7032 3990.00
17.0074 4026.00
17.3117 4252.00
17.6159 4090.00
17.9202 4260.00
18.2245 4225.00
18.5287 4333.00
18.833 4658.00
19.1372 4391.00
19.4415 3984.00
19.7458 3966.00
20.05 3999.00
20.3543 4021.00
20.6585 3889.00
20.9628 4015.00
21.2671 3963.00
21.5713 3907.00
21.8756 3862.00
22.1798 4165.00
22.4841 3927.00
22.7884 4255.00
23.0926 4206.00
23.3969 4048.00
23.7011 4011.00
24.0054 4279.00
24.3097 4124.00
24.6139 4191.00
24.9182 4113.00
25.2224 4005.00
25.5267 3934.00
25.831 3800.00
26.1352 3828.00
26.4395 3905.00
26.7438 3894.00
27.048 3822.00
27.3523 3773.00
27.6565 3812.00
27.9608 3879.00
28.2651 3944.00
28.5693 3978.00
28.8736 3985.00
29.1778 4352.00
29.4821 4014.00
29.7864 4050.00
30.0906 4062.00
30.3949 4130.00
30.6991 3974.00
31.0034 4108.00
31.3077 4032.00
31.6119 4074.00
31.9162 4103.00
32.2204 4038.00
32.5247 4007.00
32.829 4093.00
33.1332 3860.00
33.4375 3981.00
33.7417 3892.00
34.046 4081.00
34.3503 4048.00
34.6545 4207.00
34.9588 4022.00
35.263 3936.00
35.5673 3840.00
35.8716 3830.00
36.1758 4005.00
36.4801 3923.00
36.7843 4376.00
37.0886 3928.00
37.3929 3870.00
37.6971 3972.00
38.0014 3787.00
38.3056 3764.00
38.6099 3773.00
38.9142 3900.00
39.2184 3715.00
39.5227 3727.00
39.8269 3788.00
40.1312 3831.00
40.4355 3801.00
40.7397 3739.00
41.044 3646.00
41.3482 3725.00
41.6525 3578.00
41.9568 3702.00
42.261 3658.00
42.5653 3678.00
42.8695 3691.00
43.1738 3609.00
43.4781 3604.00
43.7823 3642.00
44.0866 3578.00
44.3909 3720.00
44.6951 3611.00
44.9994 3718.00
45.3036 3599.00
45.6079 3621.00
45.9122 3591.00
46.2164 3656.00
46.5207 3556.00
46.8249 3709.00
47.1292 3709.00
47.4335 3650.00
47.7377 3689.00
48.042 3628.00
48.3462 3734.00
48.6505 3657.00
48.9548 3568.00
49.259 3623.00
49.5633 3725.00
49.8675 3732.00
50.1718 3680.00
50.4761 3701.00
50.7803 3767.00
51.0846 3619.00
51.3888 3661.00
51.6931 3629.00
51.9974 3773.00
52.3016 3519.00
52.6059 3465.00
52.9101 3659.00
53.2144 3631.00
53.5187 3537.00
53.8229 3520.00
54.1272 3581.00
54.4314 3514.00
54.7357 3503.00
55.04 3538.00
55.3442 3472.00
55.6485 3553.00
55.9527 3534.00
56.257 3509.00
56.5613 3575.00
56.8655 3458.00
57.1698 3565.00
57.474 3531.00
57.7783 3572.00
58.0826 3465.00
58.3868 3573.00
58.6911 3548.00
58.9953 3493.00
59.2996 3503.00
59.6039 3481.00
59.9081 3514.00
60.2124 3549.00
60.5166 3490.00
60.8209 3556.00
61.1252 3579.00
61.4294 3542.00
61.7337 3436.00
62.0379 3411.00
62.3422 3562.00
62.6465 3468.00
62.9507 3524.00
63.255 3531.00
63.5592 3586.00
63.8635 3499.00
64.1678 3464.00
64.472 3439.00
64.7763 3442.00
65.0806 3390.00
65.3848 3511.00
65.6891 3415.00
65.9933 3522.00
66.2976 3495.00
66.6019 3432.00
66.9061 3525.00
67.2104 3434.00
67.5146 3365.00
67.8189 3362.00
68.1232 3374.00
68.4274 3539.00
68.7317 3439.00
69.0359 3423.00
69.3402 3396.00
69.6445 3355.00
69.9487 3457.00
70.253 3442.00
70.5572 3294.00
70.8615 3441.00
71.1658 3404.00
71.47 3456.00
71.7743 3308.00
72.0785 3345.00
72.3828 3307.00
72.6871 3384.00
72.9913 3442.00
73.2956 3345.00
73.5998 3420.00
73.9041 3442.00
74.2084 3358.00
74.5126 3466.00
74.8169 3374.00
75.1211 3444.00
75.4254 3389.00
75.7297 3358.00
76.0339 3294.00
76.3382 3411.00
76.6424 3363.00
76.9467 3388.00
77.251 3319.00
77.5552 3332.00
77.8595 3323.00
78.1637 3320.00
78.468 3357.00
78.7723 3392.00
79.0765 3343.00
79.3808 3355.00
79.685 3327.00
79.9893 3411.00
80.2936 3338.00
80.5978 3378.00
80.9021 3370.00
81.2063 3366.00
81.5106 3416.00
81.8149 3392.00
82.1191 3407.00
82.4234 3476.00
82.7277 3338.00
83.0319 3390.00
83.3362 3401.00
83.6404 3360.00
83.9447 3410.00
84.249 3254.00
84.5532 3363.00
84.8575 3417.00
85.1617 3372.00
85.466 3317.00
85.7703 3404.00
86.0745 3273.00
86.3788 3361.00
86.683 3359.00
86.9873 3384.00
87.2916 3330.00
87.5958 3336.00
87.9001 3390.00
88.2043 3339.00
88.5086 3377.00
88.8129 3263.00
89.1171 3350.00
89.4214 3351.00
89.7256 3385.00
90.0299 3453.00
90.3342 3371.00
90.6384 3263.00
90.9427 3334.00
91.2469 3372.00
91.5512 3349.00
91.8555 3340.00
92.1597 3285.00
92.464 3341.00
92.7682 3369.00
93.0725 3298.00
93.3768 3403.00
93.681 3329.00
93.9853 3233.00
94.2895 3379.00
94.5938 3329.00
94.8981 3288.00
95.2023 3336.00
95.5066 3303.00
95.8108 3392.00
96.1151 3257.00
96.4194 3341.00
96.7236 3525.00
97.0279 3330.00
97.3321 3329.00
97.6364 3395.00
97.9407 3305.00
98.2449 3410.00
98.5492 3218.00
98.8534 3290.00
99.1577 3370.00
99.462 3348.00
99.7662 3427.00
99.9944 3360.00