File: data/xrd_creation/results/PG_1844-1.xy
9.903433 2458.00
10.2077 2499.00
10.512 2465.00
10.8162 2220.00
11.1205 2152.00
11.4247 2137.00
11.729 1994.00
12.0333 1941.00
12.3375 1931.00
12.6418 1907.00
12.946 1818.00
13.2503 1704.00
13.5546 1671.00
13.8588 1636.00
14.1631 1653.00
14.4673 1533.00
14.7716 1576.00
15.0759 1534.00
15.3801 1572.00
15.6844 1485.00
15.9886 1493.00
16.2929 1406.00
16.5972 1453.00
16.9014 1379.00
17.2057 1361.00
17.5099 1383.00
17.8142 1395.00
18.1185 1304.00
18.4227 1272.00
18.727 1320.00
19.0312 1301.00
19.3355 1275.00
19.6398 1249.00
19.944 1166.00
20.2483 1133.00
20.5525 1133.00
20.8568 1133.00
21.1611 1162.00
21.4653 1141.00
21.7696 1584.00
22.0738 1123.00
22.3781 1010.00
22.6824 1032.00
22.9866 998.00
23.2909 995.00
23.5951 1016.00
23.8994 1039.00
24.2037 954.00
24.5079 961.00
24.8122 915.00
25.1164 917.00
25.4207 892.00
25.725 948.00
26.0292 917.00
26.3335 1005.00
26.6378 1875.00
26.942 4422.00
27.2463 1012.00
27.5505 889.00
27.8548 888.00
28.1591 814.00
28.4633 784.00
28.7676 799.00
29.0718 789.00
29.3761 722.00
29.6804 742.00
29.9846 804.00
30.2889 838.00
30.5931 1264.00
30.8974 6747.00
31.2017 839.00
31.5059 723.00
31.8102 695.00
32.1144 731.00
32.4187 682.00
32.723 688.00
33.0272 697.00
33.3315 785.00
33.6357 795.00
33.94 1562.00
34.2443 3578.00
34.5485 842.00
34.8528 649.00
35.157 663.00
35.4613 729.00
35.7656 2527.00
36.0698 619.00
36.3741 605.00
36.6783 567.00
36.9826 588.00
37.2869 611.00
37.5911 569.00
37.8954 894.00
38.1996 1756.00
38.5039 665.00
38.8082 525.00
39.1124 664.00
39.4167 615.00
39.7209 543.00
40.0252 599.00
40.3295 533.00
40.6337 492.00
40.938 520.00
41.2422 493.00
41.5465 491.00
41.8508 517.00
42.155 765.00
42.4593 476.00
42.7635 514.00
43.0678 489.00
43.3721 480.00
43.6763 468.00
43.9806 529.00
44.2849 459.00
44.5891 430.00
44.8934 451.00
45.1976 459.00
45.5019 430.00
45.8062 641.00
46.1104 743.00
46.4147 460.00
46.7189 431.00
47.0232 474.00
47.3275 456.00
47.6317 421.00
47.936 401.00
48.2402 440.00
48.5445 413.00
48.8488 394.00
49.153 446.00
49.4573 507.00
49.7615 458.00
50.0658 404.00
50.3701 488.00
50.6743 455.00
50.9786 590.00
51.2828 3284.00
51.5871 799.00
51.8914 1918.00
52.1956 2634.00
52.4999 591.00
52.8041 453.00
53.1084 545.00
53.4127 458.00
53.7169 402.00
54.0212 393.00
54.3254 488.00
54.6297 536.00
54.934 1067.00
55.2382 726.00
55.5425 430.00
55.8467 414.00
56.151 647.00
56.4553 525.00
56.7595 420.00
57.0638 380.00
57.368 361.00
57.6723 439.00
57.9766 663.00
58.2808 592.00
58.5851 396.00
58.8893 401.00
59.1936 433.00
59.4979 541.00
59.8021 413.00
60.1064 390.00
60.4106 447.00
60.7149 757.00
61.0192 1546.00
61.3234 464.00
61.6277 464.00
61.932 610.00
62.2362 1072.00
62.5405 656.00
62.8447 406.00
63.149 371.00
63.4533 412.00
63.7575 465.00
64.0618 658.00
64.366 399.00
64.6703 472.00
64.9745 1311.00
65.2788 650.00
65.5831 504.00
65.8873 513.00
66.1916 1582.00
66.4959 692.00
66.8001 444.00
67.1044 410.00
67.4086 343.00
67.7129 375.00
68.0172 389.00
68.3214 570.00
68.6257 362.00
68.9299 377.00
69.2342 354.00
69.5385 392.00
69.8427 396.00
70.147 352.00
70.4512 359.00
70.7555 351.00
71.0598 374.00
71.364 533.00
71.6683 598.00
71.9725 391.00
72.2768 378.00
72.5811 353.00
72.8853 322.00
73.1896 359.00
73.4938 371.00
73.7981 415.00
74.1024 382.00
74.4066 332.00
74.7109 344.00
75.0151 353.00
75.3194 560.00
75.6237 353.00
75.9279 319.00
76.2322 368.00
76.5364 452.00
76.8407 485.00
77.145 358.00
77.4492 298.00
77.7535 350.00
78.0577 434.00
78.362 415.00
78.6663 475.00
78.9705 1056.00
79.2748 629.00
79.579 455.00
79.8833 357.00
80.1876 362.00
80.4918 374.00
80.7961 393.00
81.1003 371.00
81.4046 570.00
81.7089 439.00
82.0131 588.00
82.3174 494.00
82.6217 348.00
82.9259 348.00
83.2302 535.00
83.5344 574.00
83.8387 754.00
84.143 642.00
84.4472 353.00
84.7515 344.00
85.0557 308.00
85.36 332.00
85.6643 345.00
85.9685 616.00
86.2728 534.00
86.577 342.00
86.8813 358.00
87.1856 366.00
87.4898 579.00
87.7941 452.00
88.0983 348.00
88.4026 308.00
88.7069 400.00
89.0111 370.00
89.3154 362.00
89.6196 417.00
89.9239 933.00
90.2282 813.00
90.5324 379.00
90.8367 416.00
91.1409 1003.00
91.4452 599.00
91.7495 357.00
92.0537 369.00
92.358 341.00
92.6622 548.00
92.9665 409.00
93.2708 424.00
93.575 554.00
93.8793 417.00
94.1835 339.00
94.4878 325.00
94.7921 337.00
95.0963 352.00
95.4006 438.00
95.7048 395.00
96.0091 380.00
96.3134 482.00
96.6176 694.00
96.9219 538.00
97.2261 374.00
97.5304 352.00
97.8347 365.00
98.1389 371.00
98.4432 356.00
98.7474 301.00
99.0517 338.00
99.356 450.00
99.6602 373.00
99.9645 297.00
100.095 353.00