File: data/xrd_creation/results/PG_1852-1.xy
9.903433 2514.00
10.2077 2413.00
10.512 2382.00
10.8162 2234.00
11.1205 2148.00
11.4247 2045.00
11.729 2004.00
12.0333 1964.00
12.3375 1775.00
12.6418 1828.00
12.946 1701.00
13.2503 1709.00
13.5546 1696.00
13.8588 1672.00
14.1631 1592.00
14.4673 1656.00
14.7716 1575.00
15.0759 1618.00
15.3801 1559.00
15.6844 1510.00
15.9886 1559.00
16.2929 1473.00
16.5972 1473.00
16.9014 1568.00
17.2057 1433.00
17.5099 1455.00
17.8142 1461.00
18.1185 1364.00
18.4227 1417.00
18.727 1422.00
19.0312 1267.00
19.3355 1303.00
19.6398 1195.00
19.944 1242.00
20.2483 1322.00
20.5525 1263.00
20.8568 1169.00
21.1611 1179.00
21.4653 1245.00
21.7696 1676.00
22.0738 1071.00
22.3781 1174.00
22.6824 1169.00
22.9866 1152.00
23.2909 1137.00
23.5951 1114.00
23.8994 1165.00
24.2037 1324.00
24.5079 1209.00
24.8122 1204.00
25.1164 1196.00
25.4207 1155.00
25.725 1104.00
26.0292 1078.00
26.3335 1077.00
26.6378 988.00
26.942 1059.00
27.2463 1051.00
27.5505 980.00
27.8548 1084.00
28.1591 1366.00
28.4633 3194.00
28.7676 1061.00
29.0718 1063.00
29.3761 941.00
29.6804 1033.00
29.9846 1045.00
30.2889 1190.00
30.5931 2253.00
30.8974 7399.00
31.2017 1228.00
31.5059 1457.00
31.8102 2265.00
32.1144 1002.00
32.4187 983.00
32.723 920.00
33.0272 943.00
33.3315 962.00
33.6357 906.00
33.94 932.00
34.2443 1197.00
34.5485 1217.00
34.8528 936.00
35.157 1029.00
35.4613 1503.00
35.7656 3267.00
36.0698 951.00
36.3741 841.00
36.6783 847.00
36.9826 918.00
37.2869 859.00
37.5911 879.00
37.8954 1187.00
38.1996 879.00
38.5039 838.00
38.8082 957.00
39.1124 952.00
39.4167 793.00
39.7209 897.00
40.0252 973.00
40.3295 818.00
40.6337 830.00
40.938 1165.00
41.2422 941.00
41.5465 979.00
41.8508 931.00
42.155 1177.00
42.4593 733.00
42.7635 811.00
43.0678 754.00
43.3721 728.00
43.6763 771.00
43.9806 845.00
44.2849 801.00
44.5891 794.00
44.8934 931.00
45.1976 916.00
45.5019 853.00
45.8062 1323.00
46.1104 1084.00
46.4147 776.00
46.7189 792.00
47.0232 733.00
47.3275 813.00
47.6317 739.00
47.936 756.00
48.2402 762.00
48.5445 729.00
48.8488 789.00
49.153 968.00
49.4573 1455.00
49.7615 1030.00
50.0658 852.00
50.3701 1602.00
50.6743 1195.00
50.9786 1369.00
51.2828 4617.00
51.5871 1069.00
51.8914 789.00
52.1956 809.00
52.4999 786.00
52.8041 856.00
53.1084 856.00
53.4127 781.00
53.7169 805.00
54.0212 885.00
54.3254 1231.00
54.6297 848.00
54.934 829.00
55.2382 885.00
55.5425 1199.00
55.8467 1195.00
56.151 1414.00
56.4553 980.00
56.7595 763.00
57.0638 804.00
57.368 1063.00
57.6723 892.00
57.9766 900.00
58.2808 882.00
58.5851 960.00
58.8893 800.00
59.1936 962.00
59.4979 988.00
59.8021 821.00
60.1064 1189.00
60.4106 1122.00
60.7149 1612.00
61.0192 2427.00
61.3234 993.00
61.6277 967.00
61.932 909.00
62.2362 1198.00
62.5405 1163.00
62.8447 972.00
63.149 1047.00
63.4533 794.00
63.7575 993.00
64.0618 1097.00
64.366 879.00
64.6703 810.00
64.9745 810.00
65.2788 912.00
65.5831 963.00
65.8873 1032.00
66.1916 858.00
66.4959 809.00
66.8001 896.00
67.1044 784.00
67.4086 747.00
67.7129 786.00
68.0172 829.00
68.3214 917.00
68.6257 807.00
68.9299 741.00
69.2342 862.00
69.5385 811.00
69.8427 899.00
70.147 784.00
70.4512 745.00
70.7555 801.00
71.0598 769.00
71.364 987.00
71.6683 839.00
71.9725 794.00
72.2768 802.00
72.5811 791.00
72.8853 813.00
73.1896 821.00
73.4938 765.00
73.7981 948.00
74.1024 851.00
74.4066 781.00
74.7109 818.00
75.0151 931.00
75.3194 1167.00
75.6237 896.00
75.9279 827.00
76.2322 756.00
76.5364 1078.00
76.8407 1070.00
77.145 790.00
77.4492 832.00
77.7535 891.00
78.0577 958.00
78.362 808.00
78.6663 850.00
78.9705 808.00
79.2748 1019.00
79.579 936.00
79.8833 759.00
80.1876 784.00
80.4918 879.00
80.7961 882.00
81.1003 809.00
81.4046 790.00
81.7089 893.00
82.0131 1221.00
82.3174 985.00
82.6217 898.00
82.9259 856.00
83.2302 1249.00
83.5344 1238.00
83.8387 850.00
84.143 834.00
84.4472 827.00
84.7515 860.00
85.0557 853.00
85.36 802.00
85.6643 811.00
85.9685 1286.00
86.2728 1122.00
86.577 818.00
86.8813 792.00
87.1856 839.00
87.4898 911.00
87.7941 855.00
88.0983 841.00
88.4026 938.00
88.7069 1021.00
89.0111 880.00
89.3154 880.00
89.6196 883.00
89.9239 1057.00
90.2282 1052.00
90.5324 817.00
90.8367 839.00
91.1409 817.00
91.4452 811.00
91.7495 782.00
92.0537 831.00
92.358 755.00
92.6622 973.00
92.9665 940.00
93.2708 771.00
93.575 842.00
93.8793 803.00
94.1835 792.00
94.4878 840.00
94.7921 834.00
95.0963 930.00
95.4006 1123.00
95.7048 932.00
96.0091 868.00
96.3134 951.00
96.6176 1513.00
96.9219 1176.00
97.2261 971.00
97.5304 828.00
97.8347 934.00
98.1389 903.00
98.4432 909.00
98.7474 845.00
99.0517 893.00
99.356 1077.00
99.6602 1009.00
99.9645 937.00
100.095 921.00