File: data/xrd_creation/results/PG_1747-1.xy
9.903433 2471.00
10.2077 2401.00
10.512 2303.00
10.8162 2245.00
11.1205 2070.00
11.4247 2027.00
11.729 2006.00
12.0333 1840.00
12.3375 1812.00
12.6418 1782.00
12.946 1699.00
13.2503 1628.00
13.5546 1638.00
13.8588 1473.00
14.1631 1442.00
14.4673 1457.00
14.7716 1457.00
15.0759 1447.00
15.3801 1531.00
15.6844 1417.00
15.9886 1321.00
16.2929 1289.00
16.5972 1286.00
16.9014 1264.00
17.2057 1202.00
17.5099 1430.00
17.8142 1186.00
18.1185 1119.00
18.4227 1137.00
18.727 1148.00
19.0312 1075.00
19.3355 1068.00
19.6398 1060.00
19.944 1064.00
20.2483 1674.00
20.5525 1190.00
20.8568 971.00
21.1611 967.00
21.4653 954.00
21.7696 1177.00
22.0738 907.00
22.3781 886.00
22.6824 891.00
22.9866 875.00
23.2909 897.00
23.5951 864.00
23.8994 933.00
24.2037 1862.00
24.5079 1331.00
24.8122 847.00
25.1164 774.00
25.4207 816.00
25.725 759.00
26.0292 841.00
26.3335 771.00
26.6378 721.00
26.942 730.00
27.2463 689.00
27.5505 721.00
27.8548 794.00
28.1591 2277.00
28.4633 3701.00
28.7676 786.00
29.0718 724.00
29.3761 684.00
29.6804 697.00
29.9846 677.00
30.2889 636.00
30.5931 715.00
30.8974 1097.00
31.2017 908.00
31.5059 2293.00
31.8102 2531.00
32.1144 690.00
32.4187 728.00
32.723 601.00
33.0272 588.00
33.3315 626.00
33.6357 595.00
33.94 594.00
34.2443 1865.00
34.5485 2339.00
34.8528 663.00
35.157 572.00
35.4613 2121.00
35.7656 746.00
36.0698 1194.00
36.3741 563.00
36.6783 480.00
36.9826 504.00
37.2869 528.00
37.5911 525.00
37.8954 539.00
38.1996 519.00
38.5039 541.00
38.8082 1412.00
39.1124 508.00
39.4167 443.00
39.7209 498.00
40.0252 525.00
40.3295 552.00
40.6337 524.00
40.938 2039.00
41.2422 809.00
41.5465 1125.00
41.8508 542.00
42.155 521.00
42.4593 495.00
42.7635 457.00
43.0678 443.00
43.3721 447.00
43.6763 472.00
43.9806 432.00
44.2849 462.00
44.5891 496.00
44.8934 491.00
45.1976 859.00
45.5019 580.00
45.8062 1200.00
46.1104 484.00
46.4147 429.00
46.7189 462.00
47.0232 457.00
47.3275 796.00
47.6317 469.00
47.936 599.00
48.2402 482.00
48.5445 450.00
48.8488 500.00
49.153 695.00
49.4573 1587.00
49.7615 965.00
50.0658 559.00
50.3701 2455.00
50.6743 1002.00
50.9786 1432.00
51.2828 574.00
51.5871 930.00
51.8914 543.00
52.1956 537.00
52.4999 440.00
52.8041 435.00
53.1084 474.00
53.4127 425.00
53.7169 464.00
54.0212 509.00
54.3254 991.00
54.6297 1161.00
54.934 576.00
55.2382 523.00
55.5425 938.00
55.8467 2045.00
56.151 1178.00
56.4553 885.00
56.7595 421.00
57.0638 437.00
57.368 609.00
57.6723 1313.00
57.9766 532.00
58.2808 1224.00
58.5851 1033.00
58.8893 587.00
59.1936 552.00
59.4979 456.00
59.8021 505.00
60.1064 1462.00
60.4106 1592.00
60.7149 608.00
61.0192 490.00
61.3234 505.00
61.6277 818.00
61.932 1036.00
62.2362 1087.00
62.5405 1029.00
62.8447 480.00
63.149 944.00
63.4533 1329.00
63.7575 487.00
64.0618 491.00
64.366 579.00
64.6703 1098.00
64.9745 550.00
65.2788 483.00
65.5831 576.00
65.8873 815.00
66.1916 1542.00
66.4959 715.00
66.8001 477.00
67.1044 463.00
67.4086 434.00
67.7129 483.00
68.0172 475.00
68.3214 439.00
68.6257 480.00
68.9299 475.00
69.2342 570.00
69.5385 765.00
69.8427 510.00
70.147 586.00
70.4512 508.00
70.7555 497.00
71.0598 512.00
71.364 577.00
71.6683 1311.00
71.9725 735.00
72.2768 568.00
72.5811 846.00
72.8853 653.00
73.1896 721.00
73.4938 484.00
73.7981 507.00
74.1024 542.00
74.4066 487.00
74.7109 537.00
75.0151 605.00
75.3194 692.00
75.6237 1055.00
75.9279 625.00
76.2322 504.00
76.5364 525.00
76.8407 686.00
77.145 719.00
77.4492 574.00
77.7535 689.00
78.0577 746.00
78.362 568.00
78.6663 678.00
78.9705 534.00
79.2748 568.00
79.579 661.00
79.8833 537.00
80.1876 468.00
80.4918 425.00
80.7961 536.00
81.1003 567.00
81.4046 484.00
81.7089 551.00
82.0131 737.00
82.3174 721.00
82.6217 563.00
82.9259 631.00
83.2302 715.00
83.5344 738.00
83.8387 860.00
84.143 678.00
84.4472 925.00
84.7515 1086.00
85.0557 629.00
85.36 612.00
85.6643 596.00
85.9685 516.00
86.2728 481.00
86.577 622.00
86.8813 627.00
87.1856 559.00
87.4898 547.00
87.7941 559.00
88.0983 908.00
88.4026 696.00
88.7069 854.00
89.0111 812.00
89.3154 766.00
89.6196 646.00
89.9239 660.00
90.2282 720.00
90.5324 913.00
90.8367 722.00
91.1409 537.00
91.4452 566.00
91.7495 520.00
92.0537 784.00
92.358 689.00
92.6622 513.00
92.9665 464.00
93.2708 480.00
93.575 579.00
93.8793 556.00
94.1835 532.00
94.4878 885.00
94.7921 782.00
95.0963 568.00
95.4006 706.00
95.7048 873.00
96.0091 729.00
96.3134 606.00
96.6176 595.00
96.9219 872.00
97.2261 1214.00
97.5304 969.00
97.8347 821.00
98.1389 711.00
98.4432 644.00
98.7474 980.00
99.0517 788.00
99.356 754.00
99.6602 709.00
99.9645 886.00
100.095 1215.00