File: data/xrd_creation/results/PG_1741-1.xy
9.903433 2535.00
10.2077 2372.00
10.512 2237.00
10.8162 2267.00
11.1205 2140.00
11.4247 2197.00
11.729 2107.00
12.0333 1931.00
12.3375 2018.00
12.6418 1862.00
12.946 1740.00
13.2503 1790.00
13.5546 1796.00
13.8588 1937.00
14.1631 2536.00
14.4673 1601.00
14.7716 1585.00
15.0759 1591.00
15.3801 1500.00
15.6844 1525.00
15.9886 1500.00
16.2929 1479.00
16.5972 1512.00
16.9014 1444.00
17.2057 1461.00
17.5099 1440.00
17.8142 1749.00
18.1185 1423.00
18.4227 1408.00
18.727 1325.00
19.0312 1340.00
19.3355 1253.00
19.6398 1403.00
19.944 1242.00
20.2483 1258.00
20.5525 1179.00
20.8568 1217.00
21.1611 1167.00
21.4653 1190.00
21.7696 1091.00
22.0738 1092.00
22.3781 1072.00
22.6824 1109.00
22.9866 1095.00
23.2909 1096.00
23.5951 1030.00
23.8994 1147.00
24.2037 1214.00
24.5079 2678.00
24.8122 1720.00
25.1164 1278.00
25.4207 1076.00
25.725 1035.00
26.0292 1106.00
26.3335 1014.00
26.6378 1053.00
26.942 1080.00
27.2463 1159.00
27.5505 1364.00
27.8548 4269.00
28.1591 5961.00
28.4633 3445.00
28.7676 9691.00
29.0718 1754.00
29.3761 1241.00
29.6804 1158.00
29.9846 1057.00
30.2889 1037.00
30.5931 1079.00
30.8974 1046.00
31.2017 1048.00
31.5059 1430.00
31.8102 3261.00
32.1144 5998.00
32.4187 9026.00
32.723 1252.00
33.0272 1026.00
33.3315 1005.00
33.6357 957.00
33.94 1010.00
34.2443 1042.00
34.5485 2309.00
34.8528 2888.00
35.157 1561.00
35.4613 2226.00
35.7656 2598.00
36.0698 1276.00
36.3741 1503.00
36.6783 889.00
36.9826 902.00
37.2869 807.00
37.5911 726.00
37.8954 754.00
38.1996 797.00
38.5039 798.00
38.8082 788.00
39.1124 1887.00
39.4167 884.00
39.7209 775.00
40.0252 857.00
40.3295 780.00
40.6337 799.00
40.938 829.00
41.2422 1919.00
41.5465 1240.00
41.8508 1231.00
42.155 879.00
42.4593 1007.00
42.7635 719.00
43.0678 673.00
43.3721 680.00
43.6763 657.00
43.9806 640.00
44.2849 675.00
44.5891 753.00
44.8934 729.00
45.1976 785.00
45.5019 1211.00
45.8062 932.00
46.1104 2103.00
46.4147 5225.00
46.7189 923.00
47.0232 733.00
47.3275 779.00
47.6317 649.00
47.936 641.00
48.2402 718.00
48.5445 985.00
48.8488 771.00
49.153 721.00
49.4573 894.00
49.7615 1648.00
50.0658 1738.00
50.3701 930.00
50.6743 2449.00
50.9786 1827.00
51.2828 1835.00
51.5871 857.00
51.8914 1209.00
52.1956 727.00
52.4999 672.00
52.8041 648.00
53.1084 666.00
53.4127 705.00
53.7169 697.00
54.0212 762.00
54.3254 833.00
54.6297 1941.00
54.934 4949.00
55.2382 1143.00
55.5425 964.00
55.8467 1432.00
56.151 2392.00
56.4553 1419.00
56.7595 1350.00
57.0638 790.00
57.368 1229.00
57.6723 1894.00
57.9766 1468.00
58.2808 854.00
58.5851 1429.00
58.8893 1207.00
59.1936 1019.00
59.4979 1299.00
59.8021 746.00
60.1064 729.00
60.4106 1401.00
60.7149 1768.00
61.0192 860.00
61.3234 712.00
61.6277 700.00
61.932 1138.00
62.2362 1207.00
62.5405 1349.00
62.8447 1132.00
63.149 819.00
63.4533 1292.00
63.7575 1293.00
64.0618 757.00
64.366 1355.00
64.6703 845.00
64.9745 1109.00
65.2788 725.00
65.5831 651.00
65.8873 799.00
66.1916 1046.00
66.4959 1539.00
66.8001 895.00
67.1044 743.00
67.4086 1322.00
67.7129 647.00
68.0172 532.00
68.3214 575.00
68.6257 609.00
68.9299 683.00
69.2342 897.00
69.5385 702.00
69.8427 831.00
70.147 600.00
70.4512 685.00
70.7555 667.00
71.0598 629.00
71.364 644.00
71.6683 759.00
71.9725 1383.00
72.2768 865.00
72.5811 729.00
72.8853 910.00
73.1896 803.00
73.4938 808.00
73.7981 719.00
74.1024 809.00
74.4066 1536.00
74.7109 746.00
75.0151 595.00
75.3194 735.00
75.6237 781.00
75.9279 1095.00
76.2322 940.00
76.5364 1774.00
76.8407 1338.00
77.145 899.00
77.4492 815.00
77.7535 707.00
78.0577 797.00
78.362 923.00
78.6663 741.00
78.9705 738.00
79.2748 652.00
79.579 699.00
79.8833 848.00
80.1876 625.00
80.4918 640.00
80.7961 618.00
81.1003 596.00
81.4046 703.00
81.7089 672.00
82.0131 719.00
82.3174 888.00
82.6217 865.00
82.9259 785.00
83.2302 747.00
83.5344 848.00
83.8387 852.00
84.143 946.00
84.4472 810.00
84.7515 942.00
85.0557 944.00
85.36 1164.00
85.6643 1204.00
85.9685 805.00
86.2728 614.00
86.577 670.00
86.8813 766.00
87.1856 802.00
87.4898 640.00
87.7941 600.00
88.0983 648.00
88.4026 845.00
88.7069 762.00
89.0111 928.00
89.3154 969.00
89.6196 799.00
89.9239 715.00
90.2282 787.00
90.5324 880.00
90.8367 908.00
91.1409 756.00
91.4452 1356.00
91.7495 1168.00
92.0537 1421.00
92.358 1017.00
92.6622 709.00
92.9665 589.00
93.2708 584.00
93.575 616.00
93.8793 619.00
94.1835 665.00
94.4878 668.00
94.7921 766.00
95.0963 691.00
95.4006 641.00
95.7048 800.00
96.0091 874.00
96.3134 827.00
96.6176 632.00
96.9219 764.00
97.2261 819.00
97.5304 973.00
97.8347 1015.00
98.1389 812.00
98.4432 745.00
98.7474 704.00
99.0517 838.00
99.356 779.00
99.6602 867.00
99.9645 780.00
100.095 915.00