File: data/xrd_creation/results/PG_1850-1.xy
9.903433 2573.00
10.2077 2571.00
10.512 2496.00
10.8162 2365.00
11.1205 2346.00
11.4247 2145.00
11.729 2221.00
12.0333 2146.00
12.3375 2012.00
12.6418 2055.00
12.946 1973.00
13.2503 1789.00
13.5546 1721.00
13.8588 1746.00
14.1631 1779.00
14.4673 1728.00
14.7716 1691.00
15.0759 1805.00
15.3801 1593.00
15.6844 1723.00
15.9886 1593.00
16.2929 1616.00
16.5972 1593.00
16.9014 1621.00
17.2057 1554.00
17.5099 1558.00
17.8142 1514.00
18.1185 1565.00
18.4227 1521.00
18.727 1451.00
19.0312 1388.00
19.3355 1400.00
19.6398 1350.00
19.944 1317.00
20.2483 1365.00
20.5525 1475.00
20.8568 2413.00
21.1611 1422.00
21.4653 1346.00
21.7696 2630.00
22.0738 1281.00
22.3781 1264.00
22.6824 1196.00
22.9866 1301.00
23.2909 1207.00
23.5951 1250.00
23.8994 1258.00
24.2037 1209.00
24.5079 1154.00
24.8122 1245.00
25.1164 1159.00
25.4207 1168.00
25.725 1119.00
26.0292 1136.00
26.3335 1160.00
26.6378 1134.00
26.942 1106.00
27.2463 1072.00
27.5505 1051.00
27.8548 1134.00
28.1591 1063.00
28.4633 1192.00
28.7676 1165.00
29.0718 1391.00
29.3761 5881.00
29.6804 2386.00
29.9846 1536.00
30.2889 1352.00
30.5931 1997.00
30.8974 22036.00
31.2017 1629.00
31.5059 1179.00
31.8102 1198.00
32.1144 1076.00
32.4187 1071.00
32.723 1082.00
33.0272 1062.00
33.3315 1206.00
33.6357 1061.00
33.94 1588.00
34.2443 1986.00
34.5485 1065.00
34.8528 1084.00
35.157 1035.00
35.4613 1221.00
35.7656 7423.00
36.0698 1223.00
36.3741 1156.00
36.6783 959.00
36.9826 908.00
37.2869 975.00
37.5911 996.00
37.8954 1195.00
38.1996 1189.00
38.5039 972.00
38.8082 946.00
39.1124 938.00
39.4167 934.00
39.7209 854.00
40.0252 1192.00
40.3295 1105.00
40.6337 949.00
40.938 878.00
41.2422 869.00
41.5465 873.00
41.8508 894.00
42.155 1953.00
42.4593 975.00
42.7635 841.00
43.0678 866.00
43.3721 913.00
43.6763 1173.00
43.9806 1196.00
44.2849 913.00
44.5891 864.00
44.8934 884.00
45.1976 823.00
45.5019 896.00
45.8062 1083.00
46.1104 1855.00
46.4147 890.00
46.7189 910.00
47.0232 920.00
47.3275 1053.00
47.6317 914.00
47.936 864.00
48.2402 942.00
48.5445 1155.00
48.8488 6030.00
49.153 1313.00
49.4573 1150.00
49.7615 1139.00
50.0658 1020.00
50.3701 1071.00
50.6743 961.00
50.9786 1262.00
51.2828 8415.00
51.5871 1323.00
51.8914 979.00
52.1956 941.00
52.4999 848.00
52.8041 987.00
53.1084 1024.00
53.4127 1051.00
53.7169 1023.00
54.0212 893.00
54.3254 870.00
54.6297 1029.00
54.934 1001.00
55.2382 855.00
55.5425 856.00
55.8467 919.00
56.151 1228.00
56.4553 1724.00
56.7595 965.00
57.0638 869.00
57.368 892.00
57.6723 1199.00
57.9766 3217.00
58.2808 1071.00
58.5851 995.00
58.8893 999.00
59.1936 1164.00
59.4979 1648.00
59.8021 939.00
60.1064 891.00
60.4106 1034.00
60.7149 1942.00
61.0192 3481.00
61.3234 1039.00
61.6277 927.00
61.932 934.00
62.2362 1082.00
62.5405 1342.00
62.8447 898.00
63.149 941.00
63.4533 1021.00
63.7575 951.00
64.0618 1304.00
64.366 835.00
64.6703 949.00
64.9745 1016.00
65.2788 959.00
65.5831 1105.00
65.8873 910.00
66.1916 977.00
66.4959 907.00
66.8001 1005.00
67.1044 890.00
67.4086 857.00
67.7129 827.00
68.0172 839.00
68.3214 1381.00
68.6257 855.00
68.9299 796.00
69.2342 779.00
69.5385 874.00
69.8427 959.00
70.147 928.00
70.4512 813.00
70.7555 797.00
71.0598 863.00
71.364 1254.00
71.6683 900.00
71.9725 865.00
72.2768 883.00
72.5811 1235.00
72.8853 955.00
73.1896 861.00
73.4938 846.00
73.7981 1076.00
74.1024 1099.00
74.4066 845.00
74.7109 813.00
75.0151 975.00
75.3194 1546.00
75.6237 930.00
75.9279 868.00
76.2322 935.00
76.5364 1094.00
76.8407 1174.00
77.145 877.00
77.4492 880.00
77.7535 1024.00
78.0577 1137.00
78.362 921.00
78.6663 959.00
78.9705 1161.00
79.2748 1062.00
79.579 1030.00
79.8833 889.00
80.1876 805.00
80.4918 884.00
80.7961 968.00
81.1003 944.00
81.4046 1036.00
81.7089 908.00
82.0131 1285.00
82.3174 1173.00
82.6217 875.00
82.9259 897.00
83.2302 1084.00
83.5344 1305.00
83.8387 918.00
84.143 800.00
84.4472 795.00
84.7515 890.00
85.0557 891.00
85.36 874.00
85.6643 826.00
85.9685 1265.00
86.2728 1226.00
86.577 819.00
86.8813 807.00
87.1856 916.00
87.4898 995.00
87.7941 875.00
88.0983 896.00
88.4026 831.00
88.7069 1028.00
89.0111 890.00
89.3154 851.00
89.6196 920.00
89.9239 1079.00
90.2282 1086.00
90.5324 894.00
90.8367 980.00
91.1409 1102.00
91.4452 931.00
91.7495 844.00
92.0537 878.00
92.358 943.00
92.6622 1303.00
92.9665 1059.00
93.2708 902.00
93.575 893.00
93.8793 904.00
94.1835 869.00
94.4878 840.00
94.7921 895.00
95.0963 923.00
95.4006 1126.00
95.7048 1118.00
96.0091 969.00
96.3134 954.00
96.6176 1420.00
96.9219 1111.00
97.2261 873.00
97.5304 903.00
97.8347 967.00
98.1389 1191.00
98.4432 1077.00
98.7474 939.00
99.0517 834.00
99.356 1244.00
99.6602 1039.00
99.9645 904.00
100.095 981.00