File: data/xrd_creation/results/PG_1022-1.xy
10.0094 2551.00
10.3137 2375.00
10.618 2354.00
10.9222 2325.00
11.2265 2151.00
11.5307 2168.00
11.835 2114.00
12.1393 2023.00
12.4435 1975.00
12.7478 1948.00
13.052 1958.00
13.3563 1892.00
13.6606 1864.00
13.9648 1796.00
14.2691 1798.00
14.5733 1728.00
14.8776 1705.00
15.1819 1732.00
15.4861 1729.00
15.7904 1674.00
16.0946 1652.00
16.3989 1705.00
16.7032 1638.00
17.0074 1737.00
17.3117 1679.00
17.6159 1666.00
17.9202 1625.00
18.2245 1585.00
18.5287 1516.00
18.833 1504.00
19.1372 1494.00
19.4415 1540.00
19.7458 1600.00
20.05 1489.00
20.3543 1448.00
20.6585 1425.00
20.9628 1375.00
21.2671 1482.00
21.5713 1846.00
21.8756 1357.00
22.1798 1368.00
22.4841 1342.00
22.7884 1360.00
23.0926 1365.00
23.3969 1344.00
23.7011 1406.00
24.0054 1377.00
24.3097 1432.00
24.6139 2031.00
24.9182 1663.00
25.2224 1306.00
25.5267 1315.00
25.831 1236.00
26.1352 1285.00
26.4395 1273.00
26.7438 1159.00
27.048 1304.00
27.3523 1209.00
27.6565 1219.00
27.9608 1201.00
28.2651 1158.00
28.5693 1194.00
28.8736 1195.00
29.1778 1186.00
29.4821 1129.00
29.7864 1358.00
30.0906 1171.00
30.3949 1145.00
30.6991 1355.00
31.0034 1325.00
31.3077 1097.00
31.6119 1087.00
31.9162 1371.00
32.2204 1336.00
32.5247 1115.00
32.829 1131.00
33.1332 1100.00
33.4375 1176.00
33.7417 2614.00
34.046 1717.00
34.3503 1324.00
34.6545 1089.00
34.9588 1053.00
35.263 1074.00
35.5673 1088.00
35.8716 1106.00
36.1758 1386.00
36.4801 4426.00
36.7843 1213.00
37.0886 1213.00
37.3929 1148.00
37.6971 1093.00
38.0014 1023.00
38.3056 1020.00
38.6099 952.00
38.9142 1030.00
39.2184 1023.00
39.5227 982.00
39.8269 1230.00
40.1312 1244.00
40.4355 1111.00
40.7397 979.00
41.044 1051.00
41.3482 1054.00
41.6525 1786.00
41.9568 1050.00
42.261 1020.00
42.5653 1018.00
42.8695 998.00
43.1738 972.00
43.4781 1003.00
43.7823 1061.00
44.0866 939.00
44.3909 1066.00
44.6951 1017.00
44.9994 960.00
45.3036 1006.00
45.6079 959.00
45.9122 1020.00
46.2164 949.00
46.5207 954.00
46.8249 895.00
47.1292 976.00
47.4335 1022.00
47.7377 866.00
48.042 981.00
48.3462 964.00
48.6505 991.00
48.9548 1127.00
49.259 1052.00
49.5633 983.00
49.8675 1014.00
50.1718 1108.00
50.4761 2504.00
50.7803 1062.00
51.0846 985.00
51.3888 952.00
51.6931 914.00
51.9974 987.00
52.3016 935.00
52.6059 977.00
52.9101 950.00
53.2144 957.00
53.5187 995.00
53.8229 922.00
54.1272 1037.00
54.4314 1018.00
54.7357 1160.00
55.04 3870.00
55.3442 1501.00
55.6485 977.00
55.9527 957.00
56.257 985.00
56.5613 932.00
56.8655 1020.00
57.1698 993.00
57.474 983.00
57.7783 982.00
58.0826 1002.00
58.3868 1050.00
58.6911 1243.00
58.9953 971.00
59.2996 952.00
59.6039 956.00
59.9081 969.00
60.2124 952.00
60.5166 939.00
60.8209 927.00
61.1252 955.00
61.4294 936.00
61.7337 958.00
62.0379 914.00
62.3422 900.00
62.6465 973.00
62.9507 955.00
63.255 1008.00
63.5592 1496.00
63.8635 1611.00
64.1678 951.00
64.472 925.00
64.7763 962.00
65.0806 1107.00
65.3848 2006.00
65.6891 1093.00
65.9933 978.00
66.2976 940.00
66.6019 911.00
66.9061 982.00
67.2104 948.00
67.5146 921.00
67.8189 944.00
68.1232 928.00
68.4274 910.00
68.7317 913.00
69.0359 894.00
69.3402 893.00
69.6445 885.00
69.9487 933.00
70.253 973.00
70.5572 928.00
70.8615 935.00
71.1658 966.00
71.47 944.00
71.7743 967.00
72.0785 964.00
72.3828 921.00
72.6871 977.00
72.9913 1199.00
73.2956 1254.00
73.5998 972.00
73.9041 988.00
74.2084 921.00
74.5126 969.00
74.8169 922.00
75.1211 951.00
75.4254 997.00
75.7297 940.00
76.0339 938.00
76.3382 975.00
76.6424 947.00
76.9467 1074.00
77.251 1126.00
77.5552 1011.00
77.8595 1006.00
78.1637 996.00
78.468 948.00
78.7723 891.00
79.0765 1001.00
79.3808 1042.00
79.685 966.00
79.9893 969.00
80.2936 968.00
80.5978 936.00
80.9021 945.00
81.2063 970.00
81.5106 945.00
81.8149 912.00
82.1191 1020.00
82.4234 1005.00
82.7277 923.00
83.0319 865.00
83.3362 980.00
83.6404 973.00
83.9447 917.00
84.249 1058.00
84.5532 1042.00
84.8575 966.00
85.1617 909.00
85.466 933.00
85.7703 969.00
86.0745 957.00
86.3788 1007.00
86.683 1245.00
86.9873 1045.00
87.2916 958.00
87.5958 965.00
87.9001 949.00
88.2043 899.00
88.5086 919.00
88.8129 901.00
89.1171 945.00
89.4214 886.00
89.7256 942.00
90.0299 969.00
90.3342 1317.00
90.6384 1195.00
90.9427 928.00
91.2469 969.00
91.5512 988.00
91.8555 970.00
92.1597 956.00
92.464 991.00
92.7682 972.00
93.0725 990.00
93.3768 979.00
93.681 997.00
93.9853 955.00
94.2895 949.00
94.5938 909.00
94.8981 997.00
95.2023 1043.00
95.5066 1282.00
95.8108 1207.00
96.1151 963.00
96.4194 1031.00
96.7236 925.00
97.0279 1004.00
97.3321 939.00
97.6364 1016.00
97.9407 955.00
98.2449 936.00
98.5492 994.00
98.8534 1007.00
99.1577 973.00
99.462 925.00
99.7662 961.00
99.9944 915.00