File: data/xrd_creation/results/PG_1521-1.xy
10.0094 2326.00
10.3137 2235.00
10.618 2157.00
10.9222 2145.00
11.2265 2031.00
11.5307 1971.00
11.835 1866.00
12.1393 1849.00
12.4435 1710.00
12.7478 1671.00
13.052 1677.00
13.3563 1604.00
13.6606 1562.00
13.9648 1612.00
14.2691 1558.00
14.5733 1547.00
14.8776 1500.00
15.1819 1543.00
15.4861 1917.00
15.7904 4823.00
16.0946 4994.00
16.3989 1772.00
16.7032 1450.00
17.0074 1330.00
17.3117 1280.00
17.6159 1223.00
17.9202 1254.00
18.2245 1148.00
18.5287 1223.00
18.833 1226.00
19.1372 1407.00
19.4415 1157.00
19.7458 1092.00
20.05 1110.00
20.3543 1030.00
20.6585 1013.00
20.9628 1029.00
21.2671 1008.00
21.5713 942.00
21.8756 1015.00
22.1798 1009.00
22.4841 931.00
22.7884 924.00
23.0926 884.00
23.3969 936.00
23.7011 899.00
24.0054 831.00
24.3097 875.00
24.6139 840.00
24.9182 765.00
25.2224 822.00
25.5267 786.00
25.831 837.00
26.1352 818.00
26.4395 814.00
26.7438 915.00
27.048 1081.00
27.3523 2309.00
27.6565 6891.00
27.9608 2276.00
28.2651 10121.00
28.5693 2106.00
28.8736 1023.00
29.1778 836.00
29.4821 879.00
29.7864 875.00
30.0906 951.00
30.3949 1511.00
30.6991 2143.00
31.0034 1169.00
31.3077 912.00
31.6119 1237.00
31.9162 3426.00
32.2204 1571.00
32.5247 875.00
32.829 696.00
33.1332 698.00
33.4375 629.00
33.7417 831.00
34.046 687.00
34.3503 624.00
34.6545 658.00
34.9588 651.00
35.263 892.00
35.5673 1508.00
35.8716 820.00
36.1758 964.00
36.4801 891.00
36.7843 593.00
37.0886 587.00
37.3929 647.00
37.6971 835.00
38.0014 655.00
38.3056 732.00
38.6099 1047.00
38.9142 910.00
39.2184 869.00
39.5227 2002.00
39.8269 6472.00
40.1312 1385.00
40.4355 663.00
40.7397 578.00
41.044 489.00
41.3482 480.00
41.6525 507.00
41.9568 555.00
42.261 708.00
42.5653 1554.00
42.8695 705.00
43.1738 606.00
43.4781 575.00
43.7823 443.00
44.0866 459.00
44.3909 485.00
44.6951 488.00
44.9994 535.00
45.3036 458.00
45.6079 509.00
45.9122 556.00
46.2164 606.00
46.5207 502.00
46.8249 499.00
47.1292 678.00
47.4335 1449.00
47.7377 686.00
48.042 714.00
48.3462 1632.00
48.6505 3058.00
48.9548 5555.00
49.259 1756.00
49.5633 726.00
49.8675 643.00
50.1718 1092.00
50.4761 679.00
50.7803 455.00
51.0846 470.00
51.3888 442.00
51.6931 399.00
51.9974 393.00
52.3016 354.00
52.6059 391.00
52.9101 362.00
53.2144 375.00
53.5187 359.00
53.8229 347.00
54.1272 380.00
54.4314 424.00
54.7357 480.00
55.04 497.00
55.3442 837.00
55.6485 1584.00
55.9527 628.00
56.257 571.00
56.5613 1098.00
56.8655 669.00
57.1698 485.00
57.474 433.00
57.7783 666.00
58.0826 902.00
58.3868 578.00
58.6911 481.00
58.9953 709.00
59.2996 682.00
59.6039 471.00
59.9081 438.00
60.2124 498.00
60.5166 503.00
60.8209 498.00
61.1252 537.00
61.4294 482.00
61.7337 405.00
62.0379 376.00
62.3422 359.00
62.6465 390.00
62.9507 472.00
63.255 430.00
63.5592 439.00
63.8635 556.00
64.1678 1324.00
64.472 1398.00
64.7763 1009.00
65.0806 1049.00
65.3848 916.00
65.6891 559.00
65.9933 440.00
66.2976 509.00
66.6019 419.00
66.9061 331.00
67.2104 301.00
67.5146 312.00
67.8189 302.00
68.1232 343.00
68.4274 317.00
68.7317 368.00
69.0359 365.00
69.3402 436.00
69.6445 628.00
69.9487 1274.00
70.253 760.00
70.5572 539.00
70.8615 493.00
71.1658 675.00
71.47 477.00
71.7743 382.00
72.0785 322.00
72.3828 314.00
72.6871 384.00
72.9913 484.00
73.2956 436.00
73.5998 361.00
73.9041 364.00
74.2084 359.00
74.5126 315.00
74.8169 341.00
75.1211 351.00
75.4254 338.00
75.7297 416.00
76.0339 645.00
76.3382 715.00
76.6424 775.00
76.9467 668.00
77.251 791.00
77.5552 1210.00
77.8595 1257.00
78.1637 758.00
78.468 522.00
78.7723 569.00
79.0765 467.00
79.3808 378.00
79.685 301.00
79.9893 310.00
80.2936 281.00
80.5978 303.00
80.9021 289.00
81.2063 283.00
81.5106 281.00
81.8149 304.00
82.1191 334.00
82.4234 512.00
82.7277 577.00
83.0319 414.00
83.3362 318.00
83.6404 307.00
83.9447 284.00
84.249 316.00
84.5532 354.00
84.8575 365.00
85.1617 390.00
85.466 419.00
85.7703 344.00
86.0745 338.00
86.3788 324.00
86.683 272.00
86.9873 290.00
87.2916 295.00
87.5958 260.00
87.9001 298.00
88.2043 333.00
88.5086 393.00
88.8129 611.00
89.1171 678.00
89.4214 519.00
89.7256 397.00
90.0299 382.00
90.3342 560.00
90.6384 611.00
90.9427 491.00
91.2469 436.00
91.5512 444.00
91.8555 424.00
92.1597 398.00
92.464 340.00
92.7682 284.00
93.0725 278.00
93.3768 284.00
93.681 353.00
93.9853 289.00
94.2895 350.00
94.5938 333.00
94.8981 394.00
95.2023 439.00
95.5066 553.00
95.8108 739.00
96.1151 679.00
96.4194 619.00
96.7236 591.00
97.0279 646.00
97.3321 502.00
97.6364 433.00
97.9407 317.00
98.2449 319.00
98.5492 315.00
98.8534 347.00
99.1577 362.00
99.462 329.00
99.7662 293.00
99.9944 308.00