File: data/xrd_creation/results/PG_1522-1.xy
10.0094 2349.00
10.3137 2176.00
10.618 2112.00
10.9222 2146.00
11.2265 2031.00
11.5307 1911.00
11.835 1831.00
12.1393 1782.00
12.4435 1742.00
12.7478 1737.00
13.052 1670.00
13.3563 1635.00
13.6606 1607.00
13.9648 1556.00
14.2691 1555.00
14.5733 1434.00
14.8776 1455.00
15.1819 1481.00
15.4861 1489.00
15.7904 1583.00
16.0946 1668.00
16.3989 1461.00
16.7032 1445.00
17.0074 1320.00
17.3117 1365.00
17.6159 1308.00
17.9202 1264.00
18.2245 1266.00
18.5287 1339.00
18.833 1461.00
19.1372 3172.00
19.4415 1581.00
19.7458 1240.00
20.05 1135.00
20.3543 1145.00
20.6585 1103.00
20.9628 1127.00
21.2671 1174.00
21.5713 4103.00
21.8756 1167.00
22.1798 1085.00
22.4841 1065.00
22.7884 1040.00
23.0926 994.00
23.3969 1094.00
23.7011 1562.00
24.0054 1017.00
24.3097 1166.00
24.6139 1250.00
24.9182 1026.00
25.2224 1005.00
25.5267 927.00
25.831 983.00
26.1352 937.00
26.4395 931.00
26.7438 928.00
27.048 944.00
27.3523 935.00
27.6565 908.00
27.9608 955.00
28.2651 915.00
28.5693 965.00
28.8736 1046.00
29.1778 1093.00
29.4821 1318.00
29.7864 2880.00
30.0906 3731.00
30.3949 9626.00
30.6991 13654.00
31.0034 6306.00
31.3077 2757.00
31.6119 3901.00
31.9162 14575.00
32.2204 8113.00
32.5247 2533.00
32.829 1737.00
33.1332 1521.00
33.4375 1892.00
33.7417 3807.00
34.046 2149.00
34.3503 2899.00
34.6545 1618.00
34.9588 2048.00
35.263 5731.00
35.5673 12371.00
35.8716 3004.00
36.1758 1904.00
36.4801 1962.00
36.7843 1531.00
37.0886 2132.00
37.3929 3401.00
37.6971 4948.00
38.0014 2366.00
38.3056 2928.00
38.6099 7430.00
38.9142 3687.00
39.2184 1603.00
39.5227 1147.00
39.8269 2058.00
40.1312 1151.00
40.4355 842.00
40.7397 830.00
41.044 749.00
41.3482 764.00
41.6525 714.00
41.9568 770.00
42.261 798.00
42.5653 888.00
42.8695 1276.00
43.1738 2091.00
43.4781 1774.00
43.7823 1280.00
44.0866 868.00
44.3909 826.00
44.6951 1030.00
44.9994 1452.00
45.3036 1109.00
45.6079 1209.00
45.9122 2564.00
46.2164 2735.00
46.5207 1159.00
46.8249 827.00
47.1292 786.00
47.4335 751.00
47.7377 763.00
48.042 781.00
48.3462 1159.00
48.6505 1896.00
48.9548 3264.00
49.259 1352.00
49.5633 1072.00
49.8675 1405.00
50.1718 832.00
50.4761 819.00
50.7803 873.00
51.0846 1104.00
51.3888 882.00
51.6931 626.00
51.9974 657.00
52.3016 658.00
52.6059 699.00
52.9101 698.00
53.2144 659.00
53.5187 650.00
53.8229 644.00
54.1272 714.00
54.4314 870.00
54.7357 1305.00
55.04 987.00
55.3442 738.00
55.6485 658.00
55.9527 671.00
56.257 748.00
56.5613 834.00
56.8655 959.00
57.1698 1150.00
57.474 1433.00
57.7783 3463.00
58.0826 2900.00
58.3868 1411.00
58.6911 1138.00
58.9953 1260.00
59.2996 2395.00
59.6039 1656.00
59.9081 2182.00
60.2124 3012.00
60.5166 2445.00
60.8209 2512.00
61.1252 3290.00
61.4294 2598.00
61.7337 1459.00
62.0379 1017.00
62.3422 1058.00
62.6465 1326.00
62.9507 1999.00
63.255 1374.00
63.5592 1221.00
63.8635 1495.00
64.1678 2579.00
64.472 4106.00
64.7763 6897.00
65.0806 6016.00
65.3848 1983.00
65.6891 1284.00
65.9933 778.00
66.2976 732.00
66.6019 741.00
66.9061 704.00
67.2104 649.00
67.5146 748.00
67.8189 722.00
68.1232 660.00
68.4274 653.00
68.7317 734.00
69.0359 957.00
69.3402 1390.00
69.6445 1939.00
69.9487 1772.00
70.253 1465.00
70.5572 1813.00
70.8615 1481.00
71.1658 988.00
71.47 808.00
71.7743 687.00
72.0785 793.00
72.3828 925.00
72.6871 1335.00
72.9913 1020.00
73.2956 756.00
73.5998 785.00
73.9041 1268.00
74.2084 1300.00
74.5126 817.00
74.8169 727.00
75.1211 710.00
75.4254 642.00
75.7297 584.00
76.0339 524.00
76.3382 571.00
76.6424 570.00
76.9467 618.00
77.251 579.00
77.5552 604.00
77.8595 691.00
78.1637 767.00
78.468 743.00
78.7723 727.00
79.0765 769.00
79.3808 685.00
79.685 579.00
79.9893 548.00
80.2936 518.00
80.5978 527.00
80.9021 536.00
81.2063 484.00
81.5106 475.00
81.8149 504.00
82.1191 684.00
82.4234 795.00
82.7277 712.00
83.0319 559.00
83.3362 591.00
83.6404 664.00
83.9447 705.00
84.249 853.00
84.5532 1174.00
84.8575 965.00
85.1617 732.00
85.466 786.00
85.7703 792.00
86.0745 768.00
86.3788 786.00
86.683 627.00
86.9873 550.00
87.2916 519.00
87.5958 485.00
87.9001 517.00
88.2043 524.00
88.5086 556.00
88.8129 687.00
89.1171 786.00
89.4214 834.00
89.7256 695.00
90.0299 758.00
90.3342 852.00
90.6384 801.00
90.9427 796.00
91.2469 1043.00
91.5512 1240.00
91.8555 1113.00
92.1597 827.00
92.464 767.00
92.7682 733.00
93.0725 799.00
93.3768 764.00
93.681 812.00
93.9853 839.00
94.2895 928.00
94.5938 1158.00
94.8981 1149.00
95.2023 1110.00
95.5066 1088.00
95.8108 1163.00
96.1151 1357.00
96.4194 1521.00
96.7236 1345.00
97.0279 985.00
97.3321 742.00
97.6364 704.00
97.9407 658.00
98.2449 752.00
98.5492 836.00
98.8534 881.00
99.1577 996.00
99.462 875.00
99.7662 773.00
99.9944 702.00