File: data/xrd_creation/results/PG_1739-1.xy
9.903433 2488.00
10.2077 2469.00
10.512 2229.00
10.8162 2152.00
11.1205 2079.00
11.4247 1926.00
11.729 1944.00
12.0333 1814.00
12.3375 1896.00
12.6418 1843.00
12.946 1767.00
13.2503 1699.00
13.5546 1596.00
13.8588 1631.00
14.1631 1546.00
14.4673 1589.00
14.7716 1539.00
15.0759 1441.00
15.3801 1473.00
15.6844 1433.00
15.9886 1447.00
16.2929 1418.00
16.5972 1363.00
16.9014 1393.00
17.2057 1361.00
17.5099 1448.00
17.8142 1476.00
18.1185 1320.00
18.4227 1245.00
18.727 1257.00
19.0312 1208.00
19.3355 1199.00
19.6398 1219.00
19.944 1165.00
20.2483 1244.00
20.5525 1286.00
20.8568 1164.00
21.1611 1194.00
21.4653 1121.00
21.7696 1111.00
22.0738 1133.00
22.3781 1122.00
22.6824 1094.00
22.9866 1098.00
23.2909 1141.00
23.5951 1118.00
23.8994 1153.00
24.2037 1740.00
24.5079 1720.00
24.8122 1795.00
25.1164 1077.00
25.4207 1080.00
25.725 1075.00
26.0292 976.00
26.3335 986.00
26.6378 1066.00
26.942 980.00
27.2463 965.00
27.5505 1105.00
27.8548 1202.00
28.1591 1903.00
28.4633 8204.00
28.7676 2015.00
29.0718 1189.00
29.3761 1007.00
29.6804 968.00
29.9846 959.00
30.2889 937.00
30.5931 932.00
30.8974 975.00
31.2017 1147.00
31.5059 2079.00
31.8102 7110.00
32.1144 1565.00
32.4187 1058.00
32.723 892.00
33.0272 957.00
33.3315 974.00
33.6357 958.00
33.94 1024.00
34.2443 1631.00
34.5485 3113.00
34.8528 2538.00
35.157 1058.00
35.4613 1672.00
35.7656 2356.00
36.0698 1341.00
36.3741 1215.00
36.6783 874.00
36.9826 926.00
37.2869 1827.00
37.5911 1188.00
37.8954 892.00
38.1996 861.00
38.5039 878.00
38.8082 1362.00
39.1124 1293.00
39.4167 895.00
39.7209 895.00
40.0252 864.00
40.3295 945.00
40.6337 946.00
40.938 1512.00
41.2422 1811.00
41.5465 1369.00
41.8508 1208.00
42.155 905.00
42.4593 803.00
42.7635 856.00
43.0678 956.00
43.3721 3236.00
43.6763 1176.00
43.9806 853.00
44.2849 854.00
44.5891 893.00
44.8934 901.00
45.1976 1268.00
45.5019 1008.00
45.8062 1485.00
46.1104 1143.00
46.4147 850.00
46.7189 902.00
47.0232 802.00
47.3275 849.00
47.6317 851.00
47.936 834.00
48.2402 868.00
48.5445 855.00
48.8488 914.00
49.153 1010.00
49.4573 1469.00
49.7615 2726.00
50.0658 1122.00
50.3701 1604.00
50.6743 3071.00
50.9786 2298.00
51.2828 1202.00
51.5871 1329.00
51.8914 1053.00
52.1956 893.00
52.4999 902.00
52.8041 940.00
53.1084 851.00
53.4127 944.00
53.7169 896.00
54.0212 964.00
54.3254 1384.00
54.6297 2053.00
54.934 1070.00
55.2382 1114.00
55.5425 1355.00
55.8467 2940.00
56.151 1796.00
56.4553 1979.00
56.7595 1073.00
57.0638 976.00
57.368 1180.00
57.6723 1969.00
57.9766 1230.00
58.2808 1478.00
58.5851 1672.00
58.8893 1408.00
59.1936 1011.00
59.4979 991.00
59.8021 1022.00
60.1064 1393.00
60.4106 2343.00
60.7149 1518.00
61.0192 1090.00
61.3234 1044.00
61.6277 1350.00
61.932 1729.00
62.2362 1562.00
62.5405 1892.00
62.8447 1824.00
63.149 2325.00
63.4533 2147.00
63.7575 1162.00
64.0618 1102.00
64.366 1115.00
64.6703 1399.00
64.9745 1261.00
65.2788 1038.00
65.5831 1123.00
65.8873 1422.00
66.1916 2121.00
66.4959 1639.00
66.8001 1078.00
67.1044 966.00
67.4086 983.00
67.7129 979.00
68.0172 1000.00
68.3214 955.00
68.6257 949.00
68.9299 1006.00
69.2342 1012.00
69.5385 1390.00
69.8427 1112.00
70.147 1109.00
70.4512 1030.00
70.7555 1037.00
71.0598 1082.00
71.364 1111.00
71.6683 1687.00
71.9725 1427.00
72.2768 1100.00
72.5811 1306.00
72.8853 1268.00
73.1896 1351.00
73.4938 1166.00
73.7981 1030.00
74.1024 1119.00
74.4066 1067.00
74.7109 1008.00
75.0151 1198.00
75.3194 1541.00
75.6237 1958.00
75.9279 1578.00
76.2322 1135.00
76.5364 1122.00
76.8407 1200.00
77.145 1360.00
77.4492 1191.00
77.7535 1138.00
78.0577 1371.00
78.362 1324.00
78.6663 1229.00
78.9705 1223.00
79.2748 1336.00
79.579 1893.00
79.8833 1345.00
80.1876 1114.00
80.4918 1118.00
80.7961 1145.00
81.1003 1162.00
81.4046 1141.00
81.7089 1160.00
82.0131 1378.00
82.3174 1423.00
82.6217 1197.00
82.9259 1219.00
83.2302 1474.00
83.5344 1458.00
83.8387 1613.00
84.143 1445.00
84.4472 1455.00
84.7515 1690.00
85.0557 1434.00
85.36 1283.00
85.6643 1385.00
85.9685 1278.00
86.2728 1106.00
86.577 1248.00
86.8813 1358.00
87.1856 1134.00
87.4898 1173.00
87.7941 1239.00
88.0983 1463.00
88.4026 1431.00
88.7069 1449.00
89.0111 1576.00
89.3154 1641.00
89.6196 1367.00
89.9239 1313.00
90.2282 1423.00
90.5324 1567.00
90.8367 1487.00
91.1409 1260.00
91.4452 1303.00
91.7495 1275.00
92.0537 1312.00
92.358 1267.00
92.6622 1187.00
92.9665 1210.00
93.2708 1193.00
93.575 1186.00
93.8793 1270.00
94.1835 1200.00
94.4878 1549.00
94.7921 1455.00
95.0963 1474.00
95.4006 1518.00
95.7048 1548.00
96.0091 1599.00
96.3134 1412.00
96.6176 1398.00
96.9219 1601.00
97.2261 1795.00
97.5304 1837.00
97.8347 1743.00
98.1389 1510.00
98.4432 1337.00
98.7474 1426.00
99.0517 1459.00
99.356 1543.00
99.6602 1583.00
99.9645 1691.00
100.095 1740.00