File: data/xrd_creation/results/PG_1222-1.xy
10.0094 5411.00
10.3137 5558.00
10.618 5450.00
10.9222 5566.00
11.2265 5447.00
11.5307 5560.00
11.835 5528.00
12.1393 5389.00
12.4435 5593.00
12.7478 5473.00
13.052 5585.00
13.3563 5639.00
13.6606 5526.00
13.9648 5624.00
14.2691 5543.00
14.5733 5611.00
14.8776 5731.00
15.1819 5766.00
15.4861 5899.00
15.7904 5747.00
16.0946 5783.00
16.3989 5687.00
16.7032 5858.00
17.0074 5721.00
17.3117 5970.00
17.6159 5797.00
17.9202 5866.00
18.2245 6072.00
18.5287 5922.00
18.833 6286.00
19.1372 5822.00
19.4415 6062.00
19.7458 6013.00
20.05 6002.00
20.3543 6043.00
20.6585 6046.00
20.9628 5977.00
21.2671 6166.00
21.5713 6398.00
21.8756 6273.00
22.1798 6146.00
22.4841 6049.00
22.7884 6121.00
23.0926 6209.00
23.3969 6289.00
23.7011 6247.00
24.0054 6306.00
24.3097 6596.00
24.6139 6282.00
24.9182 6129.00
25.2224 6075.00
25.5267 6183.00
25.831 6288.00
26.1352 6344.00
26.4395 6360.00
26.7438 6284.00
27.048 6277.00
27.3523 6101.00
27.6565 6280.00
27.9608 6159.00
28.2651 6133.00
28.5693 6175.00
28.8736 6088.00
29.1778 6158.00
29.4821 6130.00
29.7864 6268.00
30.0906 6246.00
30.3949 6444.00
30.6991 10452.00
31.0034 6982.00
31.3077 6154.00
31.6119 6283.00
31.9162 6434.00
32.2204 8578.00
32.5247 6415.00
32.829 6257.00
33.1332 6200.00
33.4375 6181.00
33.7417 6259.00
34.046 6375.00
34.3503 6420.00
34.6545 6428.00
34.9588 6345.00
35.263 6190.00
35.5673 6335.00
35.8716 7669.00
36.1758 12294.00
36.4801 7462.00
36.7843 6354.00
37.0886 6316.00
37.3929 6732.00
37.6971 6457.00
38.0014 6201.00
38.3056 6195.00
38.6099 6129.00
38.9142 6258.00
39.2184 6271.00
39.5227 6183.00
39.8269 6327.00
40.1312 6209.00
40.4355 6113.00
40.7397 6139.00
41.044 6242.00
41.3482 6217.00
41.6525 6224.00
41.9568 6097.00
42.261 6066.00
42.5653 6070.00
42.8695 6157.00
43.1738 6200.00
43.4781 6153.00
43.7823 7963.00
44.0866 6288.00
44.3909 6225.00
44.6951 6064.00
44.9994 6046.00
45.3036 6120.00
45.6079 6237.00
45.9122 6087.00
46.2164 6083.00
46.5207 6260.00
46.8249 6155.00
47.1292 6152.00
47.4335 6068.00
47.7377 6214.00
48.042 6158.00
48.3462 6254.00
48.6505 6131.00
48.9548 6249.00
49.259 6311.00
49.5633 6173.00
49.8675 6191.00
50.1718 6278.00
50.4761 6284.00
50.7803 6190.00
51.0846 6099.00
51.3888 6145.00
51.6931 6031.00
51.9974 6244.00
52.3016 6246.00
52.6059 6169.00
52.9101 6081.00
53.2144 6253.00
53.5187 6084.00
53.8229 6024.00
54.1272 7454.00
54.4314 6407.00
54.7357 6158.00
55.04 6097.00
55.3442 6190.00
55.6485 6098.00
55.9527 6221.00
56.257 6242.00
56.5613 6180.00
56.8655 6259.00
57.1698 6367.00
57.474 6417.00
57.7783 8156.00
58.0826 6479.00
58.3868 6336.00
58.6911 6324.00
58.9953 6269.00
59.2996 6302.00
59.6039 6215.00
59.9081 6210.00
60.2124 6273.00
60.5166 6209.00
60.8209 6231.00
61.1252 6235.00
61.4294 6157.00
61.7337 6259.00
62.0379 6151.00
62.3422 6254.00
62.6465 6369.00
62.9507 6384.00
63.255 9317.00
63.5592 7473.00
63.8635 6338.00
64.1678 6344.00
64.472 6224.00
64.7763 6127.00
65.0806 6178.00
65.3848 6185.00
65.6891 6202.00
65.9933 6315.00
66.2976 6208.00
66.6019 6294.00
66.9061 6214.00
67.2104 6161.00
67.5146 6326.00
67.8189 6092.00
68.1232 6068.00
68.4274 6204.00
68.7317 6288.00
69.0359 6256.00
69.3402 6247.00
69.6445 6273.00
69.9487 6360.00
70.253 6189.00
70.5572 6217.00
70.8615 6283.00
71.1658 6323.00
71.47 6213.00
71.7743 6774.00
72.0785 6456.00
72.3828 6292.00
72.6871 6263.00
72.9913 6296.00
73.2956 6228.00
73.5998 6363.00
73.9041 6313.00
74.2084 6348.00
74.5126 6350.00
74.8169 7113.00
75.1211 6344.00
75.4254 6282.00
75.7297 6170.00
76.0339 6314.00
76.3382 6313.00
76.6424 6376.00
76.9467 6421.00
77.251 6024.00
77.5552 6254.00
77.8595 6187.00
78.1637 5994.00
78.468 6317.00
78.7723 6208.00
79.0765 6243.00
79.3808 6152.00
79.685 6351.00
79.9893 6355.00
80.2936 6188.00
80.5978 6070.00
80.9021 6374.00
81.2063 6196.00
81.5106 6296.00
81.8149 6254.00
82.1191 6270.00
82.4234 6167.00
82.7277 6296.00
83.0319 6276.00
83.3362 6187.00
83.6404 6344.00
83.9447 6313.00
84.249 6364.00
84.5532 6192.00
84.8575 6194.00
85.1617 6316.00
85.466 6357.00
85.7703 6285.00
86.0745 6269.00
86.3788 6246.00
86.683 6218.00
86.9873 6125.00
87.2916 6278.00
87.5958 6347.00
87.9001 6375.00
88.2043 6274.00
88.5086 6155.00
88.8129 6216.00
89.1171 6256.00
89.4214 6330.00
89.7256 6355.00
90.0299 6268.00
90.3342 6280.00
90.6384 6998.00
90.9427 6627.00
91.2469 6335.00
91.5512 6327.00
91.8555 6254.00
92.1597 6339.00
92.464 6250.00
92.7682 6329.00
93.0725 6332.00
93.3768 6196.00
93.681 6360.00
93.9853 6152.00
94.2895 6386.00
94.5938 6265.00
94.8981 6295.00
95.2023 6297.00
95.5066 6581.00
95.8108 6426.00
96.1151 6407.00
96.4194 6421.00
96.7236 6178.00
97.0279 6161.00
97.3321 6276.00
97.6364 6378.00
97.9407 6364.00
98.2449 6499.00
98.5492 6353.00
98.8534 6312.00
99.1577 6192.00
99.462 6205.00
99.7662 6260.00
99.9944 6229.00