File: data/xrd_creation/results/PG_1839-1.xy
9.903433 2569.00
10.2077 2570.00
10.512 2497.00
10.8162 2426.00
11.1205 2354.00
11.4247 2244.00
11.729 2204.00
12.0333 2124.00
12.3375 2044.00
12.6418 1922.00
12.946 1996.00
13.2503 1884.00
13.5546 1769.00
13.8588 1858.00
14.1631 1774.00
14.4673 1694.00
14.7716 1762.00
15.0759 1722.00
15.3801 1591.00
15.6844 1675.00
15.9886 1670.00
16.2929 1611.00
16.5972 1588.00
16.9014 1625.00
17.2057 1564.00
17.5099 1592.00
17.8142 1557.00
18.1185 1586.00
18.4227 1561.00
18.727 1452.00
19.0312 1509.00
19.3355 1444.00
19.6398 1427.00
19.944 1475.00
20.2483 1414.00
20.5525 1395.00
20.8568 1473.00
21.1611 1420.00
21.4653 1615.00
21.7696 2418.00
22.0738 1331.00
22.3781 1294.00
22.6824 1291.00
22.9866 1361.00
23.2909 1258.00
23.5951 1331.00
23.8994 1278.00
24.2037 1237.00
24.5079 1297.00
24.8122 1266.00
25.1164 1236.00
25.4207 1280.00
25.725 1299.00
26.0292 1206.00
26.3335 1249.00
26.6378 1192.00
26.942 1180.00
27.2463 1180.00
27.5505 1210.00
27.8548 1216.00
28.1591 1130.00
28.4633 1150.00
28.7676 1152.00
29.0718 1113.00
29.3761 1158.00
29.6804 1151.00
29.9846 1264.00
30.2889 1392.00
30.5931 4430.00
30.8974 13228.00
31.2017 1528.00
31.5059 1216.00
31.8102 1184.00
32.1144 1143.00
32.4187 1137.00
32.723 1118.00
33.0272 1075.00
33.3315 1238.00
33.6357 1041.00
33.94 1070.00
34.2443 1071.00
34.5485 1150.00
34.8528 1206.00
35.157 1106.00
35.4613 2034.00
35.7656 5031.00
36.0698 1227.00
36.3741 1081.00
36.6783 1067.00
36.9826 1095.00
37.2869 1607.00
37.5911 2598.00
37.8954 1673.00
38.1996 1062.00
38.5039 1032.00
38.8082 1031.00
39.1124 1019.00
39.4167 1060.00
39.7209 1059.00
40.0252 1121.00
40.3295 1095.00
40.6337 1096.00
40.938 1035.00
41.2422 1034.00
41.5465 1041.00
41.8508 1201.00
42.155 1559.00
42.4593 1067.00
42.7635 1012.00
43.0678 1136.00
43.3721 2345.00
43.6763 2864.00
43.9806 1135.00
44.2849 1016.00
44.5891 987.00
44.8934 1035.00
45.1976 1024.00
45.5019 1096.00
45.8062 1771.00
46.1104 1522.00
46.4147 1014.00
46.7189 976.00
47.0232 1000.00
47.3275 1059.00
47.6317 1007.00
47.936 948.00
48.2402 939.00
48.5445 959.00
48.8488 1004.00
49.153 1018.00
49.4573 1257.00
49.7615 1058.00
50.0658 972.00
50.3701 988.00
50.6743 1059.00
50.9786 1870.00
51.2828 6647.00
51.5871 1325.00
51.8914 1119.00
52.1956 1030.00
52.4999 930.00
52.8041 1141.00
53.1084 1157.00
53.4127 1027.00
53.7169 991.00
54.0212 1039.00
54.3254 949.00
54.6297 1029.00
54.934 998.00
55.2382 1000.00
55.5425 999.00
55.8467 1037.00
56.151 1487.00
56.4553 1226.00
56.7595 967.00
57.0638 974.00
57.368 984.00
57.6723 1098.00
57.9766 1075.00
58.2808 958.00
58.5851 988.00
58.8893 1073.00
59.1936 1275.00
59.4979 1326.00
59.8021 1059.00
60.1064 1024.00
60.4106 1173.00
60.7149 2507.00
61.0192 3106.00
61.3234 1244.00
61.6277 1105.00
61.932 1051.00
62.2362 1414.00
62.5405 1477.00
62.8447 1452.00
63.149 2599.00
63.4533 1166.00
63.7575 1385.00
64.0618 1378.00
64.366 1061.00
64.6703 1037.00
64.9745 1018.00
65.2788 1151.00
65.5831 1137.00
65.8873 991.00
66.1916 986.00
66.4959 1022.00
66.8001 1172.00
67.1044 1017.00
67.4086 991.00
67.7129 1055.00
68.0172 1125.00
68.3214 1354.00
68.6257 1076.00
68.9299 1022.00
69.2342 984.00
69.5385 1083.00
69.8427 1100.00
70.147 1008.00
70.4512 985.00
70.7555 1031.00
71.0598 1003.00
71.364 1015.00
71.6683 942.00
71.9725 933.00
72.2768 1013.00
72.5811 1017.00
72.8853 983.00
73.1896 980.00
73.4938 1011.00
73.7981 1208.00
74.1024 1145.00
74.4066 983.00
74.7109 1035.00
75.0151 1144.00
75.3194 1509.00
75.6237 1718.00
75.9279 1276.00
76.2322 1094.00
76.5364 1309.00
76.8407 1265.00
77.145 1045.00
77.4492 1029.00
77.7535 1090.00
78.0577 1242.00
78.362 1032.00
78.6663 1045.00
78.9705 1058.00
79.2748 1276.00
79.579 1683.00
79.8833 1276.00
80.1876 1005.00
80.4918 1082.00
80.7961 1189.00
81.1003 1054.00
81.4046 1049.00
81.7089 1070.00
82.0131 1544.00
82.3174 1205.00
82.6217 1048.00
82.9259 1134.00
83.2302 1597.00
83.5344 1468.00
83.8387 1113.00
84.143 1066.00
84.4472 1045.00
84.7515 1045.00
85.0557 1028.00
85.36 1081.00
85.6643 1191.00
85.9685 1668.00
86.2728 1477.00
86.577 1016.00
86.8813 1105.00
87.1856 1085.00
87.4898 1110.00
87.7941 1019.00
88.0983 1083.00
88.4026 1098.00
88.7069 1211.00
89.0111 1110.00
89.3154 1079.00
89.6196 1098.00
89.9239 1283.00
90.2282 1216.00
90.5324 1049.00
90.8367 1039.00
91.1409 1019.00
91.4452 1124.00
91.7495 1085.00
92.0537 1078.00
92.358 1087.00
92.6622 1389.00
92.9665 1287.00
93.2708 1102.00
93.575 1082.00
93.8793 1036.00
94.1835 1057.00
94.4878 1093.00
94.7921 1092.00
95.0963 1237.00
95.4006 1402.00
95.7048 1241.00
96.0091 1079.00
96.3134 1161.00
96.6176 1593.00
96.9219 1373.00
97.2261 1152.00
97.5304 1175.00
97.8347 1315.00
98.1389 1250.00
98.4432 1155.00
98.7474 1154.00
99.0517 1138.00
99.356 1280.00
99.6602 1192.00
99.9645 1123.00
100.095 1101.00