File: data/xrd_creation/results/PG_1420-1.xy
10.0094 4508.00
10.3137 4491.00
10.618 4431.00
10.9222 4576.00
11.2265 4389.00
11.5307 4298.00
11.835 4245.00
12.1393 4073.00
12.4435 4180.00
12.7478 4239.00
13.052 4111.00
13.3563 4243.00
13.6606 4081.00
13.9648 4120.00
14.2691 4097.00
14.5733 4043.00
14.8776 4051.00
15.1819 3977.00
15.4861 4029.00
15.7904 3889.00
16.0946 4047.00
16.3989 3847.00
16.7032 3934.00
17.0074 3979.00
17.3117 4130.00
17.6159 4940.00
17.9202 4010.00
18.2245 4367.00
18.5287 5226.00
18.833 6577.00
19.1372 5945.00
19.4415 3965.00
19.7458 3826.00
20.05 3718.00
20.3543 3775.00
20.6585 3716.00
20.9628 3816.00
21.2671 3799.00
21.5713 3857.00
21.8756 3621.00
22.1798 3649.00
22.4841 3748.00
22.7884 3945.00
23.0926 4110.00
23.3969 3963.00
23.7011 3981.00
24.0054 6147.00
24.3097 4402.00
24.6139 3953.00
24.9182 4295.00
25.2224 3851.00
25.5267 3592.00
25.831 3625.00
26.1352 3590.00
26.4395 3632.00
26.7438 3538.00
27.048 3647.00
27.3523 3511.00
27.6565 3532.00
27.9608 3532.00
28.2651 3546.00
28.5693 3619.00
28.8736 3419.00
29.1778 3524.00
29.4821 3561.00
29.7864 4050.00
30.0906 4873.00
30.3949 3561.00
30.6991 3663.00
31.0034 12135.00
31.3077 3552.00
31.6119 3425.00
31.9162 3348.00
32.2204 3381.00
32.5247 3458.00
32.829 3295.00
33.1332 3389.00
33.4375 3370.00
33.7417 3491.00
34.046 4294.00
34.3503 4950.00
34.6545 4003.00
34.9588 3346.00
35.263 3394.00
35.5673 3654.00
35.8716 3295.00
36.1758 3350.00
36.4801 3303.00
36.7843 3408.00
37.0886 3289.00
37.3929 3415.00
37.6971 3470.00
38.0014 3411.00
38.3056 3391.00
38.6099 3857.00
38.9142 3389.00
39.2184 3249.00
39.5227 3266.00
39.8269 3287.00
40.1312 3539.00
40.4355 3283.00
40.7397 3396.00
41.044 3370.00
41.3482 3251.00
41.6525 3242.00
41.9568 3182.00
42.261 3239.00
42.5653 3238.00
42.8695 3434.00
43.1738 3385.00
43.4781 3229.00
43.7823 3268.00
44.0866 3122.00
44.3909 3386.00
44.6951 3468.00
44.9994 3538.00
45.3036 3281.00
45.6079 3405.00
45.9122 3584.00
46.2164 3441.00
46.5207 3521.00
46.8249 5503.00
47.1292 3453.00
47.4335 3278.00
47.7377 3301.00
48.042 3434.00
48.3462 3555.00
48.6505 3352.00
48.9548 3239.00
49.259 3297.00
49.5633 3325.00
49.8675 3243.00
50.1718 3264.00
50.4761 3728.00
50.7803 3254.00
51.0846 3216.00
51.3888 3241.00
51.6931 3222.00
51.9974 3233.00
52.3016 3144.00
52.6059 3214.00
52.9101 3118.00
53.2144 3242.00
53.5187 3167.00
53.8229 3054.00
54.1272 3158.00
54.4314 3166.00
54.7357 3256.00
55.04 3194.00
55.3442 3685.00
55.6485 3164.00
55.9527 3031.00
56.257 3082.00
56.5613 3228.00
56.8655 3195.00
57.1698 3138.00
57.474 3256.00
57.7783 3173.00
58.0826 3245.00
58.3868 3339.00
58.6911 3489.00
58.9953 3597.00
59.2996 3278.00
59.6039 3130.00
59.9081 3195.00
60.2124 3258.00
60.5166 3144.00
60.8209 3173.00
61.1252 3226.00
61.4294 3146.00
61.7337 3145.00
62.0379 3212.00
62.3422 3169.00
62.6465 3067.00
62.9507 3075.00
63.255 3169.00
63.5592 3130.00
63.8635 3172.00
64.1678 3448.00
64.472 3118.00
64.7763 3141.00
65.0806 3223.00
65.3848 3054.00
65.6891 3101.00
65.9933 3246.00
66.2976 3059.00
66.6019 3064.00
66.9061 3034.00
67.2104 3029.00
67.5146 3065.00
67.8189 3100.00
68.1232 3057.00
68.4274 3134.00
68.7317 3048.00
69.0359 3177.00
69.3402 3134.00
69.6445 3170.00
69.9487 3731.00
70.253 3201.00
70.5572 3001.00
70.8615 3019.00
71.1658 3031.00
71.47 3077.00
71.7743 3331.00
72.0785 3133.00
72.3828 3091.00
72.6871 3134.00
72.9913 2973.00
73.2956 3094.00
73.5998 3070.00
73.9041 3161.00
74.2084 3136.00
74.5126 3041.00
74.8169 3171.00
75.1211 2964.00
75.4254 3032.00
75.7297 2999.00
76.0339 3041.00
76.3382 3014.00
76.6424 3134.00
76.9467 3171.00
77.251 3061.00
77.5552 3066.00
77.8595 3066.00
78.1637 3081.00
78.468 2949.00
78.7723 3018.00
79.0765 3028.00
79.3808 3212.00
79.685 3545.00
79.9893 3373.00
80.2936 3306.00
80.5978 3080.00
80.9021 3143.00
81.2063 3031.00
81.5106 3184.00
81.8149 3302.00
82.1191 3201.00
82.4234 3118.00
82.7277 3062.00
83.0319 3007.00
83.3362 3078.00
83.6404 2998.00
83.9447 3020.00
84.249 2968.00
84.5532 2984.00
84.8575 3010.00
85.1617 2991.00
85.466 3068.00
85.7703 3052.00
86.0745 2939.00
86.3788 3049.00
86.683 3072.00
86.9873 3011.00
87.2916 3115.00
87.5958 2944.00
87.9001 3166.00
88.2043 3053.00
88.5086 3052.00
88.8129 3005.00
89.1171 2938.00
89.4214 3074.00
89.7256 2947.00
90.0299 2954.00
90.3342 2909.00
90.6384 2969.00
90.9427 3085.00
91.2469 3051.00
91.5512 3109.00
91.8555 2970.00
92.1597 2995.00
92.464 2907.00
92.7682 3049.00
93.0725 3059.00
93.3768 2969.00
93.681 3160.00
93.9853 3046.00
94.2895 3167.00
94.5938 2958.00
94.8981 3074.00
95.2023 3120.00
95.5066 3122.00
95.8108 3002.00
96.1151 3089.00
96.4194 3068.00
96.7236 2990.00
97.0279 3016.00
97.3321 3043.00
97.6364 3035.00
97.9407 3053.00
98.2449 2958.00
98.5492 2952.00
98.8534 3073.00
99.1577 3093.00
99.462 3106.00
99.7662 3183.00
99.9944 3193.00