File: data/xrd_creation/results/PG_1944-1.xy
9.903433 2666.00
10.2077 2571.00
10.512 2371.00
10.8162 2359.00
11.1205 2324.00
11.4247 2236.00
11.729 2165.00
12.0333 2178.00
12.3375 2045.00
12.6418 1977.00
12.946 1969.00
13.2503 1957.00
13.5546 1784.00
13.8588 1826.00
14.1631 1721.00
14.4673 1800.00
14.7716 1732.00
15.0759 1750.00
15.3801 1659.00
15.6844 1729.00
15.9886 1609.00
16.2929 1634.00
16.5972 1593.00
16.9014 1535.00
17.2057 1436.00
17.5099 1499.00
17.8142 1381.00
18.1185 1393.00
18.4227 1486.00
18.727 1352.00
19.0312 1295.00
19.3355 1338.00
19.6398 1259.00
19.944 1294.00
20.2483 1208.00
20.5525 1252.00
20.8568 1214.00
21.1611 1193.00
21.4653 1180.00
21.7696 1196.00
22.0738 1155.00
22.3781 1184.00
22.6824 1132.00
22.9866 1130.00
23.2909 1097.00
23.5951 1076.00
23.8994 1088.00
24.2037 1078.00
24.5079 1041.00
24.8122 1014.00
25.1164 1016.00
25.4207 1073.00
25.725 1027.00
26.0292 1238.00
26.3335 1532.00
26.6378 3251.00
26.942 17854.00
27.2463 1887.00
27.5505 1215.00
27.8548 999.00
28.1591 1037.00
28.4633 943.00
28.7676 1040.00
29.0718 911.00
29.3761 860.00
29.6804 883.00
29.9846 1163.00
30.2889 895.00
30.5931 785.00
30.8974 1173.00
31.2017 1259.00
31.5059 863.00
31.8102 995.00
32.1144 943.00
32.4187 1306.00
32.723 1075.00
33.0272 1178.00
33.3315 939.00
33.6357 1200.00
33.94 2911.00
34.2443 13180.00
34.5485 1818.00
34.8528 899.00
35.157 884.00
35.4613 858.00
35.7656 678.00
36.0698 729.00
36.3741 855.00
36.6783 737.00
36.9826 665.00
37.2869 709.00
37.5911 696.00
37.8954 885.00
38.1996 4243.00
38.5039 1330.00
38.8082 923.00
39.1124 1331.00
39.4167 1163.00
39.7209 651.00
40.0252 732.00
40.3295 627.00
40.6337 587.00
40.938 562.00
41.2422 608.00
41.5465 736.00
41.8508 653.00
42.155 575.00
42.4593 549.00
42.7635 552.00
43.0678 660.00
43.3721 526.00
43.6763 632.00
43.9806 503.00
44.2849 480.00
44.5891 492.00
44.8934 483.00
45.1976 593.00
45.5019 471.00
45.8062 465.00
46.1104 462.00
46.4147 498.00
46.7189 502.00
47.0232 436.00
47.3275 435.00
47.6317 641.00
47.936 424.00
48.2402 469.00
48.5445 434.00
48.8488 499.00
49.153 473.00
49.4573 462.00
49.7615 592.00
50.0658 532.00
50.3701 495.00
50.6743 471.00
50.9786 569.00
51.2828 617.00
51.5871 890.00
51.8914 3165.00
52.1956 8584.00
52.4999 1131.00
52.8041 700.00
53.1084 579.00
53.4127 484.00
53.7169 510.00
54.0212 462.00
54.3254 517.00
54.6297 579.00
54.934 1804.00
55.2382 1551.00
55.5425 547.00
55.8467 475.00
56.151 460.00
56.4553 446.00
56.7595 416.00
57.0638 441.00
57.368 464.00
57.6723 581.00
57.9766 893.00
58.2808 1267.00
58.5851 464.00
58.8893 430.00
59.1936 419.00
59.4979 388.00
59.8021 412.00
60.1064 396.00
60.4106 420.00
60.7149 441.00
61.0192 384.00
61.3234 450.00
61.6277 458.00
61.932 720.00
62.2362 2023.00
62.5405 596.00
62.8447 439.00
63.149 465.00
63.4533 395.00
63.7575 397.00
64.0618 425.00
64.366 421.00
64.6703 620.00
64.9745 2685.00
65.2788 1096.00
65.5831 524.00
65.8873 675.00
66.1916 3166.00
66.4959 1446.00
66.8001 496.00
67.1044 399.00
67.4086 409.00
67.7129 362.00
68.0172 387.00
68.3214 348.00
68.6257 388.00
68.9299 342.00
69.2342 364.00
69.5385 350.00
69.8427 391.00
70.147 357.00
70.4512 332.00
70.7555 345.00
71.0598 422.00
71.364 608.00
71.6683 1050.00
71.9725 443.00
72.2768 324.00
72.5811 374.00
72.8853 366.00
73.1896 309.00
73.4938 310.00
73.7981 307.00
74.1024 306.00
74.4066 337.00
74.7109 371.00
75.0151 355.00
75.3194 339.00
75.6237 356.00
75.9279 330.00
76.2322 322.00
76.5364 310.00
76.8407 310.00
77.145 335.00
77.4492 335.00
77.7535 334.00
78.0577 342.00
78.362 373.00
78.6663 549.00
78.9705 2201.00
79.2748 847.00
79.579 429.00
79.8833 351.00
80.1876 323.00
80.4918 350.00
80.7961 369.00
81.1003 413.00
81.4046 930.00
81.7089 466.00
82.0131 351.00
82.3174 304.00
82.6217 331.00
82.9259 324.00
83.2302 311.00
83.5344 356.00
83.8387 1015.00
84.143 947.00
84.4472 458.00
84.7515 322.00
85.0557 334.00
85.36 296.00
85.6643 339.00
85.9685 277.00
86.2728 336.00
86.577 318.00
86.8813 320.00
87.1856 371.00
87.4898 816.00
87.7941 513.00
88.0983 337.00
88.4026 336.00
88.7069 320.00
89.0111 315.00
89.3154 347.00
89.6196 456.00
89.9239 1348.00
90.2282 1072.00
90.5324 557.00
90.8367 540.00
91.1409 1813.00
91.4452 1089.00
91.7495 386.00
92.0537 376.00
92.358 301.00
92.6622 327.00
92.9665 352.00
93.2708 443.00
93.575 856.00
93.8793 575.00
94.1835 343.00
94.4878 331.00
94.7921 318.00
95.0963 280.00
95.4006 337.00
95.7048 339.00
96.0091 474.00
96.3134 656.00
96.6176 489.00
96.9219 314.00
97.2261 286.00
97.5304 280.00
97.8347 264.00
98.1389 261.00
98.4432 283.00
98.7474 287.00
99.0517 284.00
99.356 245.00
99.6602 302.00
99.9645 266.00
100.095 265.00