File: data/xrd_creation/results/PG_1121-1.xy
10.0094 2372.00
10.3137 2295.00
10.618 2261.00
10.9222 2201.00
11.2265 2105.00
11.5307 2044.00
11.835 1995.00
12.1393 1988.00
12.4435 1882.00
12.7478 1872.00
13.052 1802.00
13.3563 1765.00
13.6606 1665.00
13.9648 1680.00
14.2691 1716.00
14.5733 1631.00
14.8776 1690.00
15.1819 1683.00
15.4861 2112.00
15.7904 4731.00
16.0946 3634.00
16.3989 1888.00
16.7032 1671.00
17.0074 1597.00
17.3117 1535.00
17.6159 1549.00
17.9202 1483.00
18.2245 1463.00
18.5287 1356.00
18.833 1417.00
19.1372 1409.00
19.4415 1334.00
19.7458 1282.00
20.05 1267.00
20.3543 1281.00
20.6585 1232.00
20.9628 1296.00
21.2671 1285.00
21.5713 1183.00
21.8756 1199.00
22.1798 1231.00
22.4841 1185.00
22.7884 1225.00
23.0926 1192.00
23.3969 1196.00
23.7011 1157.00
24.0054 1109.00
24.3097 1016.00
24.6139 1128.00
24.9182 1059.00
25.2224 1151.00
25.5267 1122.00
25.831 1096.00
26.1352 1105.00
26.4395 1073.00
26.7438 1128.00
27.048 1284.00
27.3523 2724.00
27.6565 5476.00
27.9608 2448.00
28.2651 9455.00
28.5693 2046.00
28.8736 1268.00
29.1778 1072.00
29.4821 1057.00
29.7864 989.00
30.0906 965.00
30.3949 1025.00
30.6991 946.00
31.0034 980.00
31.3077 994.00
31.6119 1217.00
31.9162 2262.00
32.2204 1090.00
32.5247 967.00
32.829 1088.00
33.1332 921.00
33.4375 930.00
33.7417 861.00
34.046 932.00
34.3503 884.00
34.6545 871.00
34.9588 889.00
35.263 971.00
35.5673 1517.00
35.8716 2496.00
36.1758 1432.00
36.4801 1155.00
36.7843 856.00
37.0886 826.00
37.3929 888.00
37.6971 860.00
38.0014 881.00
38.3056 979.00
38.6099 1163.00
38.9142 2145.00
39.2184 2100.00
39.5227 2572.00
39.8269 6181.00
40.1312 1595.00
40.4355 969.00
40.7397 848.00
41.044 781.00
41.3482 865.00
41.6525 825.00
41.9568 842.00
42.261 1050.00
42.5653 1748.00
42.8695 965.00
43.1738 830.00
43.4781 805.00
43.7823 834.00
44.0866 775.00
44.3909 757.00
44.6951 734.00
44.9994 718.00
45.3036 761.00
45.6079 738.00
45.9122 767.00
46.2164 799.00
46.5207 860.00
46.8249 781.00
47.1292 1028.00
47.4335 1731.00
47.7377 954.00
48.042 1068.00
48.3462 2104.00
48.6505 3131.00
48.9548 5591.00
49.259 2113.00
49.5633 1004.00
49.8675 941.00
50.1718 1470.00
50.4761 968.00
50.7803 819.00
51.0846 732.00
51.3888 723.00
51.6931 734.00
51.9974 656.00
52.3016 743.00
52.6059 734.00
52.9101 704.00
53.2144 746.00
53.5187 751.00
53.8229 820.00
54.1272 738.00
54.4314 723.00
54.7357 727.00
55.04 812.00
55.3442 1239.00
55.6485 1884.00
55.9527 938.00
56.257 956.00
56.5613 1340.00
56.8655 961.00
57.1698 787.00
57.474 774.00
57.7783 825.00
58.0826 1032.00
58.3868 979.00
58.6911 914.00
58.9953 1074.00
59.2996 856.00
59.6039 720.00
59.9081 688.00
60.2124 674.00
60.5166 697.00
60.8209 705.00
61.1252 645.00
61.4294 721.00
61.7337 904.00
62.0379 868.00
62.3422 696.00
62.6465 685.00
62.9507 733.00
63.255 702.00
63.5592 717.00
63.8635 862.00
64.1678 1525.00
64.472 1337.00
64.7763 891.00
65.0806 982.00
65.3848 1061.00
65.6891 907.00
65.9933 969.00
66.2976 968.00
66.6019 977.00
66.9061 822.00
67.2104 717.00
67.5146 711.00
67.8189 751.00
68.1232 910.00
68.4274 889.00
68.7317 773.00
69.0359 680.00
69.3402 767.00
69.6445 938.00
69.9487 1453.00
70.253 1032.00
70.5572 783.00
70.8615 792.00
71.1658 929.00
71.47 764.00
71.7743 681.00
72.0785 676.00
72.3828 705.00
72.6871 822.00
72.9913 853.00
73.2956 744.00
73.5998 689.00
73.9041 646.00
74.2084 708.00
74.5126 692.00
74.8169 710.00
75.1211 812.00
75.4254 817.00
75.7297 799.00
76.0339 1047.00
76.3382 1076.00
76.6424 1106.00
76.9467 1011.00
77.251 1106.00
77.5552 1486.00
77.8595 1598.00
78.1637 1061.00
78.468 912.00
78.7723 916.00
79.0765 826.00
79.3808 658.00
79.685 693.00
79.9893 662.00
80.2936 701.00
80.5978 727.00
80.9021 624.00
81.2063 653.00
81.5106 640.00
81.8149 649.00
82.1191 724.00
82.4234 942.00
82.7277 942.00
83.0319 790.00
83.3362 740.00
83.6404 725.00
83.9447 727.00
84.249 677.00
84.5532 635.00
84.8575 722.00
85.1617 746.00
85.466 738.00
85.7703 705.00
86.0745 686.00
86.3788 710.00
86.683 698.00
86.9873 614.00
87.2916 645.00
87.5958 661.00
87.9001 688.00
88.2043 673.00
88.5086 757.00
88.8129 943.00
89.1171 1038.00
89.4214 847.00
89.7256 721.00
90.0299 808.00
90.3342 897.00
90.6384 925.00
90.9427 771.00
91.2469 778.00
91.5512 760.00
91.8555 766.00
92.1597 738.00
92.464 672.00
92.7682 694.00
93.0725 684.00
93.3768 646.00
93.681 650.00
93.9853 638.00
94.2895 622.00
94.5938 683.00
94.8981 689.00
95.2023 737.00
95.5066 910.00
95.8108 1020.00
96.1151 1013.00
96.4194 894.00
96.7236 894.00
97.0279 995.00
97.3321 788.00
97.6364 712.00
97.9407 691.00
98.2449 680.00
98.5492 669.00
98.8534 719.00
99.1577 694.00
99.462 675.00
99.7662 671.00
99.9944 670.00