File: data/xrd_creation/results/PG_2540-1.xy
9.903433 2591.00
10.2077 2449.00
10.512 2351.00
10.8162 2207.00
11.1205 2079.00
11.4247 2061.00
11.729 1855.00
12.0333 1941.00
12.3375 1919.00
12.6418 1791.00
12.946 1738.00
13.2503 1682.00
13.5546 1606.00
13.8588 1664.00
14.1631 1991.00
14.4673 4285.00
14.7716 1667.00
15.0759 1558.00
15.3801 1698.00
15.6844 1534.00
15.9886 1550.00
16.2929 1506.00
16.5972 1401.00
16.9014 1481.00
17.2057 1421.00
17.5099 1394.00
17.8142 1366.00
18.1185 1378.00
18.4227 1348.00
18.727 1327.00
19.0312 1246.00
19.3355 1237.00
19.6398 1297.00
19.944 1285.00
20.2483 1326.00
20.5525 1378.00
20.8568 1213.00
21.1611 1167.00
21.4653 1133.00
21.7696 1160.00
22.0738 1159.00
22.3781 1109.00
22.6824 1228.00
22.9866 1134.00
23.2909 1237.00
23.5951 1068.00
23.8994 1044.00
24.2037 1072.00
24.5079 1360.00
24.8122 1168.00
25.1164 1019.00
25.4207 1064.00
25.725 1200.00
26.0292 1318.00
26.3335 2893.00
26.6378 32951.00
26.942 3264.00
27.2463 1633.00
27.5505 1866.00
27.8548 1119.00
28.1591 1155.00
28.4633 1161.00
28.7676 1914.00
29.0718 2118.00
29.3761 1897.00
29.6804 1056.00
29.9846 1073.00
30.2889 1078.00
30.5931 1858.00
30.8974 3129.00
31.2017 4236.00
31.5059 1345.00
31.8102 1571.00
32.1144 3597.00
32.4187 12668.00
32.723 2478.00
33.0272 1264.00
33.3315 1018.00
33.6357 1040.00
33.94 1253.00
34.2443 6283.00
34.5485 2125.00
34.8528 968.00
35.157 859.00
35.4613 852.00
35.7656 842.00
36.0698 845.00
36.3741 760.00
36.6783 773.00
36.9826 1278.00
37.2869 1120.00
37.5911 767.00
37.8954 776.00
38.1996 769.00
38.5039 767.00
38.8082 769.00
39.1124 782.00
39.4167 943.00
39.7209 1492.00
40.0252 1215.00
40.3295 1087.00
40.6337 671.00
40.938 764.00
41.2422 968.00
41.5465 730.00
41.8508 690.00
42.155 773.00
42.4593 671.00
42.7635 803.00
43.0678 1339.00
43.3721 2070.00
43.6763 921.00
43.9806 934.00
44.2849 1005.00
44.5891 1522.00
44.8934 2820.00
45.1976 1099.00
45.5019 930.00
45.8062 909.00
46.1104 1593.00
46.4147 2934.00
46.7189 1354.00
47.0232 830.00
47.3275 881.00
47.6317 2133.00
47.936 3387.00
48.2402 880.00
48.5445 909.00
48.8488 790.00
49.153 789.00
49.4573 1020.00
49.7615 1557.00
50.0658 5288.00
50.3701 2261.00
50.6743 1097.00
50.9786 919.00
51.2828 917.00
51.5871 790.00
51.8914 947.00
52.1956 2294.00
52.4999 6132.00
52.8041 983.00
53.1084 1079.00
53.4127 1208.00
53.7169 859.00
54.0212 986.00
54.3254 883.00
54.6297 934.00
54.934 798.00
55.2382 774.00
55.5425 708.00
55.8467 781.00
56.151 1303.00
56.4553 1503.00
56.7595 937.00
57.0638 793.00
57.368 740.00
57.6723 885.00
57.9766 1251.00
58.2808 3047.00
58.5851 1593.00
58.8893 935.00
59.1936 883.00
59.4979 2670.00
59.8021 1083.00
60.1064 853.00
60.4106 1135.00
60.7149 2525.00
61.0192 1453.00
61.3234 981.00
61.6277 1122.00
61.932 747.00
62.2362 779.00
62.5405 2459.00
62.8447 1061.00
63.149 1029.00
63.4533 1481.00
63.7575 1196.00
64.0618 843.00
64.366 1558.00
64.6703 786.00
64.9745 694.00
65.2788 653.00
65.5831 665.00
65.8873 913.00
66.1916 2888.00
66.4959 1983.00
66.8001 772.00
67.1044 634.00
67.4086 717.00
67.7129 628.00
68.0172 659.00
68.3214 704.00
68.6257 839.00
68.9299 672.00
69.2342 650.00
69.5385 662.00
69.8427 883.00
70.147 1193.00
70.4512 700.00
70.7555 629.00
71.0598 634.00
71.364 650.00
71.6683 725.00
71.9725 924.00
72.2768 1557.00
72.5811 996.00
72.8853 678.00
73.1896 618.00
73.4938 768.00
73.7981 843.00
74.1024 1142.00
74.4066 817.00
74.7109 689.00
75.0151 875.00
75.3194 821.00
75.6237 1292.00
75.9279 760.00
76.2322 709.00
76.5364 1288.00
76.8407 1578.00
77.145 694.00
77.4492 624.00
77.7535 590.00
78.0577 598.00
78.362 642.00
78.6663 702.00
78.9705 861.00
79.2748 740.00
79.579 760.00
79.8833 738.00
80.1876 721.00
80.4918 664.00
80.7961 812.00
81.1003 809.00
81.4046 664.00
81.7089 631.00
82.0131 687.00
82.3174 765.00
82.6217 901.00
82.9259 1474.00
83.2302 1552.00
83.5344 1186.00
83.8387 1208.00
84.143 970.00
84.4472 1005.00
84.7515 1824.00
85.0557 1259.00
85.36 803.00
85.6643 784.00
85.9685 754.00
86.2728 1014.00
86.577 778.00
86.8813 696.00
87.1856 912.00
87.4898 900.00
87.7941 862.00
88.0983 841.00
88.4026 707.00
88.7069 652.00
89.0111 735.00
89.3154 793.00
89.6196 1133.00
89.9239 1023.00
90.2282 766.00
90.5324 779.00
90.8367 717.00
91.1409 792.00
91.4452 1403.00
91.7495 1038.00
92.0537 689.00
92.358 671.00
92.6622 727.00
92.9665 753.00
93.2708 945.00
93.575 824.00
93.8793 681.00
94.1835 772.00
94.4878 616.00
94.7921 558.00
95.0963 592.00
95.4006 572.00
95.7048 628.00
96.0091 787.00
96.3134 709.00
96.6176 613.00
96.9219 634.00
97.2261 665.00
97.5304 783.00
97.8347 883.00
98.1389 887.00
98.4432 704.00
98.7474 710.00
99.0517 647.00
99.356 647.00
99.6602 594.00
99.9645 650.00
100.095 602.00