File: data/xrd_creation/results/PG_2738-1.xy
10.0094 2634.00
10.3137 2439.00
10.618 2390.00
10.9222 2370.00
11.2265 2330.00
11.5307 2301.00
11.835 2169.00
12.1393 2098.00
12.4435 2306.00
12.7478 2037.00
13.052 2056.00
13.3563 2045.00
13.6606 1997.00
13.9648 1958.00
14.2691 1903.00
14.5733 1878.00
14.8776 1908.00
15.1819 1915.00
15.4861 1924.00
15.7904 1979.00
16.0946 1875.00
16.3989 1872.00
16.7032 1811.00
17.0074 1859.00
17.3117 1853.00
17.6159 1803.00
17.9202 1770.00
18.2245 1724.00
18.5287 1619.00
18.833 1700.00
19.1372 1722.00
19.4415 1708.00
19.7458 1646.00
20.05 1603.00
20.3543 1656.00
20.6585 1626.00
20.9628 1602.00
21.2671 1578.00
21.5713 1613.00
21.8756 1629.00
22.1798 1600.00
22.4841 1568.00
22.7884 1654.00
23.0926 1563.00
23.3969 1714.00
23.7011 1594.00
24.0054 1702.00
24.3097 4144.00
24.6139 1653.00
24.9182 1865.00
25.2224 1516.00
25.5267 1461.00
25.831 1413.00
26.1352 1542.00
26.4395 1474.00
26.7438 1476.00
27.048 1445.00
27.3523 1534.00
27.6565 1407.00
27.9608 1433.00
28.2651 1416.00
28.5693 1513.00
28.8736 1418.00
29.1778 1518.00
29.4821 1457.00
29.7864 1726.00
30.0906 10975.00
30.3949 1819.00
30.6991 1443.00
31.0034 1548.00
31.3077 2278.00
31.6119 1397.00
31.9162 1396.00
32.2204 1250.00
32.5247 1538.00
32.829 1406.00
33.1332 2545.00
33.4375 1533.00
33.7417 1343.00
34.046 1323.00
34.3503 1290.00
34.6545 1334.00
34.9588 1362.00
35.263 1376.00
35.5673 2651.00
35.8716 1668.00
36.1758 1789.00
36.4801 1375.00
36.7843 1352.00
37.0886 1346.00
37.3929 1399.00
37.6971 1684.00
38.0014 1324.00
38.3056 1402.00
38.6099 1296.00
38.9142 1357.00
39.2184 1275.00
39.5227 1332.00
39.8269 1224.00
40.1312 1309.00
40.4355 1518.00
40.7397 1900.00
41.044 1301.00
41.3482 1277.00
41.6525 1250.00
41.9568 1288.00
42.261 1206.00
42.5653 1198.00
42.8695 1270.00
43.1738 1353.00
43.4781 1805.00
43.7823 1316.00
44.0866 1276.00
44.3909 1261.00
44.6951 1315.00
44.9994 1219.00
45.3036 1380.00
45.6079 1256.00
45.9122 1244.00
46.2164 1319.00
46.5207 1243.00
46.8249 1217.00
47.1292 1276.00
47.4335 1286.00
47.7377 1450.00
48.042 1703.00
48.3462 1231.00
48.6505 1170.00
48.9548 1235.00
49.259 1324.00
49.5633 2242.00
49.8675 1233.00
50.1718 1256.00
50.4761 1412.00
50.7803 1273.00
51.0846 1316.00
51.3888 2728.00
51.6931 1272.00
51.9974 1271.00
52.3016 1374.00
52.6059 2849.00
52.9101 3801.00
53.2144 1352.00
53.5187 1286.00
53.8229 1299.00
54.1272 1321.00
54.4314 1292.00
54.7357 1506.00
55.04 1296.00
55.3442 1691.00
55.6485 1361.00
55.9527 1162.00
56.257 1298.00
56.5613 1216.00
56.8655 1308.00
57.1698 1388.00
57.474 1214.00
57.7783 1216.00
58.0826 1338.00
58.3868 1306.00
58.6911 1308.00
58.9953 1292.00
59.2996 1252.00
59.6039 1311.00
59.9081 1401.00
60.2124 3000.00
60.5166 1401.00
60.8209 1373.00
61.1252 1253.00
61.4294 1281.00
61.7337 1236.00
62.0379 1291.00
62.3422 1713.00
62.6465 1295.00
62.9507 2210.00
63.255 1756.00
63.5592 1455.00
63.8635 3724.00
64.1678 1565.00
64.472 1343.00
64.7763 1425.00
65.0806 1349.00
65.3848 1313.00
65.6891 1278.00
65.9933 1522.00
66.2976 1351.00
66.6019 1391.00
66.9061 1278.00
67.2104 1296.00
67.5146 1485.00
67.8189 1593.00
68.1232 1270.00
68.4274 1295.00
68.7317 1311.00
69.0359 1301.00
69.3402 1322.00
69.6445 1387.00
69.9487 1347.00
70.253 1299.00
70.5572 1267.00
70.8615 1254.00
71.1658 1357.00
71.47 1319.00
71.7743 1397.00
72.0785 1270.00
72.3828 1329.00
72.6871 1233.00
72.9913 1243.00
73.2956 1297.00
73.5998 1273.00
73.9041 1345.00
74.2084 1377.00
74.5126 1343.00
74.8169 1395.00
75.1211 1256.00
75.4254 1292.00
75.7297 1302.00
76.0339 1334.00
76.3382 1529.00
76.6424 1363.00
76.9467 1240.00
77.251 1369.00
77.5552 1605.00
77.8595 1523.00
78.1637 1266.00
78.468 1322.00
78.7723 1315.00
79.0765 1275.00
79.3808 1320.00
79.685 1339.00
79.9893 2074.00
80.2936 1541.00
80.5978 1376.00
80.9021 1257.00
81.2063 1351.00
81.5106 1293.00
81.8149 1309.00
82.1191 1318.00
82.4234 1281.00
82.7277 1276.00
83.0319 1354.00
83.3362 1417.00
83.6404 1334.00
83.9447 1297.00
84.249 1301.00
84.5532 1397.00
84.8575 1341.00
85.1617 1462.00
85.466 1255.00
85.7703 1257.00
86.0745 1389.00
86.3788 1324.00
86.683 1746.00
86.9873 1770.00
87.2916 1437.00
87.5958 1398.00
87.9001 1412.00
88.2043 1799.00
88.5086 1644.00
88.8129 1343.00
89.1171 1431.00
89.4214 1525.00
89.7256 1387.00
90.0299 1344.00
90.3342 1481.00
90.6384 1644.00
90.9427 1527.00
91.2469 1442.00
91.5512 1375.00
91.8555 1328.00
92.1597 1281.00
92.464 1362.00
92.7682 1369.00
93.0725 1343.00
93.3768 1366.00
93.681 1305.00
93.9853 1375.00
94.2895 1296.00
94.5938 1323.00
94.8981 1633.00
95.2023 1422.00
95.5066 1331.00
95.8108 1409.00
96.1151 1351.00
96.4194 1489.00
96.7236 1440.00
97.0279 1348.00
97.3321 1460.00
97.6364 1423.00
97.9407 1434.00
98.2449 1364.00
98.5492 1546.00
98.8534 1443.00
99.1577 1408.00
99.462 1305.00
99.7662 1340.00
99.9944 1274.00