File: data/xrd_creation/results/PG_2043-1.xy
9.903433 3682.00
10.2077 3494.00
10.512 3389.00
10.8162 3318.00
11.1205 3216.00
11.4247 3184.00
11.729 3134.00
12.0333 2958.00
12.3375 2939.00
12.6418 2906.00
12.946 2788.00
13.2503 2668.00
13.5546 2645.00
13.8588 2626.00
14.1631 2628.00
14.4673 2546.00
14.7716 2494.00
15.0759 2649.00
15.3801 2512.00
15.6844 2594.00
15.9886 2478.00
16.2929 2502.00
16.5972 2579.00
16.9014 2585.00
17.2057 2576.00
17.5099 2953.00
17.8142 2963.00
18.1185 2759.00
18.4227 2715.00
18.727 2802.00
19.0312 2889.00
19.3355 2973.00
19.6398 3087.00
19.944 3073.00
20.2483 3189.00
20.5525 3277.00
20.8568 3525.00
21.1611 3384.00
21.4653 3486.00
21.7696 3458.00
22.0738 3609.00
22.3781 3601.00
22.6824 3520.00
22.9866 3468.00
23.2909 3606.00
23.5951 3506.00
23.8994 4215.00
24.2037 8164.00
24.5079 3172.00
24.8122 2991.00
25.1164 2997.00
25.4207 2873.00
25.725 2769.00
26.0292 2619.00
26.3335 2672.00
26.6378 2473.00
26.942 2423.00
27.2463 2252.00
27.5505 2221.00
27.8548 2130.00
28.1591 2089.00
28.4633 1996.00
28.7676 1956.00
29.0718 1916.00
29.3761 1811.00
29.6804 1889.00
29.9846 2404.00
30.2889 1735.00
30.5931 1827.00
30.8974 4253.00
31.2017 1851.00
31.5059 1549.00
31.8102 1480.00
32.1144 1482.00
32.4187 1444.00
32.723 1356.00
33.0272 1296.00
33.3315 1334.00
33.6357 1379.00
33.94 1331.00
34.2443 2342.00
34.5485 1272.00
34.8528 1202.00
35.157 1264.00
35.4613 1519.00
35.7656 1159.00
36.0698 1088.00
36.3741 1104.00
36.6783 1063.00
36.9826 1116.00
37.2869 1011.00
37.5911 1048.00
37.8954 1016.00
38.1996 991.00
38.5039 1326.00
38.8082 1288.00
39.1124 944.00
39.4167 921.00
39.7209 947.00
40.0252 911.00
40.3295 933.00
40.6337 923.00
40.938 1155.00
41.2422 929.00
41.5465 957.00
41.8508 890.00
42.155 969.00
42.4593 882.00
42.7635 887.00
43.0678 865.00
43.3721 894.00
43.6763 880.00
43.9806 858.00
44.2849 849.00
44.5891 906.00
44.8934 869.00
45.1976 847.00
45.5019 933.00
45.8062 1021.00
46.1104 1209.00
46.4147 1205.00
46.7189 2954.00
47.0232 898.00
47.3275 815.00
47.6317 829.00
47.936 947.00
48.2402 743.00
48.5445 773.00
48.8488 755.00
49.153 885.00
49.4573 773.00
49.7615 739.00
50.0658 745.00
50.3701 725.00
50.6743 689.00
50.9786 704.00
51.2828 728.00
51.5871 714.00
51.8914 712.00
52.1956 751.00
52.4999 773.00
52.8041 723.00
53.1084 690.00
53.4127 683.00
53.7169 664.00
54.0212 726.00
54.3254 693.00
54.6297 622.00
54.934 727.00
55.2382 896.00
55.5425 756.00
55.8467 640.00
56.151 656.00
56.4553 649.00
56.7595 686.00
57.0638 649.00
57.368 639.00
57.6723 676.00
57.9766 627.00
58.2808 668.00
58.5851 940.00
58.8893 950.00
59.1936 856.00
59.4979 643.00
59.8021 638.00
60.1064 779.00
60.4106 665.00
60.7149 669.00
61.0192 637.00
61.3234 609.00
61.6277 663.00
61.932 651.00
62.2362 672.00
62.5405 631.00
62.8447 638.00
63.149 620.00
63.4533 689.00
63.7575 695.00
64.0618 822.00
64.366 803.00
64.6703 609.00
64.9745 639.00
65.2788 609.00
65.5831 626.00
65.8873 624.00
66.1916 606.00
66.4959 643.00
66.8001 651.00
67.1044 648.00
67.4086 589.00
67.7129 609.00
68.0172 613.00
68.3214 587.00
68.6257 640.00
68.9299 607.00
69.2342 568.00
69.5385 578.00
69.8427 848.00
70.147 724.00
70.4512 587.00
70.7555 584.00
71.0598 544.00
71.364 561.00
71.6683 630.00
71.9725 601.00
72.2768 554.00
72.5811 566.00
72.8853 560.00
73.1896 590.00
73.4938 533.00
73.7981 576.00
74.1024 519.00
74.4066 619.00
74.7109 913.00
75.0151 559.00
75.3194 515.00
75.6237 532.00
75.9279 569.00
76.2322 576.00
76.5364 595.00
76.8407 659.00
77.145 553.00
77.4492 557.00
77.7535 509.00
78.0577 532.00
78.362 509.00
78.6663 487.00
78.9705 535.00
79.2748 558.00
79.579 709.00
79.8833 719.00
80.1876 609.00
80.4918 532.00
80.7961 488.00
81.1003 559.00
81.4046 531.00
81.7089 563.00
82.0131 547.00
82.3174 502.00
82.6217 536.00
82.9259 461.00
83.2302 501.00
83.5344 445.00
83.8387 463.00
84.143 419.00
84.4472 445.00
84.7515 445.00
85.0557 451.00
85.36 407.00
85.6643 506.00
85.9685 399.00
86.2728 419.00
86.577 388.00
86.8813 381.00
87.1856 391.00
87.4898 346.00
87.7941 388.00
88.0983 343.00
88.4026 390.00
88.7069 405.00
89.0111 375.00
89.3154 408.00
89.6196 404.00
89.9239 336.00
90.2282 314.00
90.5324 367.00
90.8367 336.00
91.1409 333.00
91.4452 335.00
91.7495 367.00
92.0537 347.00
92.358 344.00
92.6622 326.00
92.9665 376.00
93.2708 341.00
93.575 340.00
93.8793 359.00
94.1835 355.00
94.4878 391.00
94.7921 355.00
95.0963 333.00
95.4006 477.00
95.7048 373.00
96.0091 361.00
96.3134 367.00
96.6176 374.00
96.9219 385.00
97.2261 354.00
97.5304 351.00
97.8347 332.00
98.1389 308.00
98.4432 343.00
98.7474 345.00
99.0517 341.00
99.356 392.00
99.6602 437.00
99.9645 397.00
100.095 432.00