File: data/xrd_creation/results/PG_2151-1.xy
9.903433 2526.00
10.2077 2391.00
10.512 2275.00
10.8162 2182.00
11.1205 2218.00
11.4247 1999.00
11.729 2044.00
12.0333 1926.00
12.3375 1843.00
12.6418 1876.00
12.946 1852.00
13.2503 1726.00
13.5546 1635.00
13.8588 1681.00
14.1631 1624.00
14.4673 1496.00
14.7716 1590.00
15.0759 1652.00
15.3801 1743.00
15.6844 2750.00
15.9886 9998.00
16.2929 2586.00
16.5972 1645.00
16.9014 1523.00
17.2057 1460.00
17.5099 1354.00
17.8142 1392.00
18.1185 1284.00
18.4227 1252.00
18.727 1247.00
19.0312 1186.00
19.3355 1198.00
19.6398 1196.00
19.944 1092.00
20.2483 1154.00
20.5525 1114.00
20.8568 1130.00
21.1611 1038.00
21.4653 1057.00
21.7696 1094.00
22.0738 1003.00
22.3781 1005.00
22.6824 965.00
22.9866 968.00
23.2909 912.00
23.5951 952.00
23.8994 897.00
24.2037 883.00
24.5079 877.00
24.8122 924.00
25.1164 864.00
25.4207 896.00
25.725 858.00
26.0292 875.00
26.3335 887.00
26.6378 885.00
26.942 1017.00
27.2463 1428.00
27.5505 5928.00
27.8548 3554.00
28.1591 4210.00
28.4633 7349.00
28.7676 1396.00
29.0718 929.00
29.3761 842.00
29.6804 806.00
29.9846 791.00
30.2889 711.00
30.5931 786.00
30.8974 793.00
31.2017 778.00
31.5059 874.00
31.8102 1613.00
32.1144 5105.00
32.4187 852.00
32.723 665.00
33.0272 723.00
33.3315 636.00
33.6357 655.00
33.94 644.00
34.2443 620.00
34.5485 711.00
34.8528 2790.00
35.157 650.00
35.4613 623.00
35.7656 666.00
36.0698 753.00
36.3741 1534.00
36.6783 6118.00
36.9826 724.00
37.2869 610.00
37.5911 548.00
37.8954 625.00
38.1996 542.00
38.5039 573.00
38.8082 596.00
39.1124 686.00
39.4167 1147.00
39.7209 4848.00
40.0252 3732.00
40.3295 978.00
40.6337 633.00
40.938 545.00
41.2422 600.00
41.5465 493.00
41.8508 545.00
42.155 604.00
42.4593 1213.00
42.7635 1229.00
43.0678 566.00
43.3721 495.00
43.6763 492.00
43.9806 440.00
44.2849 432.00
44.5891 459.00
44.8934 464.00
45.1976 475.00
45.5019 420.00
45.8062 454.00
46.1104 435.00
46.4147 462.00
46.7189 489.00
47.0232 506.00
47.3275 1106.00
47.6317 1169.00
47.936 2029.00
48.2402 1098.00
48.5445 3167.00
48.8488 4180.00
49.153 4228.00
49.4573 1145.00
49.7615 702.00
50.0658 736.00
50.3701 1099.00
50.6743 562.00
50.9786 469.00
51.2828 411.00
51.5871 427.00
51.8914 393.00
52.1956 384.00
52.4999 398.00
52.8041 413.00
53.1084 364.00
53.4127 415.00
53.7169 344.00
54.0212 395.00
54.3254 408.00
54.6297 394.00
54.934 454.00
55.2382 571.00
55.5425 1573.00
55.8467 1165.00
56.151 606.00
56.4553 881.00
56.7595 1120.00
57.0638 1776.00
57.368 438.00
57.6723 449.00
57.9766 546.00
58.2808 689.00
58.5851 452.00
58.8893 510.00
59.1936 714.00
59.4979 508.00
59.8021 372.00
60.1064 344.00
60.4106 366.00
60.7149 378.00
61.0192 359.00
61.3234 327.00
61.6277 344.00
61.932 346.00
62.2362 349.00
62.5405 378.00
62.8447 363.00
63.149 1783.00
63.4533 605.00
63.7575 464.00
64.0618 752.00
64.366 1532.00
64.6703 798.00
64.9745 514.00
65.2788 640.00
65.5831 667.00
65.8873 483.00
66.1916 516.00
66.4959 503.00
66.8001 490.00
67.1044 397.00
67.4086 370.00
67.7129 367.00
68.0172 398.00
68.3214 1407.00
68.6257 450.00
68.9299 405.00
69.2342 407.00
69.5385 740.00
69.8427 927.00
70.147 1085.00
70.4512 572.00
70.7555 429.00
71.0598 511.00
71.364 571.00
71.6683 406.00
71.9725 326.00
72.2768 344.00
72.5811 362.00
72.8853 592.00
73.1896 473.00
73.4938 375.00
73.7981 337.00
74.1024 304.00
74.4066 323.00
74.7109 318.00
75.0151 341.00
75.3194 383.00
75.6237 406.00
75.9279 536.00
76.2322 762.00
76.5364 818.00
76.8407 810.00
77.145 763.00
77.4492 1222.00
77.7535 1473.00
78.0577 1122.00
78.362 677.00
78.6663 585.00
78.9705 530.00
79.2748 368.00
79.579 351.00
79.8833 284.00
80.1876 308.00
80.4918 339.00
80.7961 292.00
81.1003 265.00
81.4046 322.00
81.7089 403.00
82.0131 351.00
82.3174 388.00
82.6217 586.00
82.9259 487.00
83.2302 339.00
83.5344 308.00
83.8387 298.00
84.143 301.00
84.4472 290.00
84.7515 313.00
85.0557 369.00
85.36 447.00
85.6643 365.00
85.9685 365.00
86.2728 332.00
86.577 321.00
86.8813 287.00
87.1856 291.00
87.4898 321.00
87.7941 299.00
88.0983 311.00
88.4026 351.00
88.7069 523.00
89.0111 743.00
89.3154 605.00
89.6196 431.00
89.9239 891.00
90.2282 674.00
90.5324 589.00
90.8367 530.00
91.1409 444.00
91.4452 435.00
91.7495 428.00
92.0537 379.00
92.358 344.00
92.6622 321.00
92.9665 395.00
93.2708 342.00
93.575 290.00
93.8793 301.00
94.1835 302.00
94.4878 315.00
94.7921 316.00
95.0963 374.00
95.4006 500.00
95.7048 782.00
96.0091 780.00
96.3134 562.00
96.6176 513.00
96.9219 709.00
97.2261 561.00
97.5304 488.00
97.8347 374.00
98.1389 329.00
98.4432 338.00
98.7474 388.00
99.0517 352.00
99.356 369.00
99.6602 303.00
99.9645 312.00
100.095 351.00