File: data/xrd_creation/results/PG_2140-1.xy
9.903433 2473.00
10.2077 2421.00
10.512 2264.00
10.8162 2172.00
11.1205 2184.00
11.4247 2062.00
11.729 2016.00
12.0333 1970.00
12.3375 1892.00
12.6418 1776.00
12.946 1754.00
13.2503 1700.00
13.5546 1670.00
13.8588 1521.00
14.1631 1568.00
14.4673 1520.00
14.7716 1624.00
15.0759 1570.00
15.3801 2380.00
15.6844 2223.00
15.9886 5760.00
16.2929 1771.00
16.5972 1492.00
16.9014 1428.00
17.2057 1345.00
17.5099 1403.00
17.8142 1519.00
18.1185 1400.00
18.4227 1257.00
18.727 1273.00
19.0312 1231.00
19.3355 1203.00
19.6398 1140.00
19.944 1179.00
20.2483 1166.00
20.5525 1153.00
20.8568 1140.00
21.1611 1150.00
21.4653 1060.00
21.7696 1077.00
22.0738 1028.00
22.3781 1021.00
22.6824 1043.00
22.9866 988.00
23.2909 1039.00
23.5951 982.00
23.8994 902.00
24.2037 996.00
24.5079 954.00
24.8122 973.00
25.1164 986.00
25.4207 882.00
25.725 943.00
26.0292 941.00
26.3335 871.00
26.6378 1045.00
26.942 1141.00
27.2463 1502.00
27.5505 5142.00
27.8548 2073.00
28.1591 4712.00
28.4633 4396.00
28.7676 4171.00
29.0718 4361.00
29.3761 6535.00
29.6804 1934.00
29.9846 1094.00
30.2889 1169.00
30.5931 4929.00
30.8974 1272.00
31.2017 997.00
31.5059 962.00
31.8102 1705.00
32.1144 3063.00
32.4187 1197.00
32.723 1118.00
33.0272 1265.00
33.3315 788.00
33.6357 763.00
33.94 758.00
34.2443 843.00
34.5485 878.00
34.8528 766.00
35.157 815.00
35.4613 767.00
35.7656 1242.00
36.0698 2319.00
36.3741 1359.00
36.6783 762.00
36.9826 709.00
37.2869 612.00
37.5911 665.00
37.8954 649.00
38.1996 1203.00
38.5039 686.00
38.8082 611.00
39.1124 701.00
39.4167 1059.00
39.7209 4351.00
40.0252 1884.00
40.3295 820.00
40.6337 714.00
40.938 631.00
41.2422 626.00
41.5465 624.00
41.8508 625.00
42.155 737.00
42.4593 1241.00
42.7635 901.00
43.0678 744.00
43.3721 651.00
43.6763 583.00
43.9806 600.00
44.2849 604.00
44.5891 673.00
44.8934 707.00
45.1976 919.00
45.5019 1251.00
45.8062 844.00
46.1104 768.00
46.4147 858.00
46.7189 739.00
47.0232 749.00
47.3275 1229.00
47.6317 935.00
47.936 812.00
48.2402 1197.00
48.5445 2734.00
48.8488 4951.00
49.153 3069.00
49.4573 1528.00
49.7615 968.00
50.0658 879.00
50.3701 938.00
50.6743 665.00
50.9786 857.00
51.2828 747.00
51.5871 598.00
51.8914 548.00
52.1956 540.00
52.4999 598.00
52.8041 560.00
53.1084 814.00
53.4127 1689.00
53.7169 977.00
54.0212 736.00
54.3254 818.00
54.6297 876.00
54.934 1106.00
55.2382 1239.00
55.5425 1808.00
55.8467 1098.00
56.151 993.00
56.4553 1276.00
56.7595 918.00
57.0638 624.00
57.368 571.00
57.6723 578.00
57.9766 761.00
58.2808 751.00
58.5851 652.00
58.8893 740.00
59.1936 884.00
59.4979 827.00
59.8021 887.00
60.1064 1210.00
60.4106 1201.00
60.7149 952.00
61.0192 676.00
61.3234 547.00
61.6277 570.00
61.932 507.00
62.2362 486.00
62.5405 506.00
62.8447 526.00
63.149 704.00
63.4533 938.00
63.7575 624.00
64.0618 877.00
64.366 1194.00
64.6703 755.00
64.9745 590.00
65.2788 754.00
65.5831 596.00
65.8873 502.00
66.1916 550.00
66.4959 607.00
66.8001 655.00
67.1044 527.00
67.4086 434.00
67.7129 453.00
68.0172 430.00
68.3214 435.00
68.6257 501.00
68.9299 525.00
69.2342 564.00
69.5385 628.00
69.8427 935.00
70.147 918.00
70.4512 575.00
70.7555 510.00
71.0598 647.00
71.364 589.00
71.6683 504.00
71.9725 458.00
72.2768 451.00
72.5811 537.00
72.8853 620.00
73.1896 650.00
73.4938 638.00
73.7981 595.00
74.1024 517.00
74.4066 544.00
74.7109 526.00
75.0151 499.00
75.3194 537.00
75.6237 573.00
75.9279 779.00
76.2322 981.00
76.5364 948.00
76.8407 821.00
77.145 797.00
77.4492 1036.00
77.7535 1298.00
78.0577 1154.00
78.362 903.00
78.6663 908.00
78.9705 770.00
79.2748 573.00
79.579 564.00
79.8833 634.00
80.1876 588.00
80.4918 510.00
80.7961 468.00
81.1003 518.00
81.4046 531.00
81.7089 500.00
82.0131 519.00
82.3174 639.00
82.6217 734.00
82.9259 545.00
83.2302 458.00
83.5344 455.00
83.8387 452.00
84.143 486.00
84.4472 495.00
84.7515 574.00
85.0557 611.00
85.36 635.00
85.6643 548.00
85.9685 506.00
86.2728 582.00
86.577 546.00
86.8813 516.00
87.1856 651.00
87.4898 605.00
87.7941 491.00
88.0983 500.00
88.4026 510.00
88.7069 670.00
89.0111 803.00
89.3154 761.00
89.6196 585.00
89.9239 526.00
90.2282 629.00
90.5324 653.00
90.8367 654.00
91.1409 648.00
91.4452 618.00
91.7495 605.00
92.0537 589.00
92.358 540.00
92.6622 510.00
92.9665 513.00
93.2708 532.00
93.575 509.00
93.8793 521.00
94.1835 470.00
94.4878 488.00
94.7921 474.00
95.0963 542.00
95.4006 549.00
95.7048 693.00
96.0091 767.00
96.3134 625.00
96.6176 614.00
96.9219 676.00
97.2261 659.00
97.5304 581.00
97.8347 554.00
98.1389 513.00
98.4432 492.00
98.7474 531.00
99.0517 478.00
99.356 470.00
99.6602 453.00
99.9645 482.00
100.095 454.00