File: data/xrd_creation/results/PG_2549-1.xy
9.903433 2476.00
10.2077 2447.00
10.512 2360.00
10.8162 2141.00
11.1205 2109.00
11.4247 1941.00
11.729 1964.00
12.0333 1776.00
12.3375 1796.00
12.6418 1705.00
12.946 1605.00
13.2503 1569.00
13.5546 1562.00
13.8588 1521.00
14.1631 1464.00
14.4673 1473.00
14.7716 1477.00
15.0759 1465.00
15.3801 1428.00
15.6844 1944.00
15.9886 3157.00
16.2929 1319.00
16.5972 1221.00
16.9014 1305.00
17.2057 1256.00
17.5099 1224.00
17.8142 1126.00
18.1185 1192.00
18.4227 1260.00
18.727 1484.00
19.0312 4135.00
19.3355 4270.00
19.6398 1178.00
19.944 1081.00
20.2483 1091.00
20.5525 1050.00
20.8568 1024.00
21.1611 1021.00
21.4653 948.00
21.7696 969.00
22.0738 974.00
22.3781 933.00
22.6824 960.00
22.9866 1026.00
23.2909 1916.00
23.5951 1404.00
23.8994 5576.00
24.2037 18867.00
24.5079 2322.00
24.8122 4059.00
25.1164 1362.00
25.4207 961.00
25.725 836.00
26.0292 866.00
26.3335 870.00
26.6378 828.00
26.942 1386.00
27.2463 751.00
27.5505 731.00
27.8548 803.00
28.1591 735.00
28.4633 701.00
28.7676 884.00
29.0718 993.00
29.3761 955.00
29.6804 707.00
29.9846 856.00
30.2889 878.00
30.5931 2338.00
30.8974 10683.00
31.2017 10361.00
31.5059 1033.00
31.8102 4449.00
32.1144 808.00
32.4187 664.00
32.723 647.00
33.0272 724.00
33.3315 1031.00
33.6357 1604.00
33.94 1774.00
34.2443 1366.00
34.5485 1805.00
34.8528 822.00
35.157 594.00
35.4613 584.00
35.7656 725.00
36.0698 708.00
36.3741 762.00
36.6783 4514.00
36.9826 1820.00
37.2869 3555.00
37.5911 700.00
37.8954 504.00
38.1996 545.00
38.5039 963.00
38.8082 1423.00
39.1124 474.00
39.4167 531.00
39.7209 494.00
40.0252 636.00
40.3295 595.00
40.6337 516.00
40.938 613.00
41.2422 1147.00
41.5465 3334.00
41.8508 7549.00
42.155 1652.00
42.4593 629.00
42.7635 508.00
43.0678 752.00
43.3721 876.00
43.6763 521.00
43.9806 498.00
44.2849 551.00
44.5891 1516.00
44.8934 1063.00
45.1976 810.00
45.5019 690.00
45.8062 2824.00
46.1104 1698.00
46.4147 1250.00
46.7189 462.00
47.0232 426.00
47.3275 424.00
47.6317 734.00
47.936 433.00
48.2402 761.00
48.5445 1333.00
48.8488 533.00
49.153 2148.00
49.4573 679.00
49.7615 436.00
50.0658 715.00
50.3701 1179.00
50.6743 2107.00
50.9786 1388.00
51.2828 522.00
51.5871 411.00
51.8914 532.00
52.1956 1001.00
52.4999 2993.00
52.8041 662.00
53.1084 1068.00
53.4127 1496.00
53.7169 2142.00
54.0212 3353.00
54.3254 2047.00
54.6297 4585.00
54.934 804.00
55.2382 688.00
55.5425 904.00
55.8467 1139.00
56.151 1063.00
56.4553 1141.00
56.7595 484.00
57.0638 543.00
57.368 588.00
57.6723 429.00
57.9766 397.00
58.2808 446.00
58.5851 724.00
58.8893 1135.00
59.1936 574.00
59.4979 849.00
59.8021 434.00
60.1064 501.00
60.4106 597.00
60.7149 592.00
61.0192 480.00
61.3234 539.00
61.6277 681.00
61.932 2589.00
62.2362 2094.00
62.5405 3225.00
62.8447 863.00
63.149 618.00
63.4533 1383.00
63.7575 1419.00
64.0618 521.00
64.366 1043.00
64.6703 2207.00
64.9745 892.00
65.2788 2726.00
65.5831 2014.00
65.8873 3140.00
66.1916 888.00
66.4959 548.00
66.8001 477.00
67.1044 435.00
67.4086 429.00
67.7129 394.00
68.0172 445.00
68.3214 393.00
68.6257 586.00
68.9299 1388.00
69.2342 1554.00
69.5385 865.00
69.8427 440.00
70.147 453.00
70.4512 373.00
70.7555 472.00
71.0598 533.00
71.364 896.00
71.6683 965.00
71.9725 1164.00
72.2768 2024.00
72.5811 1030.00
72.8853 976.00
73.1896 565.00
73.4938 541.00
73.7981 463.00
74.1024 442.00
74.4066 600.00
74.7109 374.00
75.0151 927.00
75.3194 588.00
75.6237 704.00
75.9279 655.00
76.2322 407.00
76.5364 463.00
76.8407 500.00
77.145 712.00
77.4492 522.00
77.7535 550.00
78.0577 358.00
78.362 590.00
78.6663 562.00
78.9705 479.00
79.2748 531.00
79.579 806.00
79.8833 1128.00
80.1876 582.00
80.4918 592.00
80.7961 598.00
81.1003 870.00
81.4046 629.00
81.7089 1181.00
82.0131 1352.00
82.3174 1106.00
82.6217 908.00
82.9259 499.00
83.2302 599.00
83.5344 455.00
83.8387 403.00
84.143 329.00
84.4472 382.00
84.7515 371.00
85.0557 363.00
85.36 386.00
85.6643 441.00
85.9685 523.00
86.2728 683.00
86.577 526.00
86.8813 674.00
87.1856 784.00
87.4898 871.00
87.7941 710.00
88.0983 451.00
88.4026 524.00
88.7069 1133.00
89.0111 1110.00
89.3154 660.00
89.6196 635.00
89.9239 541.00
90.2282 505.00
90.5324 990.00
90.8367 1036.00
91.1409 623.00
91.4452 951.00
91.7495 1024.00
92.0537 748.00
92.358 507.00
92.6622 405.00
92.9665 521.00
93.2708 708.00
93.575 576.00
93.8793 541.00
94.1835 663.00
94.4878 516.00
94.7921 695.00
95.0963 735.00
95.4006 621.00
95.7048 441.00
96.0091 343.00
96.3134 419.00
96.6176 587.00
96.9219 804.00
97.2261 767.00
97.5304 670.00
97.8347 658.00
98.1389 684.00
98.4432 442.00
98.7474 352.00
99.0517 482.00
99.356 604.00
99.6602 723.00
99.9645 927.00
100.095 1017.00