File: data/xrd_creation/results/PG_2644-1.xy
9.903433 2529.00
10.2077 2448.00
10.512 2392.00
10.8162 2376.00
11.1205 2298.00
11.4247 2112.00
11.729 2101.00
12.0333 2032.00
12.3375 1972.00
12.6418 1797.00
12.946 1841.00
13.2503 1712.00
13.5546 1654.00
13.8588 1670.00
14.1631 1625.00
14.4673 1651.00
14.7716 1606.00
15.0759 1495.00
15.3801 1591.00
15.6844 1558.00
15.9886 1477.00
16.2929 1494.00
16.5972 1427.00
16.9014 1505.00
17.2057 1445.00
17.5099 1367.00
17.8142 1428.00
18.1185 1323.00
18.4227 1302.00
18.727 1298.00
19.0312 1301.00
19.3355 1263.00
19.6398 1277.00
19.944 1213.00
20.2483 1199.00
20.5525 1146.00
20.8568 1197.00
21.1611 1133.00
21.4653 1156.00
21.7696 1102.00
22.0738 1064.00
22.3781 1116.00
22.6824 1094.00
22.9866 1081.00
23.2909 1043.00
23.5951 1038.00
23.8994 1009.00
24.2037 1003.00
24.5079 988.00
24.8122 934.00
25.1164 947.00
25.4207 890.00
25.725 922.00
26.0292 987.00
26.3335 1058.00
26.6378 2288.00
26.942 4307.00
27.2463 1024.00
27.5505 912.00
27.8548 927.00
28.1591 909.00
28.4633 836.00
28.7676 855.00
29.0718 1015.00
29.3761 876.00
29.6804 801.00
29.9846 784.00
30.2889 757.00
30.5931 807.00
30.8974 791.00
31.2017 839.00
31.5059 731.00
31.8102 775.00
32.1144 762.00
32.4187 929.00
32.723 849.00
33.0272 788.00
33.3315 879.00
33.6357 820.00
33.94 1908.00
34.2443 3576.00
34.5485 890.00
34.8528 705.00
35.157 724.00
35.4613 709.00
35.7656 710.00
36.0698 718.00
36.3741 1644.00
36.6783 805.00
36.9826 647.00
37.2869 665.00
37.5911 652.00
37.8954 767.00
38.1996 2378.00
38.5039 804.00
38.8082 643.00
39.1124 765.00
39.4167 667.00
39.7209 622.00
40.0252 594.00
40.3295 609.00
40.6337 625.00
40.938 629.00
41.2422 583.00
41.5465 627.00
41.8508 595.00
42.155 591.00
42.4593 568.00
42.7635 640.00
43.0678 615.00
43.3721 614.00
43.6763 575.00
43.9806 562.00
44.2849 598.00
44.5891 716.00
44.8934 548.00
45.1976 546.00
45.5019 610.00
45.8062 584.00
46.1104 549.00
46.4147 601.00
46.7189 609.00
47.0232 552.00
47.3275 558.00
47.6317 571.00
47.936 565.00
48.2402 571.00
48.5445 575.00
48.8488 583.00
49.153 531.00
49.4573 579.00
49.7615 544.00
50.0658 638.00
50.3701 583.00
50.6743 596.00
50.9786 779.00
51.2828 610.00
51.5871 734.00
51.8914 2521.00
52.1956 2896.00
52.4999 748.00
52.8041 558.00
53.1084 553.00
53.4127 564.00
53.7169 539.00
54.0212 656.00
54.3254 639.00
54.6297 631.00
54.934 1521.00
55.2382 850.00
55.5425 601.00
55.8467 612.00
56.151 616.00
56.4553 589.00
56.7595 566.00
57.0638 532.00
57.368 578.00
57.6723 606.00
57.9766 956.00
58.2808 744.00
58.5851 637.00
58.8893 729.00
59.1936 556.00
59.4979 467.00
59.8021 539.00
60.1064 1026.00
60.4106 534.00
60.7149 553.00
61.0192 524.00
61.3234 566.00
61.6277 567.00
61.932 770.00
62.2362 1275.00
62.5405 637.00
62.8447 563.00
63.149 585.00
63.4533 601.00
63.7575 554.00
64.0618 575.00
64.366 576.00
64.6703 677.00
64.9745 1920.00
65.2788 732.00
65.5831 582.00
65.8873 718.00
66.1916 2074.00
66.4959 835.00
66.8001 645.00
67.1044 543.00
67.4086 544.00
67.7129 574.00
68.0172 569.00
68.3214 526.00
68.6257 510.00
68.9299 498.00
69.2342 544.00
69.5385 512.00
69.8427 580.00
70.147 571.00
70.4512 569.00
70.7555 552.00
71.0598 596.00
71.364 792.00
71.6683 924.00
71.9725 583.00
72.2768 541.00
72.5811 562.00
72.8853 524.00
73.1896 542.00
73.4938 543.00
73.7981 584.00
74.1024 552.00
74.4066 597.00
74.7109 551.00
75.0151 547.00
75.3194 585.00
75.6237 567.00
75.9279 523.00
76.2322 536.00
76.5364 517.00
76.8407 598.00
77.145 559.00
77.4492 554.00
77.7535 570.00
78.0577 591.00
78.362 593.00
78.6663 647.00
78.9705 1334.00
79.2748 763.00
79.579 554.00
79.8833 533.00
80.1876 624.00
80.4918 590.00
80.7961 579.00
81.1003 638.00
81.4046 847.00
81.7089 645.00
82.0131 531.00
82.3174 549.00
82.6217 554.00
82.9259 566.00
83.2302 649.00
83.5344 612.00
83.8387 1042.00
84.143 1003.00
84.4472 608.00
84.7515 592.00
85.0557 559.00
85.36 538.00
85.6643 560.00
85.9685 624.00
86.2728 555.00
86.577 622.00
86.8813 618.00
87.1856 603.00
87.4898 830.00
87.7941 640.00
88.0983 626.00
88.4026 527.00
88.7069 548.00
89.0111 523.00
89.3154 615.00
89.6196 610.00
89.9239 1328.00
90.2282 1052.00
90.5324 660.00
90.8367 824.00
91.1409 1410.00
91.4452 979.00
91.7495 613.00
92.0537 645.00
92.358 571.00
92.6622 617.00
92.9665 595.00
93.2708 710.00
93.575 819.00
93.8793 696.00
94.1835 576.00
94.4878 575.00
94.7921 571.00
95.0963 592.00
95.4006 586.00
95.7048 626.00
96.0091 681.00
96.3134 754.00
96.6176 749.00
96.9219 584.00
97.2261 597.00
97.5304 590.00
97.8347 617.00
98.1389 626.00
98.4432 633.00
98.7474 639.00
99.0517 608.00
99.356 609.00
99.6602 569.00
99.9645 549.00
100.095 575.00