File: data/xrd_creation/results/PG_2049-1.xy
9.903433 2357.00
10.2077 2304.00
10.512 2147.00
10.8162 2138.00
11.1205 1981.00
11.4247 1967.00
11.729 1872.00
12.0333 1813.00
12.3375 1711.00
12.6418 1707.00
12.946 1687.00
13.2503 1571.00
13.5546 1540.00
13.8588 1437.00
14.1631 1471.00
14.4673 1355.00
14.7716 1368.00
15.0759 1395.00
15.3801 1329.00
15.6844 1364.00
15.9886 1316.00
16.2929 1252.00
16.5972 1253.00
16.9014 1212.00
17.2057 1181.00
17.5099 1183.00
17.8142 1223.00
18.1185 1213.00
18.4227 1147.00
18.727 1017.00
19.0312 1079.00
19.3355 1022.00
19.6398 989.00
19.944 1014.00
20.2483 987.00
20.5525 912.00
20.8568 1019.00
21.1611 992.00
21.4653 956.00
21.7696 955.00
22.0738 911.00
22.3781 914.00
22.6824 1005.00
22.9866 1599.00
23.2909 5447.00
23.5951 3662.00
23.8994 9221.00
24.2037 4335.00
24.5079 5734.00
24.8122 2550.00
25.1164 992.00
25.4207 871.00
25.725 882.00
26.0292 842.00
26.3335 846.00
26.6378 1176.00
26.942 1956.00
27.2463 874.00
27.5505 783.00
27.8548 727.00
28.1591 770.00
28.4633 852.00
28.7676 1482.00
29.0718 2120.00
29.3761 1255.00
29.6804 733.00
29.9846 928.00
30.2889 707.00
30.5931 665.00
30.8974 1617.00
31.2017 759.00
31.5059 584.00
31.8102 549.00
32.1144 551.00
32.4187 545.00
32.723 620.00
33.0272 836.00
33.3315 2011.00
33.6357 3491.00
33.94 3664.00
34.2443 4344.00
34.5485 3675.00
34.8528 1147.00
35.157 707.00
35.4613 865.00
35.7656 1086.00
36.0698 903.00
36.3741 549.00
36.6783 497.00
36.9826 486.00
37.2869 445.00
37.5911 477.00
37.8954 422.00
38.1996 459.00
38.5039 538.00
38.8082 625.00
39.1124 440.00
39.4167 434.00
39.7209 446.00
40.0252 498.00
40.3295 377.00
40.6337 426.00
40.938 633.00
41.2422 633.00
41.5465 834.00
41.8508 1382.00
42.155 1982.00
42.4593 607.00
42.7635 400.00
43.0678 412.00
43.3721 416.00
43.6763 414.00
43.9806 403.00
44.2849 482.00
44.5891 741.00
44.8934 716.00
45.1976 789.00
45.5019 772.00
45.8062 782.00
46.1104 900.00
46.4147 643.00
46.7189 1753.00
47.0232 461.00
47.3275 745.00
47.6317 1168.00
47.936 570.00
48.2402 521.00
48.5445 1438.00
48.8488 641.00
49.153 515.00
49.4573 502.00
49.7615 611.00
50.0658 2061.00
50.3701 2273.00
50.6743 1749.00
50.9786 1825.00
51.2828 693.00
51.5871 439.00
51.8914 366.00
52.1956 366.00
52.4999 396.00
52.8041 355.00
53.1084 436.00
53.4127 701.00
53.7169 1481.00
54.0212 998.00
54.3254 1293.00
54.6297 1177.00
54.934 1270.00
55.2382 1312.00
55.5425 1727.00
55.8467 1859.00
56.151 2545.00
56.4553 1357.00
56.7595 535.00
57.0638 422.00
57.368 386.00
57.6723 381.00
57.9766 431.00
58.2808 423.00
58.5851 617.00
58.8893 502.00
59.1936 538.00
59.4979 594.00
59.8021 609.00
60.1064 886.00
60.4106 974.00
60.7149 1040.00
61.0192 772.00
61.3234 888.00
61.6277 957.00
61.932 1291.00
62.2362 1115.00
62.5405 1394.00
62.8447 776.00
63.149 660.00
63.4533 739.00
63.7575 521.00
64.0618 403.00
64.366 426.00
64.6703 315.00
64.9745 292.00
65.2788 311.00
65.5831 304.00
65.8873 302.00
66.1916 401.00
66.4959 433.00
66.8001 518.00
67.1044 493.00
67.4086 604.00
67.7129 526.00
68.0172 553.00
68.3214 389.00
68.6257 380.00
68.9299 346.00
69.2342 357.00
69.5385 418.00
69.8427 569.00
70.147 648.00
70.4512 440.00
70.7555 614.00
71.0598 542.00
71.364 457.00
71.6683 572.00
71.9725 693.00
72.2768 755.00
72.5811 485.00
72.8853 482.00
73.1896 417.00
73.4938 403.00
73.7981 556.00
74.1024 489.00
74.4066 479.00
74.7109 593.00
75.0151 424.00
75.3194 488.00
75.6237 536.00
75.9279 638.00
76.2322 718.00
76.5364 910.00
76.8407 1198.00
77.145 1310.00
77.4492 792.00
77.7535 467.00
78.0577 385.00
78.362 359.00
78.6663 535.00
78.9705 466.00
79.2748 290.00
79.579 414.00
79.8833 474.00
80.1876 421.00
80.4918 430.00
80.7961 407.00
81.1003 509.00
81.4046 532.00
81.7089 678.00
82.0131 739.00
82.3174 611.00
82.6217 599.00
82.9259 632.00
83.2302 642.00
83.5344 724.00
83.8387 826.00
84.143 593.00
84.4472 406.00
84.7515 428.00
85.0557 567.00
85.36 536.00
85.6643 486.00
85.9685 716.00
86.2728 839.00
86.577 772.00
86.8813 626.00
87.1856 594.00
87.4898 807.00
87.7941 769.00
88.0983 618.00
88.4026 607.00
88.7069 567.00
89.0111 492.00
89.3154 414.00
89.6196 384.00
89.9239 343.00
90.2282 361.00
90.5324 350.00
90.8367 371.00
91.1409 346.00
91.4452 383.00
91.7495 425.00
92.0537 429.00
92.358 507.00
92.6622 394.00
92.9665 387.00
93.2708 399.00
93.575 389.00
93.8793 308.00
94.1835 356.00
94.4878 372.00
94.7921 451.00
95.0963 404.00
95.4006 429.00
95.7048 488.00
96.0091 466.00
96.3134 427.00
96.6176 444.00
96.9219 447.00
97.2261 470.00
97.5304 414.00
97.8347 438.00
98.1389 390.00
98.4432 359.00
98.7474 343.00
99.0517 303.00
99.356 398.00
99.6602 430.00
99.9645 352.00
100.095 434.00