File: data/xrd_creation/results/PG_2450-1.xy
9.903433 3363.00
10.2077 3336.00
10.512 3253.00
10.8162 3087.00
11.1205 3104.00
11.4247 3019.00
11.729 2913.00
12.0333 2815.00
12.3375 2675.00
12.6418 2795.00
12.946 2679.00
13.2503 2719.00
13.5546 2719.00
13.8588 2722.00
14.1631 2650.00
14.4673 2815.00
14.7716 2705.00
15.0759 2709.00
15.3801 2625.00
15.6844 2759.00
15.9886 2555.00
16.2929 2689.00
16.5972 2602.00
16.9014 2685.00
17.2057 2513.00
17.5099 2491.00
17.8142 2402.00
18.1185 2390.00
18.4227 2482.00
18.727 2363.00
19.0312 2258.00
19.3355 2314.00
19.6398 2345.00
19.944 2298.00
20.2483 2329.00
20.5525 2999.00
20.8568 8285.00
21.1611 2382.00
21.4653 2437.00
21.7696 2371.00
22.0738 2245.00
22.3781 2216.00
22.6824 2006.00
22.9866 2138.00
23.2909 2076.00
23.5951 2169.00
23.8994 2163.00
24.2037 2054.00
24.5079 2103.00
24.8122 2047.00
25.1164 2005.00
25.4207 1946.00
25.725 2084.00
26.0292 1931.00
26.3335 1882.00
26.6378 2102.00
26.942 2032.00
27.2463 1952.00
27.5505 1942.00
27.8548 1994.00
28.1591 2041.00
28.4633 2359.00
28.7676 2612.00
29.0718 4045.00
29.3761 39846.00
29.6804 7393.00
29.9846 2744.00
30.2889 2401.00
30.5931 2385.00
30.8974 2540.00
31.2017 2151.00
31.5059 2103.00
31.8102 2507.00
32.1144 2522.00
32.4187 2075.00
32.723 2312.00
33.0272 2140.00
33.3315 2021.00
33.6357 2312.00
33.94 5694.00
34.2443 5722.00
34.5485 2145.00
34.8528 1902.00
35.157 1788.00
35.4613 1826.00
35.7656 1924.00
36.0698 3012.00
36.3741 2605.00
36.6783 1907.00
36.9826 1846.00
37.2869 2032.00
37.5911 1783.00
37.8954 1716.00
38.1996 2353.00
38.5039 1752.00
38.8082 1726.00
39.1124 1746.00
39.4167 1680.00
39.7209 1831.00
40.0252 3096.00
40.3295 2391.00
40.6337 1712.00
40.938 1628.00
41.2422 1543.00
41.5465 1631.00
41.8508 1720.00
42.155 1822.00
42.4593 1646.00
42.7635 1698.00
43.0678 1625.00
43.3721 1762.00
43.6763 4133.00
43.9806 2567.00
44.2849 1644.00
44.5891 1635.00
44.8934 1543.00
45.1976 1606.00
45.5019 1555.00
45.8062 1647.00
46.1104 1457.00
46.4147 1600.00
46.7189 1561.00
47.0232 1881.00
47.3275 2463.00
47.6317 1778.00
47.936 1694.00
48.2402 2025.00
48.5445 3418.00
48.8488 23364.00
49.153 2950.00
49.4573 1897.00
49.7615 1808.00
50.0658 1591.00
50.3701 2800.00
50.6743 1812.00
50.9786 1539.00
51.2828 1638.00
51.5871 1552.00
51.8914 1869.00
52.1956 1627.00
52.4999 1618.00
52.8041 1558.00
53.1084 1626.00
53.4127 3539.00
53.7169 2038.00
54.0212 1575.00
54.3254 1564.00
54.6297 1603.00
54.934 2021.00
55.2382 1621.00
55.5425 1579.00
55.8467 1554.00
56.151 1736.00
56.4553 3893.00
56.7595 1724.00
57.0638 1630.00
57.368 1903.00
57.6723 3468.00
57.9766 10847.00
58.2808 2349.00
58.5851 1753.00
58.8893 1767.00
59.1936 2906.00
59.4979 2931.00
59.8021 1699.00
60.1064 1567.00
60.4106 1743.00
60.7149 4136.00
61.0192 1719.00
61.3234 1500.00
61.6277 1526.00
61.932 1821.00
62.2362 2048.00
62.5405 1620.00
62.8447 1405.00
63.149 1574.00
63.4533 2093.00
63.7575 1549.00
64.0618 1447.00
64.366 1479.00
64.6703 2143.00
64.9745 2261.00
65.2788 1545.00
65.5831 1511.00
65.8873 1594.00
66.1916 1887.00
66.4959 1415.00
66.8001 1451.00
67.1044 1411.00
67.4086 1459.00
67.7129 1393.00
68.0172 1396.00
68.3214 1375.00
68.6257 1385.00
68.9299 1429.00
69.2342 1382.00
69.5385 1468.00
69.8427 1571.00
70.147 1860.00
70.4512 1466.00
70.7555 1443.00
71.0598 1656.00
71.364 2894.00
71.6683 1561.00
71.9725 1425.00
72.2768 1430.00
72.5811 3348.00
72.8853 1830.00
73.1896 1437.00
73.4938 1486.00
73.7981 2233.00
74.1024 1824.00
74.4066 1385.00
74.7109 1448.00
75.0151 1944.00
75.3194 1979.00
75.6237 1357.00
75.9279 1458.00
76.2322 1649.00
76.5364 1746.00
76.8407 1420.00
77.145 1426.00
77.4492 1969.00
77.7535 2230.00
78.0577 1438.00
78.362 1470.00
78.6663 2365.00
78.9705 3029.00
79.2748 1608.00
79.579 1539.00
79.8833 1365.00
80.1876 1334.00
80.4918 1349.00
80.7961 1383.00
81.1003 1842.00
81.4046 2289.00
81.7089 1600.00
82.0131 1394.00
82.3174 1429.00
82.6217 1430.00
82.9259 1357.00
83.2302 1406.00
83.5344 1489.00
83.8387 1547.00
84.143 1360.00
84.4472 1418.00
84.7515 1691.00
85.0557 1723.00
85.36 1408.00
85.6643 1388.00
85.9685 1293.00
86.2728 1433.00
86.577 1313.00
86.8813 1442.00
87.1856 1582.00
87.4898 1765.00
87.7941 1430.00
88.0983 1392.00
88.4026 1290.00
88.7069 1283.00
89.0111 1368.00
89.3154 1339.00
89.6196 1716.00
89.9239 1761.00
90.2282 1476.00
90.5324 1403.00
90.8367 2385.00
91.1409 2242.00
91.4452 1507.00
91.7495 1461.00
92.0537 1815.00
92.358 1697.00
92.6622 1452.00
92.9665 1404.00
93.2708 1682.00
93.575 1551.00
93.8793 1410.00
94.1835 1308.00
94.4878 1506.00
94.7921 1453.00
95.0963 1402.00
95.4006 1418.00
95.7048 2182.00
96.0091 1938.00
96.3134 1493.00
96.6176 1330.00
96.9219 1583.00
97.2261 1475.00
97.5304 1432.00
97.8347 1490.00
98.1389 2571.00
98.4432 2084.00
98.7474 1619.00
99.0517 1419.00
99.356 2086.00
99.6602 1743.00
99.9645 1510.00
100.095 1392.00