File: data/xrd_creation/results/PG_2244-1.xy
9.903433 2508.00
10.2077 2448.00
10.512 2318.00
10.8162 2247.00
11.1205 2203.00
11.4247 2073.00
11.729 1908.00
12.0333 1981.00
12.3375 1927.00
12.6418 1737.00
12.946 1742.00
13.2503 1691.00
13.5546 1620.00
13.8588 1646.00
14.1631 1622.00
14.4673 1614.00
14.7716 1579.00
15.0759 1553.00
15.3801 1563.00
15.6844 1464.00
15.9886 1454.00
16.2929 1403.00
16.5972 1407.00
16.9014 1402.00
17.2057 1372.00
17.5099 1360.00
17.8142 1451.00
18.1185 1272.00
18.4227 1345.00
18.727 1297.00
19.0312 1259.00
19.3355 1253.00
19.6398 1204.00
19.944 1180.00
20.2483 1101.00
20.5525 1107.00
20.8568 1164.00
21.1611 1167.00
21.4653 1099.00
21.7696 1312.00
22.0738 1070.00
22.3781 1054.00
22.6824 1026.00
22.9866 1088.00
23.2909 982.00
23.5951 1025.00
23.8994 1039.00
24.2037 979.00
24.5079 1059.00
24.8122 975.00
25.1164 985.00
25.4207 940.00
25.725 886.00
26.0292 1012.00
26.3335 1186.00
26.6378 1628.00
26.942 8295.00
27.2463 8422.00
27.5505 1575.00
27.8548 1117.00
28.1591 994.00
28.4633 939.00
28.7676 885.00
29.0718 887.00
29.3761 835.00
29.6804 849.00
29.9846 923.00
30.2889 821.00
30.5931 773.00
30.8974 848.00
31.2017 1080.00
31.5059 764.00
31.8102 752.00
32.1144 908.00
32.4187 1032.00
32.723 757.00
33.0272 763.00
33.3315 873.00
33.6357 960.00
33.94 1467.00
34.2443 7981.00
34.5485 6831.00
34.8528 1279.00
35.157 883.00
35.4613 784.00
35.7656 723.00
36.0698 722.00
36.3741 658.00
36.6783 798.00
36.9826 678.00
37.2869 738.00
37.5911 831.00
37.8954 738.00
38.1996 1308.00
38.5039 4974.00
38.8082 955.00
39.1124 734.00
39.4167 1342.00
39.7209 779.00
40.0252 656.00
40.3295 597.00
40.6337 572.00
40.938 496.00
41.2422 525.00
41.5465 520.00
41.8508 536.00
42.155 517.00
42.4593 528.00
42.7635 553.00
43.0678 771.00
43.3721 577.00
43.6763 451.00
43.9806 506.00
44.2849 485.00
44.5891 451.00
44.8934 452.00
45.1976 447.00
45.5019 481.00
45.8062 438.00
46.1104 470.00
46.4147 455.00
46.7189 479.00
47.0232 476.00
47.3275 476.00
47.6317 427.00
47.936 412.00
48.2402 446.00
48.5445 476.00
48.8488 498.00
49.153 510.00
49.4573 488.00
49.7615 457.00
50.0658 462.00
50.3701 487.00
50.6743 510.00
50.9786 567.00
51.2828 593.00
51.5871 676.00
51.8914 1390.00
52.1956 12277.00
52.4999 3851.00
52.8041 930.00
53.1084 642.00
53.4127 575.00
53.7169 510.00
54.0212 522.00
54.3254 494.00
54.6297 588.00
54.934 808.00
55.2382 3798.00
55.5425 887.00
55.8467 508.00
56.151 477.00
56.4553 424.00
56.7595 449.00
57.0638 478.00
57.368 475.00
57.6723 461.00
57.9766 596.00
58.2808 1889.00
58.5851 817.00
58.8893 471.00
59.1936 443.00
59.4979 440.00
59.8021 405.00
60.1064 490.00
60.4106 494.00
60.7149 430.00
61.0192 425.00
61.3234 410.00
61.6277 441.00
61.932 645.00
62.2362 2137.00
62.5405 1945.00
62.8447 595.00
63.149 451.00
63.4533 417.00
63.7575 437.00
64.0618 467.00
64.366 459.00
64.6703 529.00
64.9745 1075.00
65.2788 2590.00
65.5831 814.00
65.8873 638.00
66.1916 1133.00
66.4959 3127.00
66.8001 777.00
67.1044 466.00
67.4086 434.00
67.7129 419.00
68.0172 367.00
68.3214 364.00
68.6257 354.00
68.9299 347.00
69.2342 366.00
69.5385 362.00
69.8427 421.00
70.147 363.00
70.4512 352.00
70.7555 371.00
71.0598 388.00
71.364 481.00
71.6683 1687.00
71.9725 958.00
72.2768 425.00
72.5811 373.00
72.8853 385.00
73.1896 317.00
73.4938 367.00
73.7981 309.00
74.1024 376.00
74.4066 345.00
74.7109 358.00
75.0151 332.00
75.3194 390.00
75.6237 343.00
75.9279 329.00
76.2322 305.00
76.5364 347.00
76.8407 351.00
77.145 327.00
77.4492 352.00
77.7535 336.00
78.0577 328.00
78.362 350.00
78.6663 462.00
78.9705 1235.00
79.2748 1701.00
79.579 555.00
79.8833 333.00
80.1876 338.00
80.4918 368.00
80.7961 375.00
81.1003 393.00
81.4046 651.00
81.7089 717.00
82.0131 437.00
82.3174 382.00
82.6217 318.00
82.9259 342.00
83.2302 336.00
83.5344 400.00
83.8387 539.00
84.143 1760.00
84.4472 887.00
84.7515 407.00
85.0557 358.00
85.36 335.00
85.6643 340.00
85.9685 342.00
86.2728 339.00
86.577 342.00
86.8813 397.00
87.1856 351.00
87.4898 666.00
87.7941 680.00
88.0983 401.00
88.4026 349.00
88.7069 352.00
89.0111 373.00
89.3154 388.00
89.6196 447.00
89.9239 758.00
90.2282 1629.00
90.5324 997.00
90.8367 611.00
91.1409 1250.00
91.4452 1270.00
91.7495 635.00
92.0537 394.00
92.358 395.00
92.6622 377.00
92.9665 381.00
93.2708 420.00
93.575 1038.00
93.8793 797.00
94.1835 449.00
94.4878 388.00
94.7921 365.00
95.0963 341.00
95.4006 365.00
95.7048 383.00
96.0091 420.00
96.3134 999.00
96.6176 741.00
96.9219 439.00
97.2261 354.00
97.5304 338.00
97.8347 330.00
98.1389 302.00
98.4432 320.00
98.7474 349.00
99.0517 332.00
99.356 339.00
99.6602 345.00
99.9645 313.00
100.095 336.00