File: data/xrd_creation/results/PG_2638-1.xy
10.0094 2469.00
10.3137 2444.00
10.618 2345.00
10.9222 2267.00
11.2265 2240.00
11.5307 2136.00
11.835 2215.00
12.1393 2198.00
12.4435 2249.00
12.7478 1987.00
13.052 2022.00
13.3563 1951.00
13.6606 1982.00
13.9648 1923.00
14.2691 2091.00
14.5733 1885.00
14.8776 1923.00
15.1819 1886.00
15.4861 1849.00
15.7904 1892.00
16.0946 1798.00
16.3989 1878.00
16.7032 1903.00
17.0074 1779.00
17.3117 1781.00
17.6159 1695.00
17.9202 1733.00
18.2245 1699.00
18.5287 1672.00
18.833 1681.00
19.1372 1638.00
19.4415 1629.00
19.7458 1608.00
20.05 1584.00
20.3543 1632.00
20.6585 1591.00
20.9628 1597.00
21.2671 1593.00
21.5713 1576.00
21.8756 1625.00
22.1798 1530.00
22.4841 1587.00
22.7884 1795.00
23.0926 1614.00
23.3969 1944.00
23.7011 1638.00
24.0054 1895.00
24.3097 4552.00
24.6139 1578.00
24.9182 2092.00
25.2224 1692.00
25.5267 1716.00
25.831 1527.00
26.1352 1570.00
26.4395 1534.00
26.7438 1598.00
27.048 1533.00
27.3523 1442.00
27.6565 1458.00
27.9608 1448.00
28.2651 1449.00
28.5693 1811.00
28.8736 1517.00
29.1778 1608.00
29.4821 1536.00
29.7864 1692.00
30.0906 11594.00
30.3949 1773.00
30.6991 1467.00
31.0034 1532.00
31.3077 2388.00
31.6119 1479.00
31.9162 1448.00
32.2204 1505.00
32.5247 1444.00
32.829 1537.00
33.1332 3171.00
33.4375 1508.00
33.7417 1438.00
34.046 1383.00
34.3503 1377.00
34.6545 1311.00
34.9588 1368.00
35.263 1422.00
35.5673 2731.00
35.8716 1773.00
36.1758 1831.00
36.4801 1473.00
36.7843 1542.00
37.0886 1301.00
37.3929 1425.00
37.6971 1879.00
38.0014 1312.00
38.3056 1447.00
38.6099 1466.00
38.9142 1387.00
39.2184 1323.00
39.5227 1334.00
39.8269 1329.00
40.1312 1399.00
40.4355 1552.00
40.7397 1985.00
41.044 1385.00
41.3482 1319.00
41.6525 1317.00
41.9568 1352.00
42.261 1325.00
42.5653 1301.00
42.8695 1357.00
43.1738 1314.00
43.4781 1858.00
43.7823 1470.00
44.0866 1402.00
44.3909 1422.00
44.6951 1317.00
44.9994 1325.00
45.3036 1371.00
45.6079 1395.00
45.9122 1292.00
46.2164 1341.00
46.5207 1318.00
46.8249 1323.00
47.1292 1330.00
47.4335 1312.00
47.7377 1595.00
48.042 1857.00
48.3462 1265.00
48.6505 1403.00
48.9548 1405.00
49.259 1339.00
49.5633 2495.00
49.8675 1323.00
50.1718 1370.00
50.4761 1509.00
50.7803 1343.00
51.0846 1437.00
51.3888 3030.00
51.6931 1438.00
51.9974 1317.00
52.3016 1449.00
52.6059 2792.00
52.9101 4235.00
53.2144 1540.00
53.5187 1395.00
53.8229 1341.00
54.1272 1369.00
54.4314 1446.00
54.7357 1643.00
55.04 1447.00
55.3442 2237.00
55.6485 1443.00
55.9527 1339.00
56.257 1289.00
56.5613 1384.00
56.8655 1292.00
57.1698 1453.00
57.474 1300.00
57.7783 1435.00
58.0826 1318.00
58.3868 1292.00
58.6911 1415.00
58.9953 1349.00
59.2996 1300.00
59.6039 1411.00
59.9081 1453.00
60.2124 3226.00
60.5166 1523.00
60.8209 1496.00
61.1252 1404.00
61.4294 1295.00
61.7337 1357.00
62.0379 1346.00
62.3422 1728.00
62.6465 1342.00
62.9507 2199.00
63.255 1770.00
63.5592 1420.00
63.8635 3868.00
64.1678 1687.00
64.472 1479.00
64.7763 1348.00
65.0806 1366.00
65.3848 1426.00
65.6891 1343.00
65.9933 1702.00
66.2976 1410.00
66.6019 1405.00
66.9061 1504.00
67.2104 1325.00
67.5146 1448.00
67.8189 1710.00
68.1232 1363.00
68.4274 1331.00
68.7317 1359.00
69.0359 1355.00
69.3402 1404.00
69.6445 1399.00
69.9487 1321.00
70.253 1336.00
70.5572 1332.00
70.8615 1361.00
71.1658 1343.00
71.47 1391.00
71.7743 1477.00
72.0785 1335.00
72.3828 1350.00
72.6871 1354.00
72.9913 1373.00
73.2956 1434.00
73.5998 1342.00
73.9041 1373.00
74.2084 1357.00
74.5126 1452.00
74.8169 1526.00
75.1211 1365.00
75.4254 1314.00
75.7297 1370.00
76.0339 1469.00
76.3382 1636.00
76.6424 1456.00
76.9467 1369.00
77.251 1388.00
77.5552 1489.00
77.8595 1662.00
78.1637 1400.00
78.468 1316.00
78.7723 1336.00
79.0765 1417.00
79.3808 1335.00
79.685 1457.00
79.9893 2051.00
80.2936 1593.00
80.5978 1382.00
80.9021 1291.00
81.2063 1375.00
81.5106 1405.00
81.8149 1340.00
82.1191 1383.00
82.4234 1366.00
82.7277 1365.00
83.0319 1512.00
83.3362 1371.00
83.6404 1415.00
83.9447 1401.00
84.249 1360.00
84.5532 1449.00
84.8575 1386.00
85.1617 1483.00
85.466 1350.00
85.7703 1402.00
86.0745 1384.00
86.3788 1252.00
86.683 1711.00
86.9873 1751.00
87.2916 1420.00
87.5958 1426.00
87.9001 1409.00
88.2043 1973.00
88.5086 1672.00
88.8129 1393.00
89.1171 1487.00
89.4214 1456.00
89.7256 1385.00
90.0299 1449.00
90.3342 1600.00
90.6384 1741.00
90.9427 1511.00
91.2469 1466.00
91.5512 1458.00
91.8555 1375.00
92.1597 1373.00
92.464 1399.00
92.7682 1375.00
93.0725 1384.00
93.3768 1324.00
93.681 1412.00
93.9853 1489.00
94.2895 1486.00
94.5938 1473.00
94.8981 1600.00
95.2023 1473.00
95.5066 1346.00
95.8108 1469.00
96.1151 1400.00
96.4194 1443.00
96.7236 1502.00
97.0279 1363.00
97.3321 1593.00
97.6364 1564.00
97.9407 1460.00
98.2449 1397.00
98.5492 1684.00
98.8534 1573.00
99.1577 1429.00
99.462 1416.00
99.7662 1377.00
99.9944 1439.00