File: data/xrd_creation/results/PG_2648-1.xy
9.903433 3091.00
10.2077 2932.00
10.512 2967.00
10.8162 2747.00
11.1205 2642.00
11.4247 2643.00
11.729 2612.00
12.0333 2460.00
12.3375 2560.00
12.6418 2375.00
12.946 2343.00
13.2503 2364.00
13.5546 2295.00
13.8588 2241.00
14.1631 2187.00
14.4673 2240.00
14.7716 2264.00
15.0759 2212.00
15.3801 2263.00
15.6844 3222.00
15.9886 2216.00
16.2929 2181.00
16.5972 2119.00
16.9014 2139.00
17.2057 2140.00
17.5099 2034.00
17.8142 2067.00
18.1185 2209.00
18.4227 2375.00
18.727 2013.00
19.0312 1979.00
19.3355 2058.00
19.6398 1959.00
19.944 2020.00
20.2483 2093.00
20.5525 4565.00
20.8568 2412.00
21.1611 1961.00
21.4653 1920.00
21.7696 2071.00
22.0738 3400.00
22.3781 1886.00
22.6824 1931.00
22.9866 1949.00
23.2909 1892.00
23.5951 1844.00
23.8994 1819.00
24.2037 1801.00
24.5079 1766.00
24.8122 1734.00
25.1164 1786.00
25.4207 1783.00
25.725 1853.00
26.0292 1981.00
26.3335 2187.00
26.6378 2460.00
26.942 1760.00
27.2463 1797.00
27.5505 1897.00
27.8548 2183.00
28.1591 1885.00
28.4633 1858.00
28.7676 1878.00
29.0718 1957.00
29.3761 2089.00
29.6804 1901.00
29.9846 1766.00
30.2889 1665.00
30.5931 1658.00
30.8974 1717.00
31.2017 2343.00
31.5059 2883.00
31.8102 1719.00
32.1144 1811.00
32.4187 1778.00
32.723 3593.00
33.0272 1897.00
33.3315 1792.00
33.6357 2024.00
33.94 1707.00
34.2443 1736.00
34.5485 2013.00
34.8528 1839.00
35.157 2503.00
35.4613 2136.00
35.7656 1710.00
36.0698 1829.00
36.3741 2309.00
36.6783 1999.00
36.9826 1771.00
37.2869 1624.00
37.5911 1639.00
37.8954 1576.00
38.1996 1609.00
38.5039 1610.00
38.8082 1610.00
39.1124 1567.00
39.4167 1574.00
39.7209 1498.00
40.0252 1561.00
40.3295 1538.00
40.6337 1827.00
40.938 5587.00
41.2422 1787.00
41.5465 2099.00
41.8508 1693.00
42.155 1589.00
42.4593 1817.00
42.7635 1558.00
43.0678 1484.00
43.3721 1501.00
43.6763 1530.00
43.9806 1514.00
44.2849 1528.00
44.5891 1612.00
44.8934 1570.00
45.1976 1551.00
45.5019 1448.00
45.8062 2056.00
46.1104 1513.00
46.4147 1485.00
46.7189 1450.00
47.0232 1411.00
47.3275 1452.00
47.6317 2182.00
47.936 1566.00
48.2402 1949.00
48.5445 1534.00
48.8488 1462.00
49.153 2041.00
49.4573 1467.00
49.7615 1561.00
50.0658 1469.00
50.3701 1555.00
50.6743 1485.00
50.9786 1533.00
51.2828 1596.00
51.5871 2332.00
51.8914 1618.00
52.1956 1598.00
52.4999 1690.00
52.8041 1521.00
53.1084 1442.00
53.4127 1458.00
53.7169 1505.00
54.0212 1598.00
54.3254 1557.00
54.6297 1469.00
54.934 1411.00
55.2382 1405.00
55.5425 1432.00
55.8467 1540.00
56.151 1675.00
56.4553 1542.00
56.7595 1585.00
57.0638 1493.00
57.368 1532.00
57.6723 1455.00
57.9766 1482.00
58.2808 1548.00
58.5851 1674.00
58.8893 2595.00
59.1936 2625.00
59.4979 1822.00
59.8021 1676.00
60.1064 1769.00
60.4106 1760.00
60.7149 1601.00
61.0192 1543.00
61.3234 1684.00
61.6277 1708.00
61.932 1503.00
62.2362 1448.00
62.5405 1754.00
62.8447 1545.00
63.149 1469.00
63.4533 1461.00
63.7575 1364.00
64.0618 1482.00
64.366 1522.00
64.6703 1600.00
64.9745 1663.00
65.2788 1514.00
65.5831 1491.00
65.8873 1497.00
66.1916 1443.00
66.4959 1504.00
66.8001 1434.00
67.1044 1441.00
67.4086 1377.00
67.7129 1343.00
68.0172 1531.00
68.3214 1513.00
68.6257 1559.00
68.9299 1502.00
69.2342 1532.00
69.5385 1503.00
69.8427 1512.00
70.147 1624.00
70.4512 2073.00
70.7555 1721.00
71.0598 1496.00
71.364 1487.00
71.6683 1434.00
71.9725 1460.00
72.2768 1485.00
72.5811 1762.00
72.8853 1581.00
73.1896 1637.00
73.4938 1405.00
73.7981 1495.00
74.1024 1831.00
74.4066 1668.00
74.7109 1587.00
75.0151 1533.00
75.3194 1458.00
75.6237 1474.00
75.9279 1383.00
76.2322 1540.00
76.5364 1490.00
76.8407 1462.00
77.145 1497.00
77.4492 1392.00
77.7535 1442.00
78.0577 1463.00
78.362 1472.00
78.6663 1541.00
78.9705 1496.00
79.2748 1385.00
79.579 1441.00
79.8833 1410.00
80.1876 1460.00
80.4918 1357.00
80.7961 1384.00
81.1003 1420.00
81.4046 1435.00
81.7089 1500.00
82.0131 1384.00
82.3174 1421.00
82.6217 1420.00
82.9259 1372.00
83.2302 1367.00
83.5344 1443.00
83.8387 1386.00
84.143 1386.00
84.4472 1384.00
84.7515 1392.00
85.0557 1426.00
85.36 1390.00
85.6643 1481.00
85.9685 1371.00
86.2728 1346.00
86.577 1471.00
86.8813 1488.00
87.1856 1476.00
87.4898 1454.00
87.7941 1503.00
88.0983 1598.00
88.4026 1469.00
88.7069 1416.00
89.0111 1464.00
89.3154 1422.00
89.6196 1456.00
89.9239 1447.00
90.2282 1439.00
90.5324 1361.00
90.8367 1463.00
91.1409 1453.00
91.4452 1457.00
91.7495 1398.00
92.0537 1344.00
92.358 1352.00
92.6622 1394.00
92.9665 1402.00
93.2708 1481.00
93.575 1469.00
93.8793 1459.00
94.1835 1489.00
94.4878 1416.00
94.7921 1481.00
95.0963 1427.00
95.4006 1468.00
95.7048 1502.00
96.0091 1437.00
96.3134 1378.00
96.6176 1427.00
96.9219 1409.00
97.2261 1451.00
97.5304 1464.00
97.8347 1392.00
98.1389 1467.00
98.4432 1503.00
98.7474 1476.00
99.0517 1470.00
99.356 1450.00
99.6602 1471.00
99.9645 1502.00
100.095 1438.00