File: data/xrd_creation/results/PG_2449-1.xy
9.903433 2630.00
10.2077 2701.00
10.512 2470.00
10.8162 2410.00
11.1205 2367.00
11.4247 2323.00
11.729 2246.00
12.0333 2272.00
12.3375 2222.00
12.6418 2822.00
12.946 2138.00
13.2503 2018.00
13.5546 1999.00
13.8588 2021.00
14.1631 1934.00
14.4673 1957.00
14.7716 1875.00
15.0759 1836.00
15.3801 1868.00
15.6844 1843.00
15.9886 1786.00
16.2929 1810.00
16.5972 1736.00
16.9014 1710.00
17.2057 2051.00
17.5099 1757.00
17.8142 1724.00
18.1185 1600.00
18.4227 1638.00
18.727 1680.00
19.0312 1590.00
19.3355 1581.00
19.6398 1750.00
19.944 2494.00
20.2483 3118.00
20.5525 1726.00
20.8568 1901.00
21.1611 4972.00
21.4653 7317.00
21.7696 2768.00
22.0738 1691.00
22.3781 1688.00
22.6824 1817.00
22.9866 1849.00
23.2909 4529.00
23.5951 5366.00
23.8994 9569.00
24.2037 3197.00
24.5079 5078.00
24.8122 4840.00
25.1164 4673.00
25.4207 1718.00
25.725 1632.00
26.0292 1633.00
26.3335 1747.00
26.6378 2161.00
26.942 4586.00
27.2463 1837.00
27.5505 1683.00
27.8548 3148.00
28.1591 1414.00
28.4633 1473.00
28.7676 1828.00
29.0718 2418.00
29.3761 2451.00
29.6804 1382.00
29.9846 1393.00
30.2889 1321.00
30.5931 1452.00
30.8974 5678.00
31.2017 1335.00
31.5059 1203.00
31.8102 1190.00
32.1144 1277.00
32.4187 1252.00
32.723 1267.00
33.0272 1759.00
33.3315 7040.00
33.6357 3600.00
33.94 4581.00
34.2443 4011.00
34.5485 5154.00
34.8528 2433.00
35.157 1335.00
35.4613 1143.00
35.7656 1417.00
36.0698 1347.00
36.3741 1143.00
36.6783 1080.00
36.9826 1544.00
37.2869 1604.00
37.5911 1034.00
37.8954 2583.00
38.1996 984.00
38.5039 1674.00
38.8082 849.00
39.1124 857.00
39.4167 874.00
39.7209 2276.00
40.0252 965.00
40.3295 872.00
40.6337 934.00
40.938 1085.00
41.2422 2487.00
41.5465 1112.00
41.8508 1466.00
42.155 1942.00
42.4593 1736.00
42.7635 1230.00
43.0678 1824.00
43.3721 1622.00
43.6763 1060.00
43.9806 1146.00
44.2849 963.00
44.5891 1053.00
44.8934 1202.00
45.1976 1395.00
45.5019 1415.00
45.8062 1825.00
46.1104 998.00
46.4147 1135.00
46.7189 810.00
47.0232 755.00
47.3275 850.00
47.6317 2954.00
47.936 1170.00
48.2402 1208.00
48.5445 1427.00
48.8488 1391.00
49.153 1100.00
49.4573 932.00
49.7615 1011.00
50.0658 1710.00
50.3701 2463.00
50.6743 1808.00
50.9786 1963.00
51.2828 1368.00
51.5871 1531.00
51.8914 985.00
52.1956 865.00
52.4999 959.00
52.8041 1410.00
53.1084 978.00
53.4127 1616.00
53.7169 1270.00
54.0212 1319.00
54.3254 1964.00
54.6297 1761.00
54.934 1851.00
55.2382 1596.00
55.5425 1920.00
55.8467 2011.00
56.151 2368.00
56.4553 2069.00
56.7595 1211.00
57.0638 948.00
57.368 761.00
57.6723 743.00
57.9766 1094.00
58.2808 806.00
58.5851 845.00
58.8893 867.00
59.1936 1276.00
59.4979 1037.00
59.8021 1093.00
60.1064 1010.00
60.4106 1210.00
60.7149 1385.00
61.0192 1174.00
61.3234 1195.00
61.6277 1502.00
61.932 1766.00
62.2362 1823.00
62.5405 1974.00
62.8447 1595.00
63.149 1246.00
63.4533 1159.00
63.7575 2541.00
64.0618 1061.00
64.366 743.00
64.6703 733.00
64.9745 755.00
65.2788 751.00
65.5831 838.00
65.8873 604.00
66.1916 684.00
66.4959 895.00
66.8001 1136.00
67.1044 1087.00
67.4086 974.00
67.7129 830.00
68.0172 1177.00
68.3214 1129.00
68.6257 779.00
68.9299 862.00
69.2342 652.00
69.5385 796.00
69.8427 797.00
70.147 813.00
70.4512 709.00
70.7555 796.00
71.0598 773.00
71.364 792.00
71.6683 761.00
71.9725 983.00
72.2768 971.00
72.5811 848.00
72.8853 839.00
73.1896 719.00
73.4938 762.00
73.7981 769.00
74.1024 1023.00
74.4066 684.00
74.7109 709.00
75.0151 683.00
75.3194 741.00
75.6237 784.00
75.9279 965.00
76.2322 1016.00
76.5364 1160.00
76.8407 1125.00
77.145 1188.00
77.4492 968.00
77.7535 775.00
78.0577 907.00
78.362 690.00
78.6663 785.00
78.9705 796.00
79.2748 595.00
79.579 583.00
79.8833 623.00
80.1876 629.00
80.4918 796.00
80.7961 821.00
81.1003 721.00
81.4046 866.00
81.7089 919.00
82.0131 836.00
82.3174 695.00
82.6217 703.00
82.9259 959.00
83.2302 907.00
83.5344 832.00
83.8387 884.00
84.143 780.00
84.4472 758.00
84.7515 919.00
85.0557 851.00
85.36 893.00
85.6643 659.00
85.9685 653.00
86.2728 811.00
86.577 814.00
86.8813 797.00
87.1856 1070.00
87.4898 997.00
87.7941 845.00
88.0983 758.00
88.4026 803.00
88.7069 834.00
89.0111 777.00
89.3154 623.00
89.6196 597.00
89.9239 653.00
90.2282 539.00
90.5324 589.00
90.8367 622.00
91.1409 722.00
91.4452 627.00
91.7495 656.00
92.0537 693.00
92.358 804.00
92.6622 705.00
92.9665 556.00
93.2708 630.00
93.575 564.00
93.8793 723.00
94.1835 632.00
94.4878 635.00
94.7921 688.00
95.0963 753.00
95.4006 662.00
95.7048 591.00
96.0091 634.00
96.3134 879.00
96.6176 841.00
96.9219 665.00
97.2261 671.00
97.5304 642.00
97.8347 671.00
98.1389 598.00
98.4432 540.00
98.7474 509.00
99.0517 532.00
99.356 552.00
99.6602 565.00
99.9645 500.00
100.095 516.00