File: data/xrd_creation/results/PG_2234-1.xy
9.903433 3125.00
10.2077 3189.00
10.512 3006.00
10.8162 2989.00
11.1205 2970.00
11.4247 2850.00
11.729 2806.00
12.0333 2798.00
12.3375 2752.00
12.6418 2621.00
12.946 2634.00
13.2503 2750.00
13.5546 2542.00
13.8588 2663.00
14.1631 2774.00
14.4673 2731.00
14.7716 2516.00
15.0759 2616.00
15.3801 2579.00
15.6844 2691.00
15.9886 2526.00
16.2929 2565.00
16.5972 2590.00
16.9014 3085.00
17.2057 5463.00
17.5099 2680.00
17.8142 2421.00
18.1185 2249.00
18.4227 2233.00
18.727 2342.00
19.0312 2259.00
19.3355 2157.00
19.6398 2130.00
19.944 2185.00
20.2483 2211.00
20.5525 2093.00
20.8568 2082.00
21.1611 2062.00
21.4653 2330.00
21.7696 2407.00
22.0738 2532.00
22.3781 5006.00
22.6824 11530.00
22.9866 2823.00
23.2909 3577.00
23.5951 10008.00
23.8994 3604.00
24.2037 2334.00
24.5079 2327.00
24.8122 2505.00
25.1164 4832.00
25.4207 4052.00
25.725 2300.00
26.0292 2036.00
26.3335 2012.00
26.6378 2000.00
26.942 1975.00
27.2463 2052.00
27.5505 1976.00
27.8548 1926.00
28.1591 1950.00
28.4633 1978.00
28.7676 1997.00
29.0718 2671.00
29.3761 3944.00
29.6804 2291.00
29.9846 1721.00
30.2889 1661.00
30.5931 1671.00
30.8974 1828.00
31.2017 1511.00
31.5059 1499.00
31.8102 1577.00
32.1144 1626.00
32.4187 1388.00
32.723 1372.00
33.0272 1359.00
33.3315 1355.00
33.6357 1642.00
33.94 3241.00
34.2443 8124.00
34.5485 4753.00
34.8528 1529.00
35.157 1275.00
35.4613 1253.00
35.7656 1216.00
36.0698 1178.00
36.3741 1302.00
36.6783 1384.00
36.9826 3045.00
37.2869 5212.00
37.5911 1685.00
37.8954 1279.00
38.1996 1238.00
38.5039 1315.00
38.8082 1654.00
39.1124 2096.00
39.4167 1595.00
39.7209 1253.00
40.0252 1131.00
40.3295 998.00
40.6337 987.00
40.938 1009.00
41.2422 1043.00
41.5465 943.00
41.8508 931.00
42.155 1062.00
42.4593 956.00
42.7635 894.00
43.0678 888.00
43.3721 828.00
43.6763 997.00
43.9806 1024.00
44.2849 804.00
44.5891 748.00
44.8934 761.00
45.1976 777.00
45.5019 762.00
45.8062 725.00
46.1104 667.00
46.4147 702.00
46.7189 707.00
47.0232 712.00
47.3275 731.00
47.6317 727.00
47.936 754.00
48.2402 722.00
48.5445 689.00
48.8488 753.00
49.153 707.00
49.4573 759.00
49.7615 921.00
50.0658 702.00
50.3701 696.00
50.6743 735.00
50.9786 1038.00
51.2828 1983.00
51.5871 1437.00
51.8914 1322.00
52.1956 754.00
52.4999 677.00
52.8041 668.00
53.1084 630.00
53.4127 602.00
53.7169 599.00
54.0212 587.00
54.3254 582.00
54.6297 661.00
54.934 790.00
55.2382 615.00
55.5425 580.00
55.8467 621.00
56.151 722.00
56.4553 590.00
56.7595 587.00
57.0638 630.00
57.368 820.00
57.6723 732.00
57.9766 665.00
58.2808 655.00
58.5851 635.00
58.8893 787.00
59.1936 831.00
59.4979 759.00
59.8021 792.00
60.1064 759.00
60.4106 868.00
60.7149 1485.00
61.0192 1566.00
61.3234 2230.00
61.6277 882.00
61.932 745.00
62.2362 684.00
62.5405 574.00
62.8447 520.00
63.149 580.00
63.4533 631.00
63.7575 641.00
64.0618 542.00
64.366 541.00
64.6703 583.00
64.9745 510.00
65.2788 511.00
65.5831 585.00
65.8873 580.00
66.1916 591.00
66.4959 627.00
66.8001 640.00
67.1044 640.00
67.4086 650.00
67.7129 743.00
68.0172 1018.00
68.3214 879.00
68.6257 735.00
68.9299 610.00
69.2342 574.00
69.5385 535.00
69.8427 551.00
70.147 609.00
70.4512 569.00
70.7555 544.00
71.0598 546.00
71.364 658.00
71.6683 672.00
71.9725 562.00
72.2768 515.00
72.5811 543.00
72.8853 551.00
73.1896 847.00
73.4938 912.00
73.7981 1086.00
74.1024 985.00
74.4066 795.00
74.7109 596.00
75.0151 630.00
75.3194 548.00
75.6237 556.00
75.9279 557.00
76.2322 468.00
76.5364 440.00
76.8407 473.00
77.145 495.00
77.4492 486.00
77.7535 478.00
78.0577 428.00
78.362 409.00
78.6663 416.00
78.9705 394.00
79.2748 438.00
79.579 426.00
79.8833 415.00
80.1876 461.00
80.4918 484.00
80.7961 615.00
81.1003 677.00
81.4046 503.00
81.7089 440.00
82.0131 437.00
82.3174 499.00
82.6217 622.00
82.9259 606.00
83.2302 506.00
83.5344 507.00
83.8387 421.00
84.143 513.00
84.4472 473.00
84.7515 426.00
85.0557 431.00
85.36 403.00
85.6643 437.00
85.9685 495.00
86.2728 448.00
86.577 385.00
86.8813 429.00
87.1856 417.00
87.4898 419.00
87.7941 376.00
88.0983 391.00
88.4026 397.00
88.7069 542.00
89.0111 534.00
89.3154 406.00
89.6196 358.00
89.9239 358.00
90.2282 395.00
90.5324 439.00
90.8367 439.00
91.1409 400.00
91.4452 408.00
91.7495 392.00
92.0537 411.00
92.358 413.00
92.6622 407.00
92.9665 344.00
93.2708 404.00
93.575 364.00
93.8793 388.00
94.1835 342.00
94.4878 350.00
94.7921 331.00
95.0963 361.00
95.4006 400.00
95.7048 356.00
96.0091 376.00
96.3134 379.00
96.6176 360.00
96.9219 431.00
97.2261 455.00
97.5304 535.00
97.8347 519.00
98.1389 468.00
98.4432 442.00
98.7474 427.00
99.0517 397.00
99.356 405.00
99.6602 352.00
99.9645 386.00
100.095 360.00