File: data/xrd_creation/results/PG_2045-1.xy
9.903433 2981.00
10.2077 2896.00
10.512 2917.00
10.8162 2711.00
11.1205 2648.00
11.4247 2541.00
11.729 2528.00
12.0333 2423.00
12.3375 2475.00
12.6418 2351.00
12.946 2326.00
13.2503 2312.00
13.5546 2361.00
13.8588 2288.00
14.1631 2314.00
14.4673 2247.00
14.7716 2242.00
15.0759 2200.00
15.3801 2214.00
15.6844 2215.00
15.9886 2186.00
16.2929 2187.00
16.5972 2072.00
16.9014 2094.00
17.2057 2205.00
17.5099 2478.00
17.8142 2429.00
18.1185 2102.00
18.4227 1969.00
18.727 2053.00
19.0312 2056.00
19.3355 1952.00
19.6398 1958.00
19.944 2056.00
20.2483 2062.00
20.5525 2349.00
20.8568 2102.00
21.1611 1976.00
21.4653 1932.00
21.7696 1938.00
22.0738 1799.00
22.3781 1882.00
22.6824 1790.00
22.9866 1861.00
23.2909 1772.00
23.5951 1894.00
23.8994 2419.00
24.2037 14396.00
24.5079 2125.00
24.8122 2022.00
25.1164 2719.00
25.4207 13640.00
25.725 6014.00
26.0292 7561.00
26.3335 2721.00
26.6378 1940.00
26.942 1794.00
27.2463 1766.00
27.5505 1692.00
27.8548 1690.00
28.1591 1746.00
28.4633 1632.00
28.7676 1757.00
29.0718 1829.00
29.3761 1712.00
29.6804 1901.00
29.9846 5404.00
30.2889 1777.00
30.5931 1791.00
30.8974 4472.00
31.2017 2422.00
31.5059 2101.00
31.8102 3038.00
32.1144 1771.00
32.4187 1547.00
32.723 1503.00
33.0272 1537.00
33.3315 1587.00
33.6357 1655.00
33.94 1629.00
34.2443 3551.00
34.5485 1763.00
34.8528 2112.00
35.157 1966.00
35.4613 3719.00
35.7656 2267.00
36.0698 2038.00
36.3741 3695.00
36.6783 5569.00
36.9826 4142.00
37.2869 1773.00
37.5911 1521.00
37.8954 1477.00
38.1996 1458.00
38.5039 1781.00
38.8082 2293.00
39.1124 1483.00
39.4167 1388.00
39.7209 1480.00
40.0252 1589.00
40.3295 1405.00
40.6337 1475.00
40.938 2065.00
41.2422 1567.00
41.5465 2308.00
41.8508 1897.00
42.155 1500.00
42.4593 1437.00
42.7635 1439.00
43.0678 1728.00
43.3721 1712.00
43.6763 1497.00
43.9806 1805.00
44.2849 4511.00
44.5891 3882.00
44.8934 1916.00
45.1976 1714.00
45.5019 1995.00
45.8062 2876.00
46.1104 3077.00
46.4147 1728.00
46.7189 7035.00
47.0232 2859.00
47.3275 2008.00
47.6317 2250.00
47.936 4900.00
48.2402 2205.00
48.5445 1420.00
48.8488 1376.00
49.153 1619.00
49.4573 1439.00
49.7615 1475.00
50.0658 2178.00
50.3701 3824.00
50.6743 2418.00
50.9786 1530.00
51.2828 1398.00
51.5871 1387.00
51.8914 1686.00
52.1956 1572.00
52.4999 1540.00
52.8041 1309.00
53.1084 1463.00
53.4127 1483.00
53.7169 1325.00
54.0212 1348.00
54.3254 1308.00
54.6297 1294.00
54.934 1308.00
55.2382 1728.00
55.5425 1609.00
55.8467 1275.00
56.151 1282.00
56.4553 1327.00
56.7595 1338.00
57.0638 1514.00
57.368 1557.00
57.6723 1828.00
57.9766 1610.00
58.2808 1405.00
58.5851 1818.00
58.8893 1800.00
59.1936 2487.00
59.4979 1545.00
59.8021 1550.00
60.1064 2093.00
60.4106 1376.00
60.7149 1274.00
61.0192 1286.00
61.3234 1204.00
61.6277 1302.00
61.932 1414.00
62.2362 1126.00
62.5405 1179.00
62.8447 1372.00
63.149 1492.00
63.4533 1293.00
63.7575 1329.00
64.0618 1914.00
64.366 2014.00
64.6703 1320.00
64.9745 1379.00
65.2788 1340.00
65.5831 1528.00
65.8873 1723.00
66.1916 1488.00
66.4959 1411.00
66.8001 1398.00
67.1044 1318.00
67.4086 1207.00
67.7129 1189.00
68.0172 1136.00
68.3214 1208.00
68.6257 1182.00
68.9299 1237.00
69.2342 1145.00
69.5385 1192.00
69.8427 1457.00
70.147 1815.00
70.4512 1092.00
70.7555 1189.00
71.0598 1201.00
71.364 1199.00
71.6683 1309.00
71.9725 1491.00
72.2768 1756.00
72.5811 1409.00
72.8853 1343.00
73.1896 1469.00
73.4938 1445.00
73.7981 1933.00
74.1024 2170.00
74.4066 1862.00
74.7109 2740.00
75.0151 1754.00
75.3194 1686.00
75.6237 1620.00
75.9279 1517.00
76.2322 1667.00
76.5364 1467.00
76.8407 1387.00
77.145 1411.00
77.4492 1342.00
77.7535 1558.00
78.0577 1338.00
78.362 1292.00
78.6663 1203.00
78.9705 1200.00
79.2748 1169.00
79.579 1305.00
79.8833 1457.00
80.1876 1493.00
80.4918 1350.00
80.7961 1285.00
81.1003 1209.00
81.4046 1249.00
81.7089 1303.00
82.0131 1444.00
82.3174 1482.00
82.6217 1411.00
82.9259 1205.00
83.2302 1389.00
83.5344 1452.00
83.8387 1325.00
84.143 1155.00
84.4472 1327.00
84.7515 1267.00
85.0557 1304.00
85.36 1316.00
85.6643 1563.00
85.9685 1337.00
86.2728 1210.00
86.577 1081.00
86.8813 1163.00
87.1856 1180.00
87.4898 1178.00
87.7941 1214.00
88.0983 1204.00
88.4026 1087.00
88.7069 1206.00
89.0111 1113.00
89.3154 1239.00
89.6196 1158.00
89.9239 1187.00
90.2282 1163.00
90.5324 1098.00
90.8367 1152.00
91.1409 1120.00
91.4452 1137.00
91.7495 1273.00
92.0537 1289.00
92.358 1212.00
92.6622 1118.00
92.9665 1151.00
93.2708 1088.00
93.575 1189.00
93.8793 1251.00
94.1835 1287.00
94.4878 1298.00
94.7921 1390.00
95.0963 1465.00
95.4006 1601.00
95.7048 1420.00
96.0091 1219.00
96.3134 1219.00
96.6176 1373.00
96.9219 1377.00
97.2261 1379.00
97.5304 1321.00
97.8347 1236.00
98.1389 1204.00
98.4432 1179.00
98.7474 1087.00
99.0517 1131.00
99.356 1437.00
99.6602 1525.00
99.9645 1284.00
100.095 1377.00