File: data/xrd_creation/results/PG_2643-1.xy
9.903433 4260.00
10.2077 4169.00
10.512 4194.00
10.8162 4110.00
11.1205 4068.00
11.4247 3928.00
11.729 4023.00
12.0333 3938.00
12.3375 3865.00
12.6418 3885.00
12.946 3895.00
13.2503 3836.00
13.5546 3912.00
13.8588 3799.00
14.1631 3798.00
14.4673 3824.00
14.7716 3757.00
15.0759 3816.00
15.3801 3843.00
15.6844 3697.00
15.9886 3901.00
16.2929 3803.00
16.5972 3921.00
16.9014 3891.00
17.2057 3810.00
17.5099 3645.00
17.8142 3824.00
18.1185 3657.00
18.4227 3877.00
18.727 3771.00
19.0312 3938.00
19.3355 3812.00
19.6398 3694.00
19.944 3747.00
20.2483 3671.00
20.5525 3797.00
20.8568 3672.00
21.1611 3770.00
21.4653 3699.00
21.7696 3687.00
22.0738 3631.00
22.3781 3769.00
22.6824 3655.00
22.9866 3649.00
23.2909 4249.00
23.5951 3734.00
23.8994 3577.00
24.2037 3681.00
24.5079 3423.00
24.8122 3479.00
25.1164 3443.00
25.4207 3420.00
25.725 3515.00
26.0292 3398.00
26.3335 3301.00
26.6378 3380.00
26.942 3298.00
27.2463 3303.00
27.5505 3301.00
27.8548 3253.00
28.1591 3135.00
28.4633 3144.00
28.7676 3246.00
29.0718 3128.00
29.3761 3185.00
29.6804 3142.00
29.9846 3276.00
30.2889 3115.00
30.5931 3055.00
30.8974 3031.00
31.2017 3078.00
31.5059 3133.00
31.8102 3046.00
32.1144 3133.00
32.4187 3216.00
32.723 3307.00
33.0272 4196.00
33.3315 15010.00
33.6357 3282.00
33.94 3060.00
34.2443 3025.00
34.5485 2975.00
34.8528 2968.00
35.157 3051.00
35.4613 2993.00
35.7656 3165.00
36.0698 3104.00
36.3741 3066.00
36.6783 3000.00
36.9826 3037.00
37.2869 2900.00
37.5911 2944.00
37.8954 2981.00
38.1996 2978.00
38.5039 5816.00
38.8082 3291.00
39.1124 2892.00
39.4167 2928.00
39.7209 2950.00
40.0252 2960.00
40.3295 2981.00
40.6337 2813.00
40.938 3005.00
41.2422 2845.00
41.5465 2921.00
41.8508 2770.00
42.155 3152.00
42.4593 3242.00
42.7635 2780.00
43.0678 2890.00
43.3721 2835.00
43.6763 2808.00
43.9806 2877.00
44.2849 2960.00
44.5891 2879.00
44.8934 2778.00
45.1976 2851.00
45.5019 3578.00
45.8062 2893.00
46.1104 2777.00
46.4147 2744.00
46.7189 2880.00
47.0232 2785.00
47.3275 2801.00
47.6317 2932.00
47.936 2826.00
48.2402 2855.00
48.5445 2829.00
48.8488 2946.00
49.153 2864.00
49.4573 3043.00
49.7615 3349.00
50.0658 2771.00
50.3701 2743.00
50.6743 2866.00
50.9786 2752.00
51.2828 2818.00
51.5871 2719.00
51.8914 2773.00
52.1956 2845.00
52.4999 2757.00
52.8041 2841.00
53.1084 2891.00
53.4127 2864.00
53.7169 2965.00
54.0212 2900.00
54.3254 2938.00
54.6297 2854.00
54.934 2915.00
55.2382 3298.00
55.5425 6922.00
55.8467 3034.00
56.151 2784.00
56.4553 2884.00
56.7595 2725.00
57.0638 2819.00
57.368 2921.00
57.6723 2809.00
57.9766 2811.00
58.2808 2799.00
58.5851 2789.00
58.8893 2665.00
59.1936 2861.00
59.4979 2759.00
59.8021 2777.00
60.1064 2847.00
60.4106 2957.00
60.7149 2781.00
61.0192 2950.00
61.3234 2665.00
61.6277 2826.00
61.932 2887.00
62.2362 2753.00
62.5405 2798.00
62.8447 2810.00
63.149 2800.00
63.4533 2767.00
63.7575 2826.00
64.0618 2867.00
64.366 3245.00
64.6703 2754.00
64.9745 2747.00
65.2788 2874.00
65.5831 2819.00
65.8873 3900.00
66.1916 4169.00
66.4959 3089.00
66.8001 2791.00
67.1044 2830.00
67.4086 2796.00
67.7129 3006.00
68.0172 2756.00
68.3214 2769.00
68.6257 2895.00
68.9299 2728.00
69.2342 2864.00
69.5385 3036.00
69.8427 2810.00
70.147 2822.00
70.4512 2741.00
70.7555 2697.00
71.0598 2715.00
71.364 2660.00
71.6683 2772.00
71.9725 2676.00
72.2768 2685.00
72.5811 2878.00
72.8853 2812.00
73.1896 2645.00
73.4938 2767.00
73.7981 2785.00
74.1024 3014.00
74.4066 2775.00
74.7109 2749.00
75.0151 2717.00
75.3194 2662.00
75.6237 2767.00
75.9279 2764.00
76.2322 2721.00
76.5364 2763.00
76.8407 2685.00
77.145 2696.00
77.4492 2631.00
77.7535 2692.00
78.0577 2679.00
78.362 2630.00
78.6663 2802.00
78.9705 2722.00
79.2748 2712.00
79.579 2731.00
79.8833 2770.00
80.1876 2866.00
80.4918 2866.00
80.7961 2748.00
81.1003 2688.00
81.4046 2665.00
81.7089 2768.00
82.0131 2952.00
82.3174 2719.00
82.6217 2798.00
82.9259 2840.00
83.2302 2736.00
83.5344 2934.00
83.8387 2760.00
84.143 2747.00
84.4472 2765.00
84.7515 2666.00
85.0557 2884.00
85.36 2813.00
85.6643 2629.00
85.9685 2686.00
86.2728 2681.00
86.577 2852.00
86.8813 2859.00
87.1856 2695.00
87.4898 2590.00
87.7941 2805.00
88.0983 2701.00
88.4026 2731.00
88.7069 2633.00
89.0111 2740.00
89.3154 2816.00
89.6196 2839.00
89.9239 2755.00
90.2282 2657.00
90.5324 2721.00
90.8367 2729.00
91.1409 3227.00
91.4452 3072.00
91.7495 2800.00
92.0537 2693.00
92.358 2633.00
92.6622 2699.00
92.9665 2667.00
93.2708 2702.00
93.575 2745.00
93.8793 2736.00
94.1835 2971.00
94.4878 2791.00
94.7921 2690.00
95.0963 2751.00
95.4006 2679.00
95.7048 2670.00
96.0091 2637.00
96.3134 2731.00
96.6176 2649.00
96.9219 2732.00
97.2261 2761.00
97.5304 2598.00
97.8347 2696.00
98.1389 2750.00
98.4432 2740.00
98.7474 2754.00
99.0517 2698.00
99.356 2682.00
99.6602 2693.00
99.9645 2725.00
100.095 2888.00