File: data/xrd_creation/results/PG_2252-1.xy
9.903433 2975.00
10.2077 2764.00
10.512 2790.00
10.8162 2579.00
11.1205 2495.00
11.4247 2492.00
11.729 2469.00
12.0333 2219.00
12.3375 2270.00
12.6418 2343.00
12.946 2369.00
13.2503 2325.00
13.5546 2301.00
13.8588 2239.00
14.1631 2304.00
14.4673 2189.00
14.7716 2277.00
15.0759 2204.00
15.3801 2197.00
15.6844 2114.00
15.9886 2207.00
16.2929 2209.00
16.5972 2133.00
16.9014 2183.00
17.2057 2210.00
17.5099 2311.00
17.8142 2784.00
18.1185 2170.00
18.4227 1999.00
18.727 2005.00
19.0312 2091.00
19.3355 2048.00
19.6398 2023.00
19.944 1955.00
20.2483 1889.00
20.5525 1935.00
20.8568 1894.00
21.1611 1998.00
21.4653 2191.00
21.7696 2119.00
22.0738 1841.00
22.3781 1969.00
22.6824 1858.00
22.9866 1900.00
23.2909 1883.00
23.5951 2122.00
23.8994 2089.00
24.2037 3012.00
24.5079 3290.00
24.8122 3833.00
25.1164 2000.00
25.4207 1914.00
25.725 1873.00
26.0292 1854.00
26.3335 1909.00
26.6378 1855.00
26.942 1759.00
27.2463 1890.00
27.5505 1992.00
27.8548 2375.00
28.1591 3549.00
28.4633 22504.00
28.7676 3960.00
29.0718 2250.00
29.3761 2045.00
29.6804 2206.00
29.9846 2002.00
30.2889 1904.00
30.5931 2041.00
30.8974 4017.00
31.2017 2361.00
31.5059 3823.00
31.8102 15947.00
32.1144 5296.00
32.4187 2124.00
32.723 1889.00
33.0272 1711.00
33.3315 1819.00
33.6357 1786.00
33.94 1870.00
34.2443 2906.00
34.5485 5886.00
34.8528 3122.00
35.157 2042.00
35.4613 3222.00
35.7656 2572.00
36.0698 1912.00
36.3741 2830.00
36.6783 1661.00
36.9826 1683.00
37.2869 2729.00
37.5911 1646.00
37.8954 1531.00
38.1996 1609.00
38.5039 1622.00
38.8082 2565.00
39.1124 1884.00
39.4167 1631.00
39.7209 1915.00
40.0252 1837.00
40.3295 1960.00
40.6337 1761.00
40.938 3379.00
41.2422 2572.00
41.5465 2736.00
41.8508 2028.00
42.155 1583.00
42.4593 1583.00
42.7635 1463.00
43.0678 1485.00
43.3721 1458.00
43.6763 1604.00
43.9806 1495.00
44.2849 1512.00
44.5891 1649.00
44.8934 1869.00
45.1976 2782.00
45.5019 1843.00
45.8062 3002.00
46.1104 1750.00
46.4147 1512.00
46.7189 1408.00
47.0232 1503.00
47.3275 1515.00
47.6317 1430.00
47.936 1472.00
48.2402 1464.00
48.5445 1470.00
48.8488 1719.00
49.153 2375.00
49.4573 3994.00
49.7615 2957.00
50.0658 2256.00
50.3701 6529.00
50.6743 3343.00
50.9786 3423.00
51.2828 2061.00
51.5871 2339.00
51.8914 1552.00
52.1956 1508.00
52.4999 1495.00
52.8041 1486.00
53.1084 1465.00
53.4127 1451.00
53.7169 1529.00
54.0212 1737.00
54.3254 3480.00
54.6297 2156.00
54.934 1807.00
55.2382 1824.00
55.5425 3216.00
55.8467 3980.00
56.151 3511.00
56.4553 2126.00
56.7595 1599.00
57.0638 1792.00
57.368 2591.00
57.6723 2319.00
57.9766 2030.00
58.2808 2396.00
58.5851 2409.00
58.8893 1759.00
59.1936 1808.00
59.4979 1687.00
59.8021 1831.00
60.1064 3456.00
60.4106 2790.00
60.7149 1755.00
61.0192 1617.00
61.3234 1765.00
61.6277 2897.00
61.932 2062.00
62.2362 2859.00
62.5405 1924.00
62.8447 1964.00
63.149 3333.00
63.4533 1810.00
63.7575 1550.00
64.0618 1578.00
64.366 1868.00
64.6703 1817.00
64.9745 1553.00
65.2788 1687.00
65.5831 2052.00
65.8873 2648.00
66.1916 2342.00
66.4959 1566.00
66.8001 1406.00
67.1044 1337.00
67.4086 1463.00
67.7129 1508.00
68.0172 1380.00
68.3214 1423.00
68.6257 1345.00
68.9299 1463.00
69.2342 1744.00
69.5385 1529.00
69.8427 1513.00
70.147 1449.00
70.4512 1545.00
70.7555 1488.00
71.0598 1532.00
71.364 2040.00
71.6683 1941.00
71.9725 1480.00
72.2768 1699.00
72.5811 1690.00
72.8853 1699.00
73.1896 1459.00
73.4938 1423.00
73.7981 1505.00
74.1024 1489.00
74.4066 1518.00
74.7109 1434.00
75.0151 1603.00
75.3194 2291.00
75.6237 1830.00
75.9279 1490.00
76.2322 1408.00
76.5364 1496.00
76.8407 1677.00
77.145 1532.00
77.4492 1538.00
77.7535 1666.00
78.0577 1489.00
78.362 1528.00
78.6663 1448.00
78.9705 1681.00
79.2748 1590.00
79.579 1464.00
79.8833 1362.00
80.1876 1382.00
80.4918 1297.00
80.7961 1450.00
81.1003 1334.00
81.4046 1476.00
81.7089 1540.00
82.0131 1659.00
82.3174 1515.00
82.6217 1670.00
82.9259 1747.00
83.2302 1784.00
83.5344 1763.00
83.8387 1618.00
84.143 1784.00
84.4472 1811.00
84.7515 1582.00
85.0557 1695.00
85.36 1533.00
85.6643 1460.00
85.9685 1459.00
86.2728 1604.00
86.577 1473.00
86.8813 1463.00
87.1856 1533.00
87.4898 1521.00
87.7941 1623.00
88.0983 1477.00
88.4026 1867.00
88.7069 2069.00
89.0111 1767.00
89.3154 1495.00
89.6196 1635.00
89.9239 1787.00
90.2282 1815.00
90.5324 1534.00
90.8367 1461.00
91.1409 1451.00
91.4452 1451.00
91.7495 1478.00
92.0537 1351.00
92.358 1357.00
92.6622 1395.00
92.9665 1379.00
93.2708 1420.00
93.575 1447.00
93.8793 1672.00
94.1835 1530.00
94.4878 1458.00
94.7921 1465.00
95.0963 1570.00
95.4006 1814.00
95.7048 1630.00
96.0091 1549.00
96.3134 1748.00
96.6176 1963.00
96.9219 1852.00
97.2261 1968.00
97.5304 1640.00
97.8347 1515.00
98.1389 1734.00
98.4432 1561.00
98.7474 1599.00
99.0517 1811.00
99.356 1745.00
99.6602 1953.00
99.9645 1708.00
100.095 1722.00