File: data/xrd_creation/results/PG_2139-1.xy
9.903433 2754.00
10.2077 2687.00
10.512 2558.00
10.8162 2560.00
11.1205 2408.00
11.4247 2498.00
11.729 2317.00
12.0333 2403.00
12.3375 2221.00
12.6418 2120.00
12.946 2266.00
13.2503 2053.00
13.5546 2078.00
13.8588 2044.00
14.1631 2026.00
14.4673 2056.00
14.7716 2019.00
15.0759 1988.00
15.3801 2147.00
15.6844 2982.00
15.9886 9335.00
16.2929 3008.00
16.5972 2079.00
16.9014 1951.00
17.2057 1900.00
17.5099 1870.00
17.8142 1839.00
18.1185 1834.00
18.4227 1750.00
18.727 1718.00
19.0312 1768.00
19.3355 1665.00
19.6398 1691.00
19.944 1589.00
20.2483 1640.00
20.5525 1599.00
20.8568 1612.00
21.1611 1614.00
21.4653 1603.00
21.7696 1407.00
22.0738 1583.00
22.3781 1589.00
22.6824 1476.00
22.9866 1607.00
23.2909 1520.00
23.5951 1493.00
23.8994 1526.00
24.2037 1475.00
24.5079 1546.00
24.8122 1431.00
25.1164 1491.00
25.4207 1470.00
25.725 1430.00
26.0292 1442.00
26.3335 1487.00
26.6378 1419.00
26.942 1606.00
27.2463 1888.00
27.5505 5743.00
27.8548 4245.00
28.1591 4391.00
28.4633 8522.00
28.7676 2052.00
29.0718 1584.00
29.3761 1450.00
29.6804 1411.00
29.9846 1355.00
30.2889 1280.00
30.5931 1272.00
30.8974 1333.00
31.2017 1366.00
31.5059 1421.00
31.8102 2002.00
32.1144 2275.00
32.4187 1439.00
32.723 1263.00
33.0272 1316.00
33.3315 1205.00
33.6357 1257.00
33.94 1203.00
34.2443 1181.00
34.5485 1248.00
34.8528 1257.00
35.157 1165.00
35.4613 1242.00
35.7656 1204.00
36.0698 1344.00
36.3741 1790.00
36.6783 1302.00
36.9826 1227.00
37.2869 1354.00
37.5911 3196.00
37.8954 1561.00
38.1996 1241.00
38.5039 1215.00
38.8082 1306.00
39.1124 1379.00
39.4167 1638.00
39.7209 5071.00
40.0252 4940.00
40.3295 1686.00
40.6337 1389.00
40.938 1216.00
41.2422 1180.00
41.5465 1143.00
41.8508 1263.00
42.155 1250.00
42.4593 1902.00
42.7635 1963.00
43.0678 1327.00
43.3721 1458.00
43.6763 5794.00
43.9806 1563.00
44.2849 1157.00
44.5891 1192.00
44.8934 1135.00
45.1976 1079.00
45.5019 1146.00
45.8062 1083.00
46.1104 1143.00
46.4147 1171.00
46.7189 1157.00
47.0232 1169.00
47.3275 1676.00
47.6317 1891.00
47.936 1404.00
48.2402 1690.00
48.5445 3674.00
48.8488 4614.00
49.153 5136.00
49.4573 1902.00
49.7615 1380.00
50.0658 1375.00
50.3701 1763.00
50.6743 1241.00
50.9786 1184.00
51.2828 1121.00
51.5871 1112.00
51.8914 1097.00
52.1956 1120.00
52.4999 1118.00
52.8041 1042.00
53.1084 1125.00
53.4127 1088.00
53.7169 1097.00
54.0212 1093.00
54.3254 1072.00
54.6297 1009.00
54.934 1088.00
55.2382 1244.00
55.5425 2178.00
55.8467 1875.00
56.151 1232.00
56.4553 1514.00
56.7595 1721.00
57.0638 1244.00
57.368 1068.00
57.6723 1076.00
57.9766 1246.00
58.2808 1413.00
58.5851 1156.00
58.8893 1270.00
59.1936 1443.00
59.4979 1156.00
59.8021 1035.00
60.1064 1140.00
60.4106 991.00
60.7149 1011.00
61.0192 1006.00
61.3234 1041.00
61.6277 1042.00
61.932 1059.00
62.2362 1010.00
62.5405 1087.00
62.8447 1140.00
63.149 2119.00
63.4533 1822.00
63.7575 1234.00
64.0618 1532.00
64.366 2329.00
64.6703 1564.00
64.9745 1279.00
65.2788 1364.00
65.5831 1456.00
65.8873 1111.00
66.1916 1240.00
66.4959 1239.00
66.8001 1017.00
67.1044 1004.00
67.4086 1044.00
67.7129 1070.00
68.0172 1088.00
68.3214 988.00
68.6257 1032.00
68.9299 1077.00
69.2342 1047.00
69.5385 1125.00
69.8427 1565.00
70.147 1777.00
70.4512 1308.00
70.7555 1108.00
71.0598 1227.00
71.364 1350.00
71.6683 1122.00
71.9725 988.00
72.2768 958.00
72.5811 1051.00
72.8853 1097.00
73.1896 1134.00
73.4938 1121.00
73.7981 1032.00
74.1024 1015.00
74.4066 1011.00
74.7109 998.00
75.0151 983.00
75.3194 1116.00
75.6237 1371.00
75.9279 1534.00
76.2322 1560.00
76.5364 1508.00
76.8407 1492.00
77.145 1441.00
77.4492 1666.00
77.7535 2218.00
78.0577 1843.00
78.362 1384.00
78.6663 1288.00
78.9705 1334.00
79.2748 1145.00
79.579 1302.00
79.8833 1300.00
80.1876 1091.00
80.4918 990.00
80.7961 1059.00
81.1003 1005.00
81.4046 1039.00
81.7089 1000.00
82.0131 1054.00
82.3174 1090.00
82.6217 1424.00
82.9259 1271.00
83.2302 1042.00
83.5344 962.00
83.8387 989.00
84.143 1073.00
84.4472 1014.00
84.7515 1001.00
85.0557 974.00
85.36 1106.00
85.6643 1041.00
85.9685 1041.00
86.2728 1033.00
86.577 990.00
86.8813 982.00
87.1856 1015.00
87.4898 984.00
87.7941 1017.00
88.0983 961.00
88.4026 1064.00
88.7069 1163.00
89.0111 1485.00
89.3154 1303.00
89.6196 1150.00
89.9239 1102.00
90.2282 1229.00
90.5324 1268.00
90.8367 1242.00
91.1409 1122.00
91.4452 1111.00
91.7495 1144.00
92.0537 1146.00
92.358 1044.00
92.6622 1034.00
92.9665 1047.00
93.2708 1024.00
93.575 1003.00
93.8793 991.00
94.1835 986.00
94.4878 958.00
94.7921 992.00
95.0963 1054.00
95.4006 1313.00
95.7048 1474.00
96.0091 1463.00
96.3134 1372.00
96.6176 1259.00
96.9219 1317.00
97.2261 1272.00
97.5304 1167.00
97.8347 1120.00
98.1389 1036.00
98.4432 1003.00
98.7474 1071.00
99.0517 1051.00
99.356 1053.00
99.6602 1031.00
99.9645 994.00
100.095 954.00