File: data/xrd_creation/results/PG_2647-1.xy
9.903433 2730.00
10.2077 2711.00
10.512 2597.00
10.8162 2543.00
11.1205 2391.00
11.4247 2248.00
11.729 2246.00
12.0333 2117.00
12.3375 2087.00
12.6418 2051.00
12.946 2106.00
13.2503 1962.00
13.5546 1958.00
13.8588 1896.00
14.1631 1902.00
14.4673 1924.00
14.7716 1850.00
15.0759 1814.00
15.3801 1801.00
15.6844 2095.00
15.9886 1787.00
16.2929 1752.00
16.5972 1754.00
16.9014 1772.00
17.2057 2007.00
17.5099 1650.00
17.8142 1591.00
18.1185 1662.00
18.4227 1618.00
18.727 1585.00
19.0312 1594.00
19.3355 1531.00
19.6398 1572.00
19.944 1565.00
20.2483 1773.00
20.5525 2300.00
20.8568 2217.00
21.1611 1458.00
21.4653 1452.00
21.7696 1482.00
22.0738 1823.00
22.3781 1396.00
22.6824 1434.00
22.9866 1452.00
23.2909 1415.00
23.5951 1398.00
23.8994 1405.00
24.2037 1360.00
24.5079 1406.00
24.8122 1372.00
25.1164 1333.00
25.4207 1307.00
25.725 1370.00
26.0292 1355.00
26.3335 1376.00
26.6378 1330.00
26.942 1344.00
27.2463 1389.00
27.5505 2994.00
27.8548 5932.00
28.1591 1421.00
28.4633 2879.00
28.7676 1386.00
29.0718 1444.00
29.3761 1745.00
29.6804 3538.00
29.9846 1340.00
30.2889 1249.00
30.5931 1229.00
30.8974 1269.00
31.2017 1423.00
31.5059 1216.00
31.8102 1229.00
32.1144 1135.00
32.4187 1147.00
32.723 1296.00
33.0272 2004.00
33.3315 1120.00
33.6357 1209.00
33.94 1420.00
34.2443 1204.00
34.5485 2095.00
34.8528 1178.00
35.157 1056.00
35.4613 1179.00
35.7656 1116.00
36.0698 1214.00
36.3741 1126.00
36.6783 1108.00
36.9826 1538.00
37.2869 1305.00
37.5911 1201.00
37.8954 1122.00
38.1996 1269.00
38.5039 1137.00
38.8082 1225.00
39.1124 1307.00
39.4167 1069.00
39.7209 1078.00
40.0252 1120.00
40.3295 1138.00
40.6337 1490.00
40.938 1239.00
41.2422 1398.00
41.5465 1188.00
41.8508 1387.00
42.155 1279.00
42.4593 1347.00
42.7635 1138.00
43.0678 1697.00
43.3721 1019.00
43.6763 1179.00
43.9806 1143.00
44.2849 1040.00
44.5891 1153.00
44.8934 1002.00
45.1976 1066.00
45.5019 1065.00
45.8062 1200.00
46.1104 1096.00
46.4147 1538.00
46.7189 1054.00
47.0232 999.00
47.3275 1092.00
47.6317 1318.00
47.936 1174.00
48.2402 1185.00
48.5445 1247.00
48.8488 1024.00
49.153 1050.00
49.4573 1015.00
49.7615 1064.00
50.0658 1081.00
50.3701 1066.00
50.6743 1053.00
50.9786 1055.00
51.2828 1203.00
51.5871 1164.00
51.8914 1403.00
52.1956 1199.00
52.4999 1164.00
52.8041 1316.00
53.1084 1051.00
53.4127 1038.00
53.7169 1056.00
54.0212 1467.00
54.3254 1058.00
54.6297 1295.00
54.934 1013.00
55.2382 998.00
55.5425 1059.00
55.8467 1129.00
56.151 1198.00
56.4553 1104.00
56.7595 1520.00
57.0638 1102.00
57.368 1087.00
57.6723 1141.00
57.9766 1095.00
58.2808 1012.00
58.5851 1100.00
58.8893 1004.00
59.1936 1065.00
59.4979 1930.00
59.8021 1237.00
60.1064 1532.00
60.4106 1120.00
60.7149 1161.00
61.0192 1243.00
61.3234 1522.00
61.6277 1165.00
61.932 1329.00
62.2362 1077.00
62.5405 978.00
62.8447 1024.00
63.149 1036.00
63.4533 1011.00
63.7575 1211.00
64.0618 1077.00
64.366 1147.00
64.6703 1194.00
64.9745 1617.00
65.2788 1261.00
65.5831 1123.00
65.8873 1109.00
66.1916 970.00
66.4959 1062.00
66.8001 1016.00
67.1044 1021.00
67.4086 1022.00
67.7129 964.00
68.0172 1102.00
68.3214 1005.00
68.6257 1058.00
68.9299 1159.00
69.2342 1433.00
69.5385 1075.00
69.8427 1070.00
70.147 1082.00
70.4512 1048.00
70.7555 1126.00
71.0598 1023.00
71.364 1115.00
71.6683 1019.00
71.9725 1074.00
72.2768 1159.00
72.5811 1053.00
72.8853 1104.00
73.1896 1124.00
73.4938 1198.00
73.7981 1068.00
74.1024 967.00
74.4066 1043.00
74.7109 1001.00
75.0151 1161.00
75.3194 1120.00
75.6237 1064.00
75.9279 1062.00
76.2322 1255.00
76.5364 1114.00
76.8407 1054.00
77.145 1069.00
77.4492 985.00
77.7535 1079.00
78.0577 1101.00
78.362 1103.00
78.6663 1075.00
78.9705 1075.00
79.2748 1078.00
79.579 1079.00
79.8833 1013.00
80.1876 1082.00
80.4918 1047.00
80.7961 1046.00
81.1003 1166.00
81.4046 1028.00
81.7089 1139.00
82.0131 1090.00
82.3174 1037.00
82.6217 1013.00
82.9259 1047.00
83.2302 1123.00
83.5344 1043.00
83.8387 1078.00
84.143 1090.00
84.4472 1053.00
84.7515 1059.00
85.0557 1065.00
85.36 1021.00
85.6643 1078.00
85.9685 1110.00
86.2728 1119.00
86.577 1051.00
86.8813 1034.00
87.1856 1174.00
87.4898 1190.00
87.7941 1120.00
88.0983 1053.00
88.4026 1049.00
88.7069 1044.00
89.0111 1065.00
89.3154 1029.00
89.6196 1111.00
89.9239 1102.00
90.2282 1005.00
90.5324 1054.00
90.8367 1111.00
91.1409 1097.00
91.4452 1053.00
91.7495 1120.00
92.0537 1274.00
92.358 1148.00
92.6622 1064.00
92.9665 1093.00
93.2708 1151.00
93.575 1162.00
93.8793 1145.00
94.1835 1143.00
94.4878 1111.00
94.7921 1156.00
95.0963 1107.00
95.4006 1095.00
95.7048 1064.00
96.0091 1090.00
96.3134 1087.00
96.6176 1094.00
96.9219 1161.00
97.2261 1063.00
97.5304 1057.00
97.8347 1032.00
98.1389 1078.00
98.4432 1061.00
98.7474 1019.00
99.0517 1072.00
99.356 1072.00
99.6602 1033.00
99.9645 1112.00
100.095 1089.00