File: data/xrd_creation/results/PG_2050-1.xy
9.903433 3104.00
10.2077 2833.00
10.512 2814.00
10.8162 2804.00
11.1205 2765.00
11.4247 2730.00
11.729 2553.00
12.0333 2437.00
12.3375 2488.00
12.6418 2353.00
12.946 2333.00
13.2503 2364.00
13.5546 2245.00
13.8588 2356.00
14.1631 2486.00
14.4673 2423.00
14.7716 2337.00
15.0759 2287.00
15.3801 2380.00
15.6844 2245.00
15.9886 2223.00
16.2929 2322.00
16.5972 2317.00
16.9014 2251.00
17.2057 2367.00
17.5099 2316.00
17.8142 3639.00
18.1185 2041.00
18.4227 2010.00
18.727 2127.00
19.0312 2035.00
19.3355 2036.00
19.6398 2017.00
19.944 1949.00
20.2483 1999.00
20.5525 2140.00
20.8568 4572.00
21.1611 2129.00
21.4653 1918.00
21.7696 1941.00
22.0738 1907.00
22.3781 1869.00
22.6824 1840.00
22.9866 1863.00
23.2909 1793.00
23.5951 1871.00
23.8994 1995.00
24.2037 7074.00
24.5079 2154.00
24.8122 1887.00
25.1164 1790.00
25.4207 1808.00
25.725 1740.00
26.0292 1725.00
26.3335 1738.00
26.6378 1855.00
26.942 1782.00
27.2463 1744.00
27.5505 1868.00
27.8548 1818.00
28.1591 1817.00
28.4633 1858.00
28.7676 2073.00
29.0718 2415.00
29.3761 6842.00
29.6804 19781.00
29.9846 2849.00
30.2889 1939.00
30.5931 1967.00
30.8974 2082.00
31.2017 9236.00
31.5059 1849.00
31.8102 1756.00
32.1144 1701.00
32.4187 1566.00
32.723 1719.00
33.0272 1671.00
33.3315 1601.00
33.6357 1724.00
33.94 2082.00
34.2443 10232.00
34.5485 2858.00
34.8528 1653.00
35.157 1610.00
35.4613 1587.00
35.7656 1819.00
36.0698 1677.00
36.3741 2986.00
36.6783 1464.00
36.9826 1539.00
37.2869 1442.00
37.5911 1387.00
37.8954 1474.00
38.1996 1540.00
38.5039 1755.00
38.8082 2432.00
39.1124 1413.00
39.4167 1446.00
39.7209 1445.00
40.0252 1592.00
40.3295 2991.00
40.6337 1471.00
40.938 1526.00
41.2422 1400.00
41.5465 1419.00
41.8508 1372.00
42.155 1682.00
42.4593 1427.00
42.7635 1405.00
43.0678 1388.00
43.3721 1406.00
43.6763 1682.00
43.9806 3402.00
44.2849 1501.00
44.5891 1395.00
44.8934 1362.00
45.1976 1322.00
45.5019 1409.00
45.8062 1427.00
46.1104 2327.00
46.4147 1462.00
46.7189 1884.00
47.0232 3935.00
47.3275 2321.00
47.6317 1528.00
47.936 1446.00
48.2402 1627.00
48.5445 1763.00
48.8488 9147.00
49.153 3885.00
49.4573 1584.00
49.7615 1388.00
50.0658 1387.00
50.3701 1450.00
50.6743 1698.00
50.9786 1348.00
51.2828 1311.00
51.5871 1346.00
51.8914 1364.00
52.1956 1480.00
52.4999 1322.00
52.8041 1377.00
53.1084 1337.00
53.4127 1528.00
53.7169 2331.00
54.0212 1347.00
54.3254 1438.00
54.6297 1337.00
54.934 1314.00
55.2382 1524.00
55.5425 1686.00
55.8467 1402.00
56.151 1374.00
56.4553 1811.00
56.7595 1816.00
57.0638 1376.00
57.368 1372.00
57.6723 1773.00
57.9766 10335.00
58.2808 2355.00
58.5851 1476.00
58.8893 1765.00
59.1936 2689.00
59.4979 2511.00
59.8021 1375.00
60.1064 1289.00
60.4106 1420.00
60.7149 1819.00
61.0192 1924.00
61.3234 1299.00
61.6277 1310.00
61.932 1372.00
62.2362 1794.00
62.5405 1260.00
62.8447 1293.00
63.149 1244.00
63.4533 1317.00
63.7575 1435.00
64.0618 1310.00
64.366 2178.00
64.6703 1347.00
64.9745 1819.00
65.2788 1300.00
65.5831 1225.00
65.8873 1286.00
66.1916 1658.00
66.4959 1385.00
66.8001 1221.00
67.1044 1183.00
67.4086 1172.00
67.7129 1234.00
68.0172 1219.00
68.3214 1172.00
68.6257 1219.00
68.9299 1292.00
69.2342 1241.00
69.5385 1272.00
69.8427 1350.00
70.147 2080.00
70.4512 1332.00
70.7555 1147.00
71.0598 1274.00
71.364 2179.00
71.6683 1792.00
71.9725 1421.00
72.2768 1228.00
72.5811 1644.00
72.8853 1807.00
73.1896 1199.00
73.4938 1198.00
73.7981 1311.00
74.1024 1493.00
74.4066 1318.00
74.7109 1458.00
75.0151 1679.00
75.3194 1419.00
75.6237 1189.00
75.9279 1184.00
76.2322 1272.00
76.5364 1377.00
76.8407 1260.00
77.145 1225.00
77.4492 1222.00
77.7535 1866.00
78.0577 1359.00
78.362 1310.00
78.6663 1379.00
78.9705 2782.00
79.2748 1579.00
79.579 1281.00
79.8833 1516.00
80.1876 1996.00
80.4918 1405.00
80.7961 1204.00
81.1003 1242.00
81.4046 2472.00
81.7089 1504.00
82.0131 1482.00
82.3174 1230.00
82.6217 1576.00
82.9259 1346.00
83.2302 1218.00
83.5344 1193.00
83.8387 1460.00
84.143 1320.00
84.4472 1233.00
84.7515 1225.00
85.0557 1707.00
85.36 1370.00
85.6643 1170.00
85.9685 1264.00
86.2728 1293.00
86.577 1100.00
86.8813 1224.00
87.1856 1257.00
87.4898 1690.00
87.7941 1407.00
88.0983 1142.00
88.4026 1184.00
88.7069 1173.00
89.0111 1225.00
89.3154 1196.00
89.6196 1264.00
89.9239 1607.00
90.2282 1336.00
90.5324 1288.00
90.8367 1319.00
91.1409 1889.00
91.4452 1441.00
91.7495 1235.00
92.0537 1328.00
92.358 1508.00
92.6622 1329.00
92.9665 1137.00
93.2708 1272.00
93.575 1372.00
93.8793 1242.00
94.1835 1191.00
94.4878 1266.00
94.7921 1269.00
95.0963 1250.00
95.4006 1284.00
95.7048 1329.00
96.0091 1592.00
96.3134 1434.00
96.6176 1344.00
96.9219 1268.00
97.2261 1231.00
97.5304 1265.00
97.8347 1286.00
98.1389 1391.00
98.4432 1571.00
98.7474 1446.00
99.0517 1316.00
99.356 1474.00
99.6602 1532.00
99.9645 1394.00
100.095 1389.00