File: data/xrd_creation/results/PG_2038-1.xy
9.903433 3188.00
10.2077 3073.00
10.512 2978.00
10.8162 2893.00
11.1205 2793.00
11.4247 2802.00
11.729 2748.00
12.0333 2659.00
12.3375 2681.00
12.6418 2735.00
12.946 2652.00
13.2503 2553.00
13.5546 2572.00
13.8588 2534.00
14.1631 2520.00
14.4673 2443.00
14.7716 2346.00
15.0759 2435.00
15.3801 2306.00
15.6844 2312.00
15.9886 2273.00
16.2929 2378.00
16.5972 2265.00
16.9014 2212.00
17.2057 2320.00
17.5099 2547.00
17.8142 3711.00
18.1185 2112.00
18.4227 2104.00
18.727 2168.00
19.0312 2090.00
19.3355 2095.00
19.6398 2056.00
19.944 2024.00
20.2483 1938.00
20.5525 1931.00
20.8568 1993.00
21.1611 1919.00
21.4653 1919.00
21.7696 1979.00
22.0738 1998.00
22.3781 2146.00
22.6824 2871.00
22.9866 19933.00
23.2909 2458.00
23.5951 2176.00
23.8994 2323.00
24.2037 14051.00
24.5079 2214.00
24.8122 1967.00
25.1164 1881.00
25.4207 1973.00
25.725 1839.00
26.0292 2087.00
26.3335 1825.00
26.6378 1882.00
26.942 1804.00
27.2463 1869.00
27.5505 1907.00
27.8548 1906.00
28.1591 2209.00
28.4633 3710.00
28.7676 13659.00
29.0718 3677.00
29.3761 5847.00
29.6804 2208.00
29.9846 2819.00
30.2889 1905.00
30.5931 1859.00
30.8974 2715.00
31.2017 4688.00
31.5059 1767.00
31.8102 1678.00
32.1144 1619.00
32.4187 1649.00
32.723 1553.00
33.0272 1823.00
33.3315 1695.00
33.6357 1617.00
33.94 1602.00
34.2443 2330.00
34.5485 1668.00
34.8528 1754.00
35.157 1611.00
35.4613 1710.00
35.7656 1613.00
36.0698 1648.00
36.3741 1672.00
36.6783 2115.00
36.9826 6346.00
37.2869 3157.00
37.5911 1803.00
37.8954 1460.00
38.1996 1395.00
38.5039 2051.00
38.8082 3237.00
39.1124 1428.00
39.4167 1421.00
39.7209 1433.00
40.0252 1363.00
40.3295 1426.00
40.6337 1294.00
40.938 1817.00
41.2422 1424.00
41.5465 1346.00
41.8508 1287.00
42.155 1388.00
42.4593 1403.00
42.7635 1603.00
43.0678 1750.00
43.3721 1444.00
43.6763 1393.00
43.9806 1408.00
44.2849 1326.00
44.5891 1365.00
44.8934 1479.00
45.1976 1548.00
45.5019 2055.00
45.8062 1530.00
46.1104 3002.00
46.4147 3854.00
46.7189 3826.00
47.0232 1831.00
47.3275 1467.00
47.6317 1414.00
47.936 1656.00
48.2402 1459.00
48.5445 1509.00
48.8488 1515.00
49.153 1741.00
49.4573 1631.00
49.7615 1677.00
50.0658 3064.00
50.3701 1941.00
50.6743 1625.00
50.9786 1969.00
51.2828 4005.00
51.5871 1764.00
51.8914 1552.00
52.1956 1355.00
52.4999 1515.00
52.8041 1368.00
53.1084 1457.00
53.4127 1370.00
53.7169 1345.00
54.0212 1475.00
54.3254 1583.00
54.6297 1374.00
54.934 1477.00
55.2382 2397.00
55.5425 4399.00
55.8467 3023.00
56.151 1608.00
56.4553 1730.00
56.7595 2864.00
57.0638 1429.00
57.368 1477.00
57.6723 1419.00
57.9766 1411.00
58.2808 1393.00
58.5851 1599.00
58.8893 2779.00
59.1936 2248.00
59.4979 1370.00
59.8021 1417.00
60.1064 1708.00
60.4106 1583.00
60.7149 1274.00
61.0192 1314.00
61.3234 1506.00
61.6277 1353.00
61.932 1432.00
62.2362 1304.00
62.5405 1488.00
62.8447 1292.00
63.149 1311.00
63.4533 1413.00
63.7575 1735.00
64.0618 2226.00
64.366 1877.00
64.6703 1411.00
64.9745 1384.00
65.2788 1470.00
65.5831 1317.00
65.8873 1294.00
66.1916 1326.00
66.4959 1418.00
66.8001 1397.00
67.1044 1385.00
67.4086 1470.00
67.7129 1392.00
68.0172 1354.00
68.3214 1296.00
68.6257 1364.00
68.9299 1409.00
69.2342 1313.00
69.5385 1250.00
69.8427 1371.00
70.147 1673.00
70.4512 1871.00
70.7555 1633.00
71.0598 1378.00
71.364 2042.00
71.6683 1791.00
71.9725 1349.00
72.2768 1375.00
72.5811 1318.00
72.8853 1187.00
73.1896 1224.00
73.4938 1298.00
73.7981 1260.00
74.1024 1225.00
74.4066 1278.00
74.7109 1960.00
75.0151 1488.00
75.3194 1193.00
75.6237 1252.00
75.9279 1226.00
76.2322 1207.00
76.5364 1278.00
76.8407 1347.00
77.145 1358.00
77.4492 1226.00
77.7535 1357.00
78.0577 1680.00
78.362 1413.00
78.6663 1449.00
78.9705 1387.00
79.2748 1451.00
79.579 1539.00
79.8833 1504.00
80.1876 1712.00
80.4918 1516.00
80.7961 1315.00
81.1003 1222.00
81.4046 1311.00
81.7089 1384.00
82.0131 1413.00
82.3174 1304.00
82.6217 1426.00
82.9259 1283.00
83.2302 1289.00
83.5344 1288.00
83.8387 1263.00
84.143 1244.00
84.4472 1225.00
84.7515 1405.00
85.0557 1379.00
85.36 1244.00
85.6643 1412.00
85.9685 1298.00
86.2728 1255.00
86.577 1205.00
86.8813 1274.00
87.1856 1221.00
87.4898 1275.00
87.7941 1139.00
88.0983 1208.00
88.4026 1194.00
88.7069 1227.00
89.0111 1202.00
89.3154 1256.00
89.6196 1242.00
89.9239 1186.00
90.2282 1178.00
90.5324 1087.00
90.8367 1234.00
91.1409 1310.00
91.4452 1191.00
91.7495 1119.00
92.0537 1091.00
92.358 1248.00
92.6622 1269.00
92.9665 1264.00
93.2708 1249.00
93.575 1321.00
93.8793 1311.00
94.1835 1309.00
94.4878 1388.00
94.7921 1422.00
95.0963 1258.00
95.4006 1314.00
95.7048 1273.00
96.0091 1279.00
96.3134 1288.00
96.6176 1409.00
96.9219 1328.00
97.2261 1204.00
97.5304 1209.00
97.8347 1335.00
98.1389 1355.00
98.4432 1343.00
98.7474 1289.00
99.0517 1264.00
99.356 1479.00
99.6602 1498.00
99.9645 1494.00
100.095 1571.00