File: data/xrd_creation/results/PG_2552-1.xy
9.903433 2760.00
10.2077 2697.00
10.512 2522.00
10.8162 2428.00
11.1205 2412.00
11.4247 2331.00
11.729 2342.00
12.0333 2159.00
12.3375 2218.00
12.6418 2068.00
12.946 2083.00
13.2503 2108.00
13.5546 1938.00
13.8588 1934.00
14.1631 2037.00
14.4673 2032.00
14.7716 2081.00
15.0759 2032.00
15.3801 1953.00
15.6844 1853.00
15.9886 1921.00
16.2929 1860.00
16.5972 1896.00
16.9014 1953.00
17.2057 1958.00
17.5099 2094.00
17.8142 2023.00
18.1185 1794.00
18.4227 1804.00
18.727 1736.00
19.0312 1760.00
19.3355 1735.00
19.6398 1694.00
19.944 1767.00
20.2483 1748.00
20.5525 1678.00
20.8568 1664.00
21.1611 1766.00
21.4653 1690.00
21.7696 1692.00
22.0738 1617.00
22.3781 1628.00
22.6824 1626.00
22.9866 1656.00
23.2909 1608.00
23.5951 1592.00
23.8994 1785.00
24.2037 2851.00
24.5079 2293.00
24.8122 2235.00
25.1164 1586.00
25.4207 1649.00
25.725 1606.00
26.0292 1541.00
26.3335 1532.00
26.6378 1560.00
26.942 1589.00
27.2463 1644.00
27.5505 1590.00
27.8548 1796.00
28.1591 4386.00
28.4633 10769.00
28.7676 2029.00
29.0718 1605.00
29.3761 1634.00
29.6804 1469.00
29.9846 1517.00
30.2889 1550.00
30.5931 1576.00
30.8974 1643.00
31.2017 1712.00
31.5059 4813.00
31.8102 5829.00
32.1144 1670.00
32.4187 1519.00
32.723 1454.00
33.0272 1435.00
33.3315 1380.00
33.6357 1451.00
33.94 1539.00
34.2443 2955.00
34.5485 3025.00
34.8528 1919.00
35.157 1567.00
35.4613 2732.00
35.7656 1639.00
36.0698 1663.00
36.3741 1375.00
36.6783 1402.00
36.9826 1478.00
37.2869 1413.00
37.5911 1397.00
37.8954 1283.00
38.1996 1373.00
38.5039 1427.00
38.8082 1967.00
39.1124 1399.00
39.4167 1325.00
39.7209 1388.00
40.0252 1342.00
40.3295 1397.00
40.6337 1444.00
40.938 2754.00
41.2422 1903.00
41.5465 1904.00
41.8508 1513.00
42.155 1384.00
42.4593 1262.00
42.7635 1398.00
43.0678 3737.00
43.3721 1697.00
43.6763 1287.00
43.9806 1256.00
44.2849 1239.00
44.5891 1314.00
44.8934 1738.00
45.1976 1703.00
45.5019 1597.00
45.8062 2049.00
46.1104 1333.00
46.4147 1219.00
46.7189 1269.00
47.0232 1208.00
47.3275 1310.00
47.6317 1245.00
47.936 1221.00
48.2402 1163.00
48.5445 1295.00
48.8488 1333.00
49.153 1792.00
49.4573 3437.00
49.7615 1690.00
50.0658 1753.00
50.3701 4165.00
50.6743 2673.00
50.9786 2001.00
51.2828 1650.00
51.5871 1613.00
51.8914 1336.00
52.1956 1161.00
52.4999 1224.00
52.8041 1152.00
53.1084 1209.00
53.4127 1173.00
53.7169 1216.00
54.0212 1785.00
54.3254 2614.00
54.6297 1412.00
54.934 1387.00
55.2382 1617.00
55.5425 2941.00
55.8467 2399.00
56.151 2256.00
56.4553 1441.00
56.7595 1332.00
57.0638 1449.00
57.368 2303.00
57.6723 1480.00
57.9766 1539.00
58.2808 1720.00
58.5851 1635.00
58.8893 1282.00
59.1936 1309.00
59.4979 1237.00
59.8021 1644.00
60.1064 2700.00
60.4106 1847.00
60.7149 1312.00
61.0192 1253.00
61.3234 1544.00
61.6277 1783.00
61.932 1695.00
62.2362 2248.00
62.5405 2981.00
62.8447 1966.00
63.149 2126.00
63.4533 1357.00
63.7575 1195.00
64.0618 1271.00
64.366 1447.00
64.6703 1340.00
64.9745 1248.00
65.2788 1319.00
65.5831 1666.00
65.8873 2108.00
66.1916 1524.00
66.4959 1282.00
66.8001 1109.00
67.1044 1166.00
67.4086 1179.00
67.7129 1114.00
68.0172 1123.00
68.3214 1180.00
68.6257 1149.00
68.9299 1277.00
69.2342 1419.00
69.5385 1196.00
69.8427 1216.00
70.147 1280.00
70.4512 1202.00
70.7555 1181.00
71.0598 1398.00
71.364 1751.00
71.6683 1414.00
71.9725 1258.00
72.2768 1430.00
72.5811 1375.00
72.8853 1312.00
73.1896 1206.00
73.4938 1298.00
73.7981 1206.00
74.1024 1189.00
74.4066 1175.00
74.7109 1477.00
75.0151 1576.00
75.3194 1691.00
75.6237 1424.00
75.9279 1190.00
76.2322 1190.00
76.5364 1323.00
76.8407 1392.00
77.145 1229.00
77.4492 1337.00
77.7535 1310.00
78.0577 1316.00
78.362 1342.00
78.6663 1522.00
78.9705 1635.00
79.2748 1425.00
79.579 1101.00
79.8833 1163.00
80.1876 1124.00
80.4918 1216.00
80.7961 1157.00
81.1003 1112.00
81.4046 1299.00
81.7089 1357.00
82.0131 1362.00
82.3174 1190.00
82.6217 1372.00
82.9259 1396.00
83.2302 1516.00
83.5344 1482.00
83.8387 1334.00
84.143 1528.00
84.4472 1355.00
84.7515 1296.00
85.0557 1402.00
85.36 1234.00
85.6643 1189.00
85.9685 1212.00
86.2728 1301.00
86.577 1291.00
86.8813 1193.00
87.1856 1170.00
87.4898 1325.00
87.7941 1352.00
88.0983 1482.00
88.4026 1515.00
88.7069 1597.00
89.0111 1389.00
89.3154 1213.00
89.6196 1429.00
89.9239 1569.00
90.2282 1359.00
90.5324 1230.00
90.8367 1229.00
91.1409 1247.00
91.4452 1310.00
91.7495 1154.00
92.0537 1133.00
92.358 1124.00
92.6622 1092.00
92.9665 1210.00
93.2708 1195.00
93.575 1251.00
93.8793 1393.00
94.1835 1427.00
94.4878 1363.00
94.7921 1314.00
95.0963 1394.00
95.4006 1396.00
95.7048 1290.00
96.0091 1392.00
96.3134 1424.00
96.6176 1746.00
96.9219 1661.00
97.2261 1492.00
97.5304 1319.00
97.8347 1179.00
98.1389 1323.00
98.4432 1320.00
98.7474 1502.00
99.0517 1472.00
99.356 1476.00
99.6602 1596.00
99.9645 1340.00
100.095 1392.00