File: data/xrd_creation/results/PG_2743-1.xy
9.903433 3896.00
10.2077 4034.00
10.512 3814.00
10.8162 3855.00
11.1205 3807.00
11.4247 3819.00
11.729 3749.00
12.0333 3640.00
12.3375 3732.00
12.6418 3602.00
12.946 3635.00
13.2503 3739.00
13.5546 3599.00
13.8588 3526.00
14.1631 3648.00
14.4673 3548.00
14.7716 3641.00
15.0759 3587.00
15.3801 3543.00
15.6844 3606.00
15.9886 3659.00
16.2929 3716.00
16.5972 3745.00
16.9014 3594.00
17.2057 3584.00
17.5099 3622.00
17.8142 3489.00
18.1185 3604.00
18.4227 3727.00
18.727 3580.00
19.0312 3672.00
19.3355 3648.00
19.6398 3638.00
19.944 3763.00
20.2483 3679.00
20.5525 3685.00
20.8568 3529.00
21.1611 3667.00
21.4653 3718.00
21.7696 3826.00
22.0738 3724.00
22.3781 3682.00
22.6824 3650.00
22.9866 3549.00
23.2909 4247.00
23.5951 3742.00
23.8994 3629.00
24.2037 3483.00
24.5079 3352.00
24.8122 3500.00
25.1164 3581.00
25.4207 3363.00
25.725 3537.00
26.0292 3269.00
26.3335 3299.00
26.6378 3308.00
26.942 3263.00
27.2463 3402.00
27.5505 3266.00
27.8548 3285.00
28.1591 3222.00
28.4633 3243.00
28.7676 3259.00
29.0718 3210.00
29.3761 3217.00
29.6804 3207.00
29.9846 3200.00
30.2889 3134.00
30.5931 3149.00
30.8974 3183.00
31.2017 3081.00
31.5059 3116.00
31.8102 3105.00
32.1144 3161.00
32.4187 3208.00
32.723 3543.00
33.0272 4422.00
33.3315 13220.00
33.6357 3324.00
33.94 3105.00
34.2443 3068.00
34.5485 3085.00
34.8528 3048.00
35.157 3109.00
35.4613 3087.00
35.7656 3063.00
36.0698 3123.00
36.3741 3648.00
36.6783 3067.00
36.9826 3006.00
37.2869 2952.00
37.5911 3033.00
37.8954 2972.00
38.1996 3122.00
38.5039 5759.00
38.8082 3238.00
39.1124 2927.00
39.4167 2878.00
39.7209 2960.00
40.0252 2939.00
40.3295 2865.00
40.6337 2867.00
40.938 3076.00
41.2422 2964.00
41.5465 2799.00
41.8508 2988.00
42.155 2964.00
42.4593 3057.00
42.7635 3007.00
43.0678 2882.00
43.3721 2890.00
43.6763 2843.00
43.9806 2845.00
44.2849 2819.00
44.5891 2967.00
44.8934 2844.00
45.1976 2908.00
45.5019 3631.00
45.8062 2952.00
46.1104 2844.00
46.4147 2873.00
46.7189 2783.00
47.0232 3008.00
47.3275 2843.00
47.6317 2883.00
47.936 2766.00
48.2402 2838.00
48.5445 2908.00
48.8488 2918.00
49.153 2920.00
49.4573 3092.00
49.7615 3462.00
50.0658 2949.00
50.3701 2843.00
50.6743 2839.00
50.9786 2975.00
51.2828 2770.00
51.5871 2771.00
51.8914 2716.00
52.1956 2815.00
52.4999 2982.00
52.8041 2736.00
53.1084 2869.00
53.4127 2779.00
53.7169 2901.00
54.0212 2782.00
54.3254 2896.00
54.6297 2900.00
54.934 2910.00
55.2382 3460.00
55.5425 6548.00
55.8467 3052.00
56.151 2864.00
56.4553 2767.00
56.7595 2815.00
57.0638 2786.00
57.368 2979.00
57.6723 2726.00
57.9766 2828.00
58.2808 2881.00
58.5851 2777.00
58.8893 2938.00
59.1936 2878.00
59.4979 2810.00
59.8021 2865.00
60.1064 3198.00
60.4106 2796.00
60.7149 3001.00
61.0192 2946.00
61.3234 2766.00
61.6277 2797.00
61.932 2798.00
62.2362 2764.00
62.5405 2852.00
62.8447 2811.00
63.149 2813.00
63.4533 2905.00
63.7575 2803.00
64.0618 2842.00
64.366 3276.00
64.6703 2892.00
64.9745 2848.00
65.2788 2865.00
65.5831 2957.00
65.8873 3923.00
66.1916 4240.00
66.4959 2966.00
66.8001 2833.00
67.1044 2765.00
67.4086 2852.00
67.7129 3304.00
68.0172 2792.00
68.3214 2753.00
68.6257 2866.00
68.9299 2752.00
69.2342 2914.00
69.5385 2994.00
69.8427 2709.00
70.147 2761.00
70.4512 2728.00
70.7555 2770.00
71.0598 2664.00
71.364 2779.00
71.6683 2821.00
71.9725 2786.00
72.2768 2696.00
72.5811 2872.00
72.8853 2846.00
73.1896 2757.00
73.4938 2784.00
73.7981 2711.00
74.1024 2962.00
74.4066 2877.00
74.7109 2695.00
75.0151 2778.00
75.3194 2759.00
75.6237 2758.00
75.9279 2802.00
76.2322 2759.00
76.5364 2801.00
76.8407 2705.00
77.145 2776.00
77.4492 2685.00
77.7535 2801.00
78.0577 2852.00
78.362 2725.00
78.6663 2776.00
78.9705 2687.00
79.2748 2743.00
79.579 2679.00
79.8833 2747.00
80.1876 2776.00
80.4918 2879.00
80.7961 2729.00
81.1003 2701.00
81.4046 2787.00
81.7089 2794.00
82.0131 3083.00
82.3174 2774.00
82.6217 2807.00
82.9259 2819.00
83.2302 2766.00
83.5344 3056.00
83.8387 2800.00
84.143 2684.00
84.4472 2680.00
84.7515 2772.00
85.0557 2889.00
85.36 2800.00
85.6643 2712.00
85.9685 2805.00
86.2728 2657.00
86.577 2834.00
86.8813 2794.00
87.1856 2836.00
87.4898 2785.00
87.7941 2718.00
88.0983 2750.00
88.4026 2785.00
88.7069 2749.00
89.0111 2678.00
89.3154 2756.00
89.6196 2863.00
89.9239 2815.00
90.2282 2648.00
90.5324 2772.00
90.8367 2968.00
91.1409 3104.00
91.4452 3059.00
91.7495 2795.00
92.0537 2771.00
92.358 2818.00
92.6622 2772.00
92.9665 2688.00
93.2708 2721.00
93.575 2582.00
93.8793 2722.00
94.1835 2897.00
94.4878 2878.00
94.7921 2735.00
95.0963 2807.00
95.4006 2714.00
95.7048 2692.00
96.0091 2788.00
96.3134 2647.00
96.6176 2702.00
96.9219 2739.00
97.2261 2705.00
97.5304 2733.00
97.8347 2705.00
98.1389 2676.00
98.4432 2746.00
98.7474 2794.00
99.0517 2760.00
99.356 2664.00
99.6602 2830.00
99.9645 2679.00
100.095 2607.00