File: data/xrd_creation/results/PG_2141-1.xy
9.903433 2647.00
10.2077 2444.00
10.512 2487.00
10.8162 2314.00
11.1205 2365.00
11.4247 2203.00
11.729 2155.00
12.0333 2144.00
12.3375 1994.00
12.6418 1936.00
12.946 2003.00
13.2503 1841.00
13.5546 1844.00
13.8588 2144.00
14.1631 2180.00
14.4673 1785.00
14.7716 1760.00
15.0759 1690.00
15.3801 1976.00
15.6844 2976.00
15.9886 7603.00
16.2929 2032.00
16.5972 1681.00
16.9014 1577.00
17.2057 1461.00
17.5099 1561.00
17.8142 1409.00
18.1185 1418.00
18.4227 1387.00
18.727 1315.00
19.0312 1360.00
19.3355 1330.00
19.6398 1281.00
19.944 1334.00
20.2483 1294.00
20.5525 1272.00
20.8568 1250.00
21.1611 1198.00
21.4653 1175.00
21.7696 1126.00
22.0738 1115.00
22.3781 1097.00
22.6824 1077.00
22.9866 1048.00
23.2909 1066.00
23.5951 1118.00
23.8994 1063.00
24.2037 1010.00
24.5079 963.00
24.8122 989.00
25.1164 1003.00
25.4207 1002.00
25.725 1080.00
26.0292 973.00
26.3335 983.00
26.6378 1034.00
26.942 1094.00
27.2463 1613.00
27.5505 6008.00
27.8548 5769.00
28.1591 6938.00
28.4633 3763.00
28.7676 1674.00
29.0718 990.00
29.3761 967.00
29.6804 973.00
29.9846 893.00
30.2889 811.00
30.5931 796.00
30.8974 907.00
31.2017 826.00
31.5059 896.00
31.8102 1628.00
32.1144 1462.00
32.4187 7236.00
32.723 883.00
33.0272 795.00
33.3315 733.00
33.6357 638.00
33.94 667.00
34.2443 726.00
34.5485 662.00
34.8528 657.00
35.157 781.00
35.4613 1461.00
35.7656 714.00
36.0698 695.00
36.3741 941.00
36.6783 616.00
36.9826 632.00
37.2869 585.00
37.5911 562.00
37.8954 540.00
38.1996 610.00
38.5039 632.00
38.8082 586.00
39.1124 692.00
39.4167 1058.00
39.7209 4664.00
40.0252 2041.00
40.3295 777.00
40.6337 611.00
40.938 554.00
41.2422 551.00
41.5465 562.00
41.8508 566.00
42.155 622.00
42.4593 1427.00
42.7635 825.00
43.0678 513.00
43.3721 512.00
43.6763 557.00
43.9806 500.00
44.2849 486.00
44.5891 559.00
44.8934 504.00
45.1976 492.00
45.5019 552.00
45.8062 568.00
46.1104 976.00
46.4147 4505.00
46.7189 653.00
47.0232 606.00
47.3275 1225.00
47.6317 819.00
47.936 661.00
48.2402 1013.00
48.5445 2522.00
48.8488 3386.00
49.153 2135.00
49.4573 761.00
49.7615 592.00
50.0658 749.00
50.3701 886.00
50.6743 530.00
50.9786 548.00
51.2828 440.00
51.5871 446.00
51.8914 440.00
52.1956 449.00
52.4999 419.00
52.8041 415.00
53.1084 451.00
53.4127 465.00
53.7169 446.00
54.0212 468.00
54.3254 538.00
54.6297 912.00
54.934 3584.00
55.2382 758.00
55.5425 1447.00
55.8467 773.00
56.151 568.00
56.4553 842.00
56.7595 749.00
57.0638 548.00
57.368 919.00
57.6723 910.00
57.9766 612.00
58.2808 604.00
58.5851 443.00
58.8893 591.00
59.1936 700.00
59.4979 871.00
59.8021 431.00
60.1064 407.00
60.4106 406.00
60.7149 383.00
61.0192 403.00
61.3234 368.00
61.6277 344.00
61.932 349.00
62.2362 347.00
62.5405 371.00
62.8447 346.00
63.149 368.00
63.4533 389.00
63.7575 425.00
64.0618 709.00
64.366 1683.00
64.6703 639.00
64.9745 482.00
65.2788 574.00
65.5831 528.00
65.8873 404.00
66.1916 464.00
66.4959 405.00
66.8001 353.00
67.1044 422.00
67.4086 733.00
67.7129 438.00
68.0172 351.00
68.3214 338.00
68.6257 370.00
68.9299 433.00
69.2342 564.00
69.5385 464.00
69.8427 825.00
70.147 791.00
70.4512 477.00
70.7555 383.00
71.0598 494.00
71.364 471.00
71.6683 371.00
71.9725 416.00
72.2768 378.00
72.5811 379.00
72.8853 405.00
73.1896 423.00
73.4938 353.00
73.7981 418.00
74.1024 471.00
74.4066 914.00
74.7109 481.00
75.0151 319.00
75.3194 372.00
75.6237 359.00
75.9279 502.00
76.2322 715.00
76.5364 2051.00
76.8407 1083.00
77.145 666.00
77.4492 877.00
77.7535 1094.00
78.0577 786.00
78.362 585.00
78.6663 522.00
78.9705 478.00
79.2748 381.00
79.579 341.00
79.8833 297.00
80.1876 286.00
80.4918 317.00
80.7961 357.00
81.1003 328.00
81.4046 316.00
81.7089 348.00
82.0131 347.00
82.3174 433.00
82.6217 634.00
82.9259 519.00
83.2302 348.00
83.5344 298.00
83.8387 287.00
84.143 287.00
84.4472 329.00
84.7515 366.00
85.0557 366.00
85.36 818.00
85.6643 803.00
85.9685 335.00
86.2728 319.00
86.577 332.00
86.8813 343.00
87.1856 402.00
87.4898 310.00
87.7941 298.00
88.0983 298.00
88.4026 342.00
88.7069 494.00
89.0111 598.00
89.3154 492.00
89.6196 403.00
89.9239 424.00
90.2282 433.00
90.5324 509.00
90.8367 483.00
91.1409 452.00
91.4452 1006.00
91.7495 758.00
92.0537 723.00
92.358 530.00
92.6622 333.00
92.9665 326.00
93.2708 301.00
93.575 319.00
93.8793 349.00
94.1835 315.00
94.4878 303.00
94.7921 338.00
95.0963 354.00
95.4006 470.00
95.7048 603.00
96.0091 620.00
96.3134 522.00
96.6176 461.00
96.9219 489.00
97.2261 451.00
97.5304 387.00
97.8347 334.00
98.1389 321.00
98.4432 299.00
98.7474 356.00
99.0517 315.00
99.356 292.00
99.6602 296.00
99.9645 324.00
100.095 357.00