File: data/xrd_creation/results/PG_2744-1.xy
9.903433 2580.00
10.2077 2566.00
10.512 2591.00
10.8162 2456.00
11.1205 2337.00
11.4247 2316.00
11.729 2261.00
12.0333 2164.00
12.3375 2109.00
12.6418 2024.00
12.946 1985.00
13.2503 1829.00
13.5546 1855.00
13.8588 1797.00
14.1631 1799.00
14.4673 1755.00
14.7716 1828.00
15.0759 1775.00
15.3801 1742.00
15.6844 1728.00
15.9886 1713.00
16.2929 1631.00
16.5972 1660.00
16.9014 1627.00
17.2057 1620.00
17.5099 1559.00
17.8142 1545.00
18.1185 1573.00
18.4227 1651.00
18.727 1512.00
19.0312 1481.00
19.3355 1514.00
19.6398 1393.00
19.944 1451.00
20.2483 1408.00
20.5525 1368.00
20.8568 1353.00
21.1611 1314.00
21.4653 1347.00
21.7696 1267.00
22.0738 1308.00
22.3781 1213.00
22.6824 1287.00
22.9866 1246.00
23.2909 1235.00
23.5951 1238.00
23.8994 1180.00
24.2037 1231.00
24.5079 1220.00
24.8122 1176.00
25.1164 1163.00
25.4207 1097.00
25.725 1186.00
26.0292 1189.00
26.3335 1310.00
26.6378 1985.00
26.942 12016.00
27.2463 1457.00
27.5505 1176.00
27.8548 1109.00
28.1591 1090.00
28.4633 1035.00
28.7676 1023.00
29.0718 1174.00
29.3761 1099.00
29.6804 966.00
29.9846 959.00
30.2889 967.00
30.5931 980.00
30.8974 986.00
31.2017 961.00
31.5059 962.00
31.8102 927.00
32.1144 891.00
32.4187 1016.00
32.723 1644.00
33.0272 1040.00
33.3315 1200.00
33.6357 1083.00
33.94 1656.00
34.2443 9180.00
34.5485 1269.00
34.8528 947.00
35.157 913.00
35.4613 914.00
35.7656 887.00
36.0698 838.00
36.3741 2582.00
36.6783 996.00
36.9826 891.00
37.2869 855.00
37.5911 862.00
37.8954 919.00
38.1996 2771.00
38.5039 1144.00
38.8082 852.00
39.1124 888.00
39.4167 1051.00
39.7209 833.00
40.0252 758.00
40.3295 763.00
40.6337 739.00
40.938 776.00
41.2422 779.00
41.5465 733.00
41.8508 732.00
42.155 759.00
42.4593 685.00
42.7635 780.00
43.0678 818.00
43.3721 708.00
43.6763 737.00
43.9806 728.00
44.2849 745.00
44.5891 760.00
44.8934 845.00
45.1976 768.00
45.5019 745.00
45.8062 746.00
46.1104 714.00
46.4147 680.00
46.7189 756.00
47.0232 712.00
47.3275 720.00
47.6317 717.00
47.936 698.00
48.2402 662.00
48.5445 712.00
48.8488 686.00
49.153 718.00
49.4573 734.00
49.7615 749.00
50.0658 821.00
50.3701 745.00
50.6743 683.00
50.9786 1115.00
51.2828 782.00
51.5871 916.00
51.8914 1723.00
52.1956 5994.00
52.4999 949.00
52.8041 783.00
53.1084 703.00
53.4127 737.00
53.7169 676.00
54.0212 768.00
54.3254 814.00
54.6297 782.00
54.934 1305.00
55.2382 1555.00
55.5425 806.00
55.8467 684.00
56.151 770.00
56.4553 795.00
56.7595 679.00
57.0638 712.00
57.368 728.00
57.6723 718.00
57.9766 900.00
58.2808 1232.00
58.5851 764.00
58.8893 980.00
59.1936 753.00
59.4979 712.00
59.8021 714.00
60.1064 1729.00
60.4106 743.00
60.7149 673.00
61.0192 744.00
61.3234 701.00
61.6277 663.00
61.932 824.00
62.2362 1818.00
62.5405 773.00
62.8447 714.00
63.149 713.00
63.4533 727.00
63.7575 661.00
64.0618 694.00
64.366 716.00
64.6703 825.00
64.9745 2427.00
65.2788 1219.00
65.5831 783.00
65.8873 899.00
66.1916 2547.00
66.4959 1372.00
66.8001 761.00
67.1044 712.00
67.4086 682.00
67.7129 705.00
68.0172 710.00
68.3214 717.00
68.6257 653.00
68.9299 661.00
69.2342 688.00
69.5385 692.00
69.8427 676.00
70.147 746.00
70.4512 702.00
70.7555 628.00
71.0598 685.00
71.364 806.00
71.6683 1067.00
71.9725 720.00
72.2768 684.00
72.5811 692.00
72.8853 677.00
73.1896 664.00
73.4938 619.00
73.7981 636.00
74.1024 654.00
74.4066 866.00
74.7109 761.00
75.0151 653.00
75.3194 663.00
75.6237 684.00
75.9279 673.00
76.2322 653.00
76.5364 676.00
76.8407 734.00
77.145 667.00
77.4492 642.00
77.7535 766.00
78.0577 648.00
78.362 678.00
78.6663 706.00
78.9705 2161.00
79.2748 1068.00
79.579 704.00
79.8833 643.00
80.1876 712.00
80.4918 707.00
80.7961 714.00
81.1003 732.00
81.4046 1243.00
81.7089 811.00
82.0131 675.00
82.3174 681.00
82.6217 679.00
82.9259 683.00
83.2302 671.00
83.5344 696.00
83.8387 978.00
84.143 1118.00
84.4472 756.00
84.7515 699.00
85.0557 647.00
85.36 662.00
85.6643 719.00
85.9685 730.00
86.2728 719.00
86.577 696.00
86.8813 719.00
87.1856 731.00
87.4898 1147.00
87.7941 912.00
88.0983 732.00
88.4026 683.00
88.7069 679.00
89.0111 664.00
89.3154 738.00
89.6196 781.00
89.9239 1294.00
90.2282 1148.00
90.5324 811.00
90.8367 795.00
91.1409 1925.00
91.4452 1312.00
91.7495 727.00
92.0537 696.00
92.358 684.00
92.6622 686.00
92.9665 796.00
93.2708 776.00
93.575 1154.00
93.8793 901.00
94.1835 688.00
94.4878 676.00
94.7921 667.00
95.0963 664.00
95.4006 686.00
95.7048 697.00
96.0091 798.00
96.3134 956.00
96.6176 901.00
96.9219 735.00
97.2261 725.00
97.5304 715.00
97.8347 720.00
98.1389 659.00
98.4432 807.00
98.7474 702.00
99.0517 711.00
99.356 727.00
99.6602 635.00
99.9645 666.00
100.095 667.00