File: data/xrd_creation/results/PG_2245-1.xy
9.903433 3058.00
10.2077 2973.00
10.512 2776.00
10.8162 2804.00
11.1205 2791.00
11.4247 2651.00
11.729 2589.00
12.0333 2504.00
12.3375 2479.00
12.6418 2408.00
12.946 2596.00
13.2503 2544.00
13.5546 2461.00
13.8588 2526.00
14.1631 2443.00
14.4673 2498.00
14.7716 2385.00
15.0759 2364.00
15.3801 2412.00
15.6844 2401.00
15.9886 2295.00
16.2929 2326.00
16.5972 2263.00
16.9014 2351.00
17.2057 2222.00
17.5099 2196.00
17.8142 2303.00
18.1185 2306.00
18.4227 2297.00
18.727 2300.00
19.0312 2313.00
19.3355 2124.00
19.6398 2098.00
19.944 2137.00
20.2483 2168.00
20.5525 2755.00
20.8568 2377.00
21.1611 2326.00
21.4653 2758.00
21.7696 2499.00
22.0738 2098.00
22.3781 2169.00
22.6824 2199.00
22.9866 2127.00
23.2909 2132.00
23.5951 2216.00
23.8994 2171.00
24.2037 2148.00
24.5079 2151.00
24.8122 2432.00
25.1164 3516.00
25.4207 23594.00
25.725 8331.00
26.0292 13005.00
26.3335 4167.00
26.6378 2394.00
26.942 2154.00
27.2463 2073.00
27.5505 2050.00
27.8548 1993.00
28.1591 1941.00
28.4633 1986.00
28.7676 2010.00
29.0718 1872.00
29.3761 2002.00
29.6804 2479.00
29.9846 5753.00
30.2889 2000.00
30.5931 2000.00
30.8974 3406.00
31.2017 2045.00
31.5059 2496.00
31.8102 4905.00
32.1144 4636.00
32.4187 1889.00
32.723 1786.00
33.0272 1843.00
33.3315 1810.00
33.6357 1830.00
33.94 1882.00
34.2443 2007.00
34.5485 2411.00
34.8528 3319.00
35.157 2654.00
35.4613 5288.00
35.7656 3154.00
36.0698 2710.00
36.3741 5981.00
36.6783 8475.00
36.9826 7935.00
37.2869 3088.00
37.5911 2029.00
37.8954 1857.00
38.1996 1787.00
38.5039 1737.00
38.8082 1893.00
39.1124 1823.00
39.4167 1735.00
39.7209 1826.00
40.0252 2350.00
40.3295 2111.00
40.6337 1817.00
40.938 1724.00
41.2422 1923.00
41.5465 3452.00
41.8508 2623.00
42.155 1901.00
42.4593 1832.00
42.7635 1810.00
43.0678 2088.00
43.3721 2226.00
43.6763 2006.00
43.9806 2354.00
44.2849 7384.00
44.5891 6562.00
44.8934 2371.00
45.1976 2254.00
45.5019 2439.00
45.8062 4373.00
46.1104 3568.00
46.4147 2041.00
46.7189 2747.00
47.0232 4256.00
47.3275 2548.00
47.6317 2790.00
47.936 7386.00
48.2402 3336.00
48.5445 1882.00
48.8488 1778.00
49.153 1998.00
49.4573 1958.00
49.7615 1915.00
50.0658 3215.00
50.3701 6232.00
50.6743 3914.00
50.9786 2150.00
51.2828 1812.00
51.5871 1831.00
51.8914 2231.00
52.1956 1988.00
52.4999 1653.00
52.8041 1626.00
53.1084 1736.00
53.4127 1979.00
53.7169 1681.00
54.0212 1685.00
54.3254 1508.00
54.6297 1590.00
54.934 1576.00
55.2382 1838.00
55.5425 1768.00
55.8467 1684.00
56.151 1533.00
56.4553 1642.00
56.7595 1776.00
57.0638 2249.00
57.368 2202.00
57.6723 2908.00
57.9766 2362.00
58.2808 1887.00
58.5851 1957.00
58.8893 2178.00
59.1936 3231.00
59.4979 2174.00
59.8021 2171.00
60.1064 3069.00
60.4106 1935.00
60.7149 1669.00
61.0192 1688.00
61.3234 1648.00
61.6277 1678.00
61.932 1770.00
62.2362 1543.00
62.5405 1606.00
62.8447 1946.00
63.149 2167.00
63.4533 1724.00
63.7575 1829.00
64.0618 2372.00
64.366 2595.00
64.6703 1738.00
64.9745 1613.00
65.2788 1771.00
65.5831 2252.00
65.8873 2531.00
66.1916 2043.00
66.4959 1998.00
66.8001 1829.00
67.1044 1699.00
67.4086 1600.00
67.7129 1539.00
68.0172 1498.00
68.3214 1599.00
68.6257 1491.00
68.9299 1439.00
69.2342 1535.00
69.5385 1433.00
69.8427 1490.00
70.147 1429.00
70.4512 1480.00
70.7555 1581.00
71.0598 1551.00
71.364 1507.00
71.6683 1575.00
71.9725 1706.00
72.2768 2880.00
72.5811 2124.00
72.8853 1742.00
73.1896 2138.00
73.4938 1970.00
73.7981 2719.00
74.1024 3441.00
74.4066 2537.00
74.7109 2561.00
75.0151 2254.00
75.3194 2501.00
75.6237 2354.00
75.9279 1949.00
76.2322 2412.00
76.5364 2094.00
76.8407 1730.00
77.145 1653.00
77.4492 1804.00
77.7535 2205.00
78.0577 2153.00
78.362 1715.00
78.6663 1570.00
78.9705 1504.00
79.2748 1462.00
79.579 1483.00
79.8833 1535.00
80.1876 1673.00
80.4918 1861.00
80.7961 1686.00
81.1003 1597.00
81.4046 1541.00
81.7089 1697.00
82.0131 1832.00
82.3174 2207.00
82.6217 1885.00
82.9259 1656.00
83.2302 1996.00
83.5344 2067.00
83.8387 1728.00
84.143 1648.00
84.4472 1836.00
84.7515 1649.00
85.0557 1662.00
85.36 1843.00
85.6643 1795.00
85.9685 1591.00
86.2728 1636.00
86.577 1610.00
86.8813 1467.00
87.1856 1516.00
87.4898 1640.00
87.7941 1563.00
88.0983 1587.00
88.4026 1544.00
88.7069 1519.00
89.0111 1529.00
89.3154 1502.00
89.6196 1540.00
89.9239 1656.00
90.2282 1692.00
90.5324 1374.00
90.8367 1482.00
91.1409 1519.00
91.4452 1483.00
91.7495 1700.00
92.0537 1793.00
92.358 1577.00
92.6622 1449.00
92.9665 1518.00
93.2708 1438.00
93.575 1550.00
93.8793 1683.00
94.1835 1826.00
94.4878 1661.00
94.7921 1861.00
95.0963 2270.00
95.4006 1968.00
95.7048 1783.00
96.0091 1650.00
96.3134 1680.00
96.6176 1629.00
96.9219 1585.00
97.2261 1848.00
97.5304 2015.00
97.8347 1729.00
98.1389 1534.00
98.4432 1501.00
98.7474 1465.00
99.0517 1545.00
99.356 1656.00
99.6602 1663.00
99.9645 1600.00
100.095 1589.00