File: data/xrd_creation/results/PG_2448-1.xy
9.903433 2955.00
10.2077 2831.00
10.512 2699.00
10.8162 2582.00
11.1205 2559.00
11.4247 2495.00
11.729 2387.00
12.0333 2334.00
12.3375 2144.00
12.6418 2137.00
12.946 2183.00
13.2503 2126.00
13.5546 2034.00
13.8588 2053.00
14.1631 2314.00
14.4673 2138.00
14.7716 1973.00
15.0759 1883.00
15.3801 1823.00
15.6844 1823.00
15.9886 1752.00
16.2929 1750.00
16.5972 1691.00
16.9014 1607.00
17.2057 1753.00
17.5099 1659.00
17.8142 1670.00
18.1185 1613.00
18.4227 1752.00
18.727 3248.00
19.0312 6401.00
19.3355 1637.00
19.6398 1499.00
19.944 1539.00
20.2483 1523.00
20.5525 1367.00
20.8568 1428.00
21.1611 1634.00
21.4653 2090.00
21.7696 1357.00
22.0738 1350.00
22.3781 1290.00
22.6824 1218.00
22.9866 1280.00
23.2909 1255.00
23.5951 1244.00
23.8994 1381.00
24.2037 1395.00
24.5079 1274.00
24.8122 1193.00
25.1164 1160.00
25.4207 1125.00
25.725 1196.00
26.0292 1267.00
26.3335 1467.00
26.6378 2366.00
26.942 6313.00
27.2463 1917.00
27.5505 1396.00
27.8548 1269.00
28.1591 1265.00
28.4633 1593.00
28.7676 1656.00
29.0718 1938.00
29.3761 4825.00
29.6804 2822.00
29.9846 1582.00
30.2889 2721.00
30.5931 1694.00
30.8974 1113.00
31.2017 1275.00
31.5059 2164.00
31.8102 1678.00
32.1144 1342.00
32.4187 1624.00
32.723 3124.00
33.0272 1512.00
33.3315 1146.00
33.6357 1136.00
33.94 913.00
34.2443 842.00
34.5485 906.00
34.8528 907.00
35.157 859.00
35.4613 885.00
35.7656 902.00
36.0698 1097.00
36.3741 1012.00
36.6783 909.00
36.9826 843.00
37.2869 817.00
37.5911 814.00
37.8954 825.00
38.1996 825.00
38.5039 825.00
38.8082 982.00
39.1124 1134.00
39.4167 889.00
39.7209 753.00
40.0252 743.00
40.3295 718.00
40.6337 774.00
40.938 813.00
41.2422 751.00
41.5465 781.00
41.8508 808.00
42.155 762.00
42.4593 774.00
42.7635 774.00
43.0678 801.00
43.3721 975.00
43.6763 759.00
43.9806 752.00
44.2849 694.00
44.5891 663.00
44.8934 706.00
45.1976 665.00
45.5019 695.00
45.8062 768.00
46.1104 1059.00
46.4147 1420.00
46.7189 905.00
47.0232 777.00
47.3275 895.00
47.6317 895.00
47.936 1061.00
48.2402 966.00
48.5445 773.00
48.8488 827.00
49.153 1100.00
49.4573 1298.00
49.7615 725.00
50.0658 734.00
50.3701 752.00
50.6743 686.00
50.9786 710.00
51.2828 817.00
51.5871 1363.00
51.8914 1168.00
52.1956 857.00
52.4999 848.00
52.8041 781.00
53.1084 651.00
53.4127 644.00
53.7169 680.00
54.0212 771.00
54.3254 1056.00
54.6297 1015.00
54.934 989.00
55.2382 904.00
55.5425 820.00
55.8467 884.00
56.151 1106.00
56.4553 812.00
56.7595 740.00
57.0638 722.00
57.368 696.00
57.6723 712.00
57.9766 718.00
58.2808 730.00
58.5851 703.00
58.8893 790.00
59.1936 642.00
59.4979 709.00
59.8021 600.00
60.1064 649.00
60.4106 649.00
60.7149 669.00
61.0192 659.00
61.3234 597.00
61.6277 617.00
61.932 640.00
62.2362 677.00
62.5405 677.00
62.8447 655.00
63.149 662.00
63.4533 837.00
63.7575 781.00
64.0618 684.00
64.366 712.00
64.6703 702.00
64.9745 738.00
65.2788 832.00
65.5831 808.00
65.8873 819.00
66.1916 926.00
66.4959 1119.00
66.8001 966.00
67.1044 807.00
67.4086 680.00
67.7129 756.00
68.0172 818.00
68.3214 756.00
68.6257 739.00
68.9299 675.00
69.2342 734.00
69.5385 758.00
69.8427 780.00
70.147 844.00
70.4512 830.00
70.7555 671.00
71.0598 673.00
71.364 635.00
71.6683 581.00
71.9725 619.00
72.2768 570.00
72.5811 573.00
72.8853 556.00
73.1896 590.00
73.4938 626.00
73.7981 650.00
74.1024 681.00
74.4066 623.00
74.7109 689.00
75.0151 639.00
75.3194 823.00
75.6237 827.00
75.9279 824.00
76.2322 804.00
76.5364 727.00
76.8407 628.00
77.145 612.00
77.4492 599.00
77.7535 652.00
78.0577 642.00
78.362 596.00
78.6663 563.00
78.9705 632.00
79.2748 642.00
79.579 626.00
79.8833 626.00
80.1876 606.00
80.4918 587.00
80.7961 554.00
81.1003 560.00
81.4046 625.00
81.7089 605.00
82.0131 589.00
82.3174 548.00
82.6217 508.00
82.9259 562.00
83.2302 569.00
83.5344 545.00
83.8387 538.00
84.143 576.00
84.4472 529.00
84.7515 556.00
85.0557 542.00
85.36 543.00
85.6643 568.00
85.9685 596.00
86.2728 572.00
86.577 718.00
86.8813 689.00
87.1856 596.00
87.4898 584.00
87.7941 568.00
88.0983 558.00
88.4026 530.00
88.7069 572.00
89.0111 572.00
89.3154 580.00
89.6196 569.00
89.9239 604.00
90.2282 586.00
90.5324 570.00
90.8367 503.00
91.1409 561.00
91.4452 576.00
91.7495 545.00
92.0537 582.00
92.358 556.00
92.6622 591.00
92.9665 563.00
93.2708 554.00
93.575 637.00
93.8793 626.00
94.1835 598.00
94.4878 621.00
94.7921 626.00
95.0963 551.00
95.4006 553.00
95.7048 545.00
96.0091 614.00
96.3134 588.00
96.6176 571.00
96.9219 597.00
97.2261 554.00
97.5304 572.00
97.8347 579.00
98.1389 667.00
98.4432 602.00
98.7474 566.00
99.0517 629.00
99.356 560.00
99.6602 558.00
99.9645 506.00
100.095 552.00