File: data/xrd_creation/results/PG_2443-1.xy
9.903433 3294.00
10.2077 3292.00
10.512 3179.00
10.8162 3106.00
11.1205 2950.00
11.4247 2926.00
11.729 2903.00
12.0333 2879.00
12.3375 2708.00
12.6418 2679.00
12.946 2731.00
13.2503 2613.00
13.5546 2656.00
13.8588 2614.00
14.1631 2613.00
14.4673 2629.00
14.7716 2484.00
15.0759 2550.00
15.3801 2503.00
15.6844 2538.00
15.9886 2577.00
16.2929 2492.00
16.5972 2497.00
16.9014 2511.00
17.2057 2632.00
17.5099 2586.00
17.8142 2634.00
18.1185 2623.00
18.4227 2786.00
18.727 2734.00
19.0312 2870.00
19.3355 2936.00
19.6398 3031.00
19.944 3150.00
20.2483 3152.00
20.5525 3157.00
20.8568 3290.00
21.1611 3521.00
21.4653 4038.00
21.7696 3918.00
22.0738 3557.00
22.3781 3405.00
22.6824 3345.00
22.9866 3315.00
23.2909 3508.00
23.5951 3563.00
23.8994 3606.00
24.2037 3276.00
24.5079 3302.00
24.8122 3259.00
25.1164 3212.00
25.4207 3261.00
25.725 3235.00
26.0292 3069.00
26.3335 3044.00
26.6378 2956.00
26.942 3081.00
27.2463 2811.00
27.5505 2795.00
27.8548 2731.00
28.1591 2620.00
28.4633 2693.00
28.7676 2564.00
29.0718 2528.00
29.3761 2442.00
29.6804 2498.00
29.9846 2525.00
30.2889 2652.00
30.5931 2629.00
30.8974 2623.00
31.2017 2409.00
31.5059 2485.00
31.8102 2530.00
32.1144 2506.00
32.4187 2289.00
32.723 2173.00
33.0272 2062.00
33.3315 2285.00
33.6357 2630.00
33.94 2475.00
34.2443 2146.00
34.5485 1873.00
34.8528 1748.00
35.157 1611.00
35.4613 1605.00
35.7656 1578.00
36.0698 1642.00
36.3741 1774.00
36.6783 1632.00
36.9826 1690.00
37.2869 1681.00
37.5911 1709.00
37.8954 1621.00
38.1996 1628.00
38.5039 1532.00
38.8082 1434.00
39.1124 1334.00
39.4167 1367.00
39.7209 1341.00
40.0252 1336.00
40.3295 1275.00
40.6337 1162.00
40.938 1142.00
41.2422 1148.00
41.5465 1040.00
41.8508 1139.00
42.155 1080.00
42.4593 1035.00
42.7635 1031.00
43.0678 1073.00
43.3721 1099.00
43.6763 1091.00
43.9806 997.00
44.2849 1016.00
44.5891 1039.00
44.8934 981.00
45.1976 966.00
45.5019 1019.00
45.8062 958.00
46.1104 976.00
46.4147 949.00
46.7189 953.00
47.0232 920.00
47.3275 901.00
47.6317 901.00
47.936 973.00
48.2402 944.00
48.5445 941.00
48.8488 941.00
49.153 980.00
49.4573 972.00
49.7615 971.00
50.0658 926.00
50.3701 893.00
50.6743 933.00
50.9786 951.00
51.2828 930.00
51.5871 952.00
51.8914 939.00
52.1956 880.00
52.4999 875.00
52.8041 862.00
53.1084 885.00
53.4127 873.00
53.7169 850.00
54.0212 815.00
54.3254 824.00
54.6297 836.00
54.934 837.00
55.2382 852.00
55.5425 829.00
55.8467 830.00
56.151 844.00
56.4553 858.00
56.7595 888.00
57.0638 902.00
57.368 908.00
57.6723 894.00
57.9766 890.00
58.2808 911.00
58.5851 893.00
58.8893 928.00
59.1936 932.00
59.4979 999.00
59.8021 1119.00
60.1064 1020.00
60.4106 1006.00
60.7149 958.00
61.0192 852.00
61.3234 877.00
61.6277 838.00
61.932 834.00
62.2362 864.00
62.5405 830.00
62.8447 795.00
63.149 833.00
63.4533 798.00
63.7575 809.00
64.0618 789.00
64.366 800.00
64.6703 860.00
64.9745 785.00
65.2788 794.00
65.5831 862.00
65.8873 801.00
66.1916 805.00
66.4959 808.00
66.8001 846.00
67.1044 802.00
67.4086 740.00
67.7129 781.00
68.0172 783.00
68.3214 766.00
68.6257 818.00
68.9299 747.00
69.2342 784.00
69.5385 749.00
69.8427 746.00
70.147 778.00
70.4512 763.00
70.7555 726.00
71.0598 781.00
71.364 724.00
71.6683 759.00
71.9725 711.00
72.2768 742.00
72.5811 732.00
72.8853 755.00
73.1896 734.00
73.4938 789.00
73.7981 786.00
74.1024 690.00
74.4066 708.00
74.7109 753.00
75.0151 716.00
75.3194 721.00
75.6237 685.00
75.9279 640.00
76.2322 674.00
76.5364 659.00
76.8407 629.00
77.145 641.00
77.4492 665.00
77.7535 594.00
78.0577 582.00
78.362 637.00
78.6663 619.00
78.9705 594.00
79.2748 611.00
79.579 589.00
79.8833 597.00
80.1876 619.00
80.4918 591.00
80.7961 595.00
81.1003 570.00
81.4046 551.00
81.7089 584.00
82.0131 590.00
82.3174 555.00
82.6217 559.00
82.9259 536.00
83.2302 549.00
83.5344 521.00
83.8387 533.00
84.143 480.00
84.4472 509.00
84.7515 500.00
85.0557 490.00
85.36 532.00
85.6643 509.00
85.9685 549.00
86.2728 472.00
86.577 501.00
86.8813 495.00
87.1856 457.00
87.4898 463.00
87.7941 478.00
88.0983 430.00
88.4026 488.00
88.7069 418.00
89.0111 431.00
89.3154 397.00
89.6196 437.00
89.9239 427.00
90.2282 397.00
90.5324 431.00
90.8367 424.00
91.1409 420.00
91.4452 377.00
91.7495 438.00
92.0537 382.00
92.358 399.00
92.6622 439.00
92.9665 415.00
93.2708 454.00
93.575 405.00
93.8793 400.00
94.1835 435.00
94.4878 407.00
94.7921 413.00
95.0963 428.00
95.4006 404.00
95.7048 418.00
96.0091 449.00
96.3134 475.00
96.6176 405.00
96.9219 398.00
97.2261 432.00
97.5304 372.00
97.8347 381.00
98.1389 422.00
98.4432 437.00
98.7474 400.00
99.0517 399.00
99.356 420.00
99.6602 420.00
99.9645 403.00
100.095 425.00