File: data/xrd_creation/results/PG_2146-1.xy
9.903433 2439.00
10.2077 2360.00
10.512 2257.00
10.8162 2263.00
11.1205 2261.00
11.4247 2172.00
11.729 2023.00
12.0333 1936.00
12.3375 2039.00
12.6418 1826.00
12.946 1877.00
13.2503 1792.00
13.5546 1794.00
13.8588 1750.00
14.1631 1586.00
14.4673 1658.00
14.7716 1610.00
15.0759 1636.00
15.3801 1801.00
15.6844 2697.00
15.9886 8690.00
16.2929 2111.00
16.5972 1640.00
16.9014 1490.00
17.2057 1500.00
17.5099 1403.00
17.8142 1355.00
18.1185 1368.00
18.4227 1322.00
18.727 1291.00
19.0312 1243.00
19.3355 1221.00
19.6398 1194.00
19.944 1144.00
20.2483 1128.00
20.5525 1097.00
20.8568 1166.00
21.1611 1120.00
21.4653 1028.00
21.7696 1033.00
22.0738 1019.00
22.3781 995.00
22.6824 1002.00
22.9866 1014.00
23.2909 960.00
23.5951 953.00
23.8994 894.00
24.2037 863.00
24.5079 956.00
24.8122 957.00
25.1164 945.00
25.4207 1323.00
25.725 3897.00
26.0292 972.00
26.3335 841.00
26.6378 942.00
26.942 987.00
27.2463 1488.00
27.5505 5962.00
27.8548 2530.00
28.1591 4636.00
28.4633 4618.00
28.7676 1241.00
29.0718 865.00
29.3761 832.00
29.6804 787.00
29.9846 725.00
30.2889 718.00
30.5931 654.00
30.8974 723.00
31.2017 692.00
31.5059 770.00
31.8102 1585.00
32.1144 1325.00
32.4187 703.00
32.723 642.00
33.0272 620.00
33.3315 586.00
33.6357 596.00
33.94 590.00
34.2443 571.00
34.5485 557.00
34.8528 562.00
35.157 577.00
35.4613 604.00
35.7656 569.00
36.0698 640.00
36.3741 1053.00
36.6783 617.00
36.9826 520.00
37.2869 817.00
37.5911 522.00
37.8954 544.00
38.1996 1262.00
38.5039 606.00
38.8082 717.00
39.1124 682.00
39.4167 1072.00
39.7209 4896.00
40.0252 2580.00
40.3295 763.00
40.6337 558.00
40.938 537.00
41.2422 488.00
41.5465 517.00
41.8508 483.00
42.155 540.00
42.4593 1219.00
42.7635 882.00
43.0678 482.00
43.3721 445.00
43.6763 441.00
43.9806 428.00
44.2849 402.00
44.5891 407.00
44.8934 443.00
45.1976 436.00
45.5019 419.00
45.8062 457.00
46.1104 442.00
46.4147 441.00
46.7189 415.00
47.0232 509.00
47.3275 1123.00
47.6317 957.00
47.936 709.00
48.2402 1329.00
48.5445 3129.00
48.8488 3864.00
49.153 3068.00
49.4573 916.00
49.7615 596.00
50.0658 753.00
50.3701 959.00
50.6743 477.00
50.9786 426.00
51.2828 366.00
51.5871 371.00
51.8914 412.00
52.1956 342.00
52.4999 350.00
52.8041 364.00
53.1084 376.00
53.4127 343.00
53.7169 379.00
54.0212 436.00
54.3254 902.00
54.6297 398.00
54.934 430.00
55.2382 697.00
55.5425 1990.00
55.8467 931.00
56.151 567.00
56.4553 830.00
56.7595 783.00
57.0638 479.00
57.368 370.00
57.6723 376.00
57.9766 532.00
58.2808 603.00
58.5851 386.00
58.8893 488.00
59.1936 669.00
59.4979 371.00
59.8021 329.00
60.1064 258.00
60.4106 293.00
60.7149 301.00
61.0192 297.00
61.3234 315.00
61.6277 275.00
61.932 286.00
62.2362 279.00
62.5405 353.00
62.8447 419.00
63.149 692.00
63.4533 392.00
63.7575 402.00
64.0618 734.00
64.366 1234.00
64.6703 650.00
64.9745 436.00
65.2788 631.00
65.5831 581.00
65.8873 382.00
66.1916 447.00
66.4959 423.00
66.8001 322.00
67.1044 314.00
67.4086 261.00
67.7129 312.00
68.0172 288.00
68.3214 299.00
68.6257 312.00
68.9299 378.00
69.2342 474.00
69.5385 440.00
69.8427 803.00
70.147 899.00
70.4512 505.00
70.7555 519.00
71.0598 465.00
71.364 527.00
71.6683 338.00
71.9725 301.00
72.2768 279.00
72.5811 304.00
72.8853 370.00
73.1896 346.00
73.4938 274.00
73.7981 279.00
74.1024 297.00
74.4066 288.00
74.7109 270.00
75.0151 299.00
75.3194 722.00
75.6237 469.00
75.9279 477.00
76.2322 761.00
76.5364 792.00
76.8407 683.00
77.145 682.00
77.4492 984.00
77.7535 1230.00
78.0577 914.00
78.362 526.00
78.6663 495.00
78.9705 412.00
79.2748 333.00
79.579 278.00
79.8833 275.00
80.1876 241.00
80.4918 245.00
80.7961 267.00
81.1003 232.00
81.4046 262.00
81.7089 287.00
82.0131 266.00
82.3174 399.00
82.6217 589.00
82.9259 647.00
83.2302 383.00
83.5344 277.00
83.8387 264.00
84.143 243.00
84.4472 257.00
84.7515 239.00
85.0557 291.00
85.36 360.00
85.6643 277.00
85.9685 303.00
86.2728 274.00
86.577 277.00
86.8813 260.00
87.1856 267.00
87.4898 237.00
87.7941 249.00
88.0983 292.00
88.4026 333.00
88.7069 446.00
89.0111 661.00
89.3154 497.00
89.6196 359.00
89.9239 337.00
90.2282 385.00
90.5324 507.00
90.8367 455.00
91.1409 352.00
91.4452 377.00
91.7495 361.00
92.0537 324.00
92.358 323.00
92.6622 274.00
92.9665 258.00
93.2708 258.00
93.575 239.00
93.8793 292.00
94.1835 250.00
94.4878 354.00
94.7921 330.00
95.0963 329.00
95.4006 525.00
95.7048 642.00
96.0091 628.00
96.3134 489.00
96.6176 453.00
96.9219 537.00
97.2261 469.00
97.5304 378.00
97.8347 319.00
98.1389 256.00
98.4432 303.00
98.7474 291.00
99.0517 315.00
99.356 275.00
99.6602 242.00
99.9645 287.00
100.095 310.00