File: data/xrd_creation/results/PG_2546-1.xy
9.903433 2451.00
10.2077 2448.00
10.512 2336.00
10.8162 2160.00
11.1205 2167.00
11.4247 2057.00
11.729 2002.00
12.0333 1834.00
12.3375 1868.00
12.6418 1757.00
12.946 1632.00
13.2503 1638.00
13.5546 1596.00
13.8588 1549.00
14.1631 1501.00
14.4673 1479.00
14.7716 1453.00
15.0759 1410.00
15.3801 1409.00
15.6844 1430.00
15.9886 1310.00
16.2929 1343.00
16.5972 1359.00
16.9014 1276.00
17.2057 1287.00
17.5099 1213.00
17.8142 1186.00
18.1185 1209.00
18.4227 1224.00
18.727 1262.00
19.0312 1230.00
19.3355 2262.00
19.6398 1152.00
19.944 1061.00
20.2483 1044.00
20.5525 1031.00
20.8568 1040.00
21.1611 1277.00
21.4653 2469.00
21.7696 1031.00
22.0738 963.00
22.3781 930.00
22.6824 905.00
22.9866 871.00
23.2909 909.00
23.5951 878.00
23.8994 1139.00
24.2037 2950.00
24.5079 946.00
24.8122 835.00
25.1164 733.00
25.4207 787.00
25.725 852.00
26.0292 782.00
26.3335 746.00
26.6378 706.00
26.942 697.00
27.2463 650.00
27.5505 657.00
27.8548 654.00
28.1591 697.00
28.4633 643.00
28.7676 611.00
29.0718 622.00
29.3761 597.00
29.6804 637.00
29.9846 591.00
30.2889 554.00
30.5931 552.00
30.8974 573.00
31.2017 532.00
31.5059 551.00
31.8102 544.00
32.1144 588.00
32.4187 639.00
32.723 933.00
33.0272 4354.00
33.3315 2005.00
33.6357 612.00
33.94 566.00
34.2443 525.00
34.5485 519.00
34.8528 496.00
35.157 496.00
35.4613 960.00
35.7656 6665.00
36.0698 629.00
36.3741 469.00
36.6783 480.00
36.9826 484.00
37.2869 449.00
37.5911 436.00
37.8954 450.00
38.1996 400.00
38.5039 446.00
38.8082 408.00
39.1124 417.00
39.4167 388.00
39.7209 398.00
40.0252 453.00
40.3295 430.00
40.6337 1183.00
40.938 7377.00
41.2422 536.00
41.5465 453.00
41.8508 376.00
42.155 397.00
42.4593 345.00
42.7635 321.00
43.0678 350.00
43.3721 353.00
43.6763 396.00
43.9806 353.00
44.2849 283.00
44.5891 327.00
44.8934 329.00
45.1976 311.00
45.5019 308.00
45.8062 317.00
46.1104 344.00
46.4147 313.00
46.7189 306.00
47.0232 305.00
47.3275 241.00
47.6317 279.00
47.936 299.00
48.2402 279.00
48.5445 315.00
48.8488 423.00
49.153 841.00
49.4573 4743.00
49.7615 403.00
50.0658 315.00
50.3701 287.00
50.6743 483.00
50.9786 319.00
51.2828 299.00
51.5871 291.00
51.8914 309.00
52.1956 307.00
52.4999 346.00
52.8041 304.00
53.1084 285.00
53.4127 426.00
53.7169 2028.00
54.0212 3840.00
54.3254 376.00
54.6297 305.00
54.934 270.00
55.2382 294.00
55.5425 257.00
55.8467 313.00
56.151 584.00
56.4553 295.00
56.7595 297.00
57.0638 521.00
57.368 976.00
57.6723 330.00
57.9766 281.00
58.2808 233.00
58.5851 285.00
58.8893 230.00
59.1936 228.00
59.4979 210.00
59.8021 230.00
60.1064 267.00
60.4106 237.00
60.7149 268.00
61.0192 224.00
61.3234 269.00
61.6277 295.00
61.932 370.00
62.2362 2177.00
62.5405 1631.00
62.8447 306.00
63.149 326.00
63.4533 583.00
63.7575 978.00
64.0618 2227.00
64.366 361.00
64.6703 238.00
64.9745 246.00
65.2788 226.00
65.5831 231.00
65.8873 281.00
66.1916 213.00
66.4959 214.00
66.8001 223.00
67.1044 249.00
67.4086 498.00
67.7129 280.00
68.0172 223.00
68.3214 229.00
68.6257 243.00
68.9299 260.00
69.2342 439.00
69.5385 263.00
69.8427 195.00
70.147 199.00
70.4512 228.00
70.7555 209.00
71.0598 326.00
71.364 1579.00
71.6683 490.00
71.9725 467.00
72.2768 202.00
72.5811 224.00
72.8853 206.00
73.1896 212.00
73.4938 216.00
73.7981 191.00
74.1024 189.00
74.4066 213.00
74.7109 267.00
75.0151 345.00
75.3194 876.00
75.6237 390.00
75.9279 196.00
76.2322 204.00
76.5364 189.00
76.8407 197.00
77.145 195.00
77.4492 350.00
77.7535 234.00
78.0577 209.00
78.362 265.00
78.6663 407.00
78.9705 260.00
79.2748 292.00
79.579 270.00
79.8833 194.00
80.1876 571.00
80.4918 530.00
80.7961 210.00
81.1003 176.00
81.4046 192.00
81.7089 184.00
82.0131 202.00
82.3174 686.00
82.6217 310.00
82.9259 197.00
83.2302 173.00
83.5344 208.00
83.8387 214.00
84.143 190.00
84.4472 319.00
84.7515 594.00
85.0557 249.00
85.36 187.00
85.6643 176.00
85.9685 179.00
86.2728 148.00
86.577 202.00
86.8813 173.00
87.1856 193.00
87.4898 167.00
87.7941 243.00
88.0983 891.00
88.4026 642.00
88.7069 205.00
89.0111 194.00
89.3154 177.00
89.6196 195.00
89.9239 217.00
90.2282 218.00
90.5324 177.00
90.8367 192.00
91.1409 263.00
91.4452 194.00
91.7495 192.00
92.0537 182.00
92.358 212.00
92.6622 273.00
92.9665 1068.00
93.2708 617.00
93.575 217.00
93.8793 176.00
94.1835 258.00
94.4878 228.00
94.7921 185.00
95.0963 231.00
95.4006 296.00
95.7048 220.00
96.0091 244.00
96.3134 273.00
96.6176 190.00
96.9219 182.00
97.2261 178.00
97.5304 170.00
97.8347 169.00
98.1389 145.00
98.4432 176.00
98.7474 172.00
99.0517 173.00
99.356 155.00
99.6602 168.00
99.9645 158.00
100.095 189.00