File: data/xrd_creation/results/PG_2741-1.xy
9.903433 2771.00
10.2077 2692.00
10.512 2615.00
10.8162 2522.00
11.1205 2494.00
11.4247 2377.00
11.729 2322.00
12.0333 2224.00
12.3375 2130.00
12.6418 2084.00
12.946 2023.00
13.2503 2002.00
13.5546 2109.00
13.8588 2454.00
14.1631 2523.00
14.4673 1912.00
14.7716 1777.00
15.0759 1824.00
15.3801 1899.00
15.6844 1793.00
15.9886 1754.00
16.2929 1758.00
16.5972 1825.00
16.9014 1780.00
17.2057 1628.00
17.5099 1726.00
17.8142 1641.00
18.1185 1744.00
18.4227 1855.00
18.727 1587.00
19.0312 1579.00
19.3355 1612.00
19.6398 1613.00
19.944 1615.00
20.2483 1539.00
20.5525 1511.00
20.8568 1493.00
21.1611 1481.00
21.4653 1555.00
21.7696 1527.00
22.0738 1486.00
22.3781 1456.00
22.6824 1342.00
22.9866 1399.00
23.2909 1405.00
23.5951 1350.00
23.8994 1336.00
24.2037 1355.00
24.5079 1311.00
24.8122 1269.00
25.1164 1385.00
25.4207 1309.00
25.725 1442.00
26.0292 1339.00
26.3335 1315.00
26.6378 1358.00
26.942 1371.00
27.2463 1512.00
27.5505 1745.00
27.8548 6573.00
28.1591 4378.00
28.4633 1621.00
28.7676 1972.00
29.0718 1714.00
29.3761 1480.00
29.6804 1281.00
29.9846 1247.00
30.2889 1269.00
30.5931 1307.00
30.8974 1230.00
31.2017 1405.00
31.5059 1336.00
31.8102 1296.00
32.1144 1514.00
32.4187 12633.00
32.723 2635.00
33.0272 1350.00
33.3315 1206.00
33.6357 1167.00
33.94 1119.00
34.2443 1192.00
34.5485 1160.00
34.8528 1160.00
35.157 1287.00
35.4613 2578.00
35.7656 1131.00
36.0698 1269.00
36.3741 3528.00
36.6783 1392.00
36.9826 1273.00
37.2869 1080.00
37.5911 1099.00
37.8954 1048.00
38.1996 1361.00
38.5039 1124.00
38.8082 1024.00
39.1124 1012.00
39.4167 1000.00
39.7209 1104.00
40.0252 1066.00
40.3295 1025.00
40.6337 1025.00
40.938 1057.00
41.2422 963.00
41.5465 936.00
41.8508 975.00
42.155 951.00
42.4593 1464.00
42.7635 990.00
43.0678 1018.00
43.3721 976.00
43.6763 984.00
43.9806 939.00
44.2849 966.00
44.5891 1124.00
44.8934 1274.00
45.1976 980.00
45.5019 1014.00
45.8062 1098.00
46.1104 1708.00
46.4147 7812.00
46.7189 1194.00
47.0232 991.00
47.3275 1132.00
47.6317 925.00
47.936 932.00
48.2402 945.00
48.5445 1414.00
48.8488 951.00
49.153 971.00
49.4573 911.00
49.7615 883.00
50.0658 1116.00
50.3701 1061.00
50.6743 991.00
50.9786 1612.00
51.2828 1002.00
51.5871 936.00
51.8914 958.00
52.1956 901.00
52.4999 888.00
52.8041 940.00
53.1084 925.00
53.4127 949.00
53.7169 958.00
54.0212 978.00
54.3254 1260.00
54.6297 1603.00
54.934 6097.00
55.2382 1202.00
55.5425 965.00
55.8467 929.00
56.151 1036.00
56.4553 1148.00
56.7595 995.00
57.0638 1030.00
57.368 1715.00
57.6723 1782.00
57.9766 984.00
58.2808 943.00
58.5851 1006.00
58.8893 1440.00
59.1936 1030.00
59.4979 1771.00
59.8021 983.00
60.1064 2170.00
60.4106 1101.00
60.7149 926.00
61.0192 886.00
61.3234 941.00
61.6277 923.00
61.932 849.00
62.2362 886.00
62.5405 865.00
62.8447 846.00
63.149 895.00
63.4533 933.00
63.7575 851.00
64.0618 901.00
64.366 2057.00
64.6703 1000.00
64.9745 1393.00
65.2788 896.00
65.5831 857.00
65.8873 880.00
66.1916 871.00
66.4959 892.00
66.8001 808.00
67.1044 912.00
67.4086 1779.00
67.7129 968.00
68.0172 927.00
68.3214 893.00
68.6257 893.00
68.9299 925.00
69.2342 1211.00
69.5385 951.00
69.8427 959.00
70.147 905.00
70.4512 791.00
70.7555 864.00
71.0598 918.00
71.364 888.00
71.6683 880.00
71.9725 1047.00
72.2768 910.00
72.5811 869.00
72.8853 860.00
73.1896 884.00
73.4938 889.00
73.7981 1068.00
74.1024 1120.00
74.4066 1995.00
74.7109 1094.00
75.0151 925.00
75.3194 855.00
75.6237 918.00
75.9279 840.00
76.2322 966.00
76.5364 3124.00
76.8407 1769.00
77.145 926.00
77.4492 913.00
77.7535 922.00
78.0577 969.00
78.362 1011.00
78.6663 965.00
78.9705 816.00
79.2748 838.00
79.579 838.00
79.8833 852.00
80.1876 913.00
80.4918 908.00
80.7961 911.00
81.1003 878.00
81.4046 941.00
81.7089 900.00
82.0131 870.00
82.3174 845.00
82.6217 1032.00
82.9259 1075.00
83.2302 927.00
83.5344 819.00
83.8387 827.00
84.143 881.00
84.4472 814.00
84.7515 823.00
85.0557 948.00
85.36 1579.00
85.6643 1637.00
85.9685 861.00
86.2728 866.00
86.577 887.00
86.8813 945.00
87.1856 912.00
87.4898 856.00
87.7941 823.00
88.0983 810.00
88.4026 792.00
88.7069 879.00
89.0111 869.00
89.3154 871.00
89.6196 871.00
89.9239 847.00
90.2282 850.00
90.5324 857.00
90.8367 897.00
91.1409 1005.00
91.4452 2061.00
91.7495 1460.00
92.0537 1556.00
92.358 1206.00
92.6622 893.00
92.9665 905.00
93.2708 883.00
93.575 880.00
93.8793 866.00
94.1835 809.00
94.4878 835.00
94.7921 833.00
95.0963 875.00
95.4006 859.00
95.7048 935.00
96.0091 884.00
96.3134 894.00
96.6176 874.00
96.9219 879.00
97.2261 901.00
97.5304 845.00
97.8347 852.00
98.1389 862.00
98.4432 955.00
98.7474 921.00
99.0517 816.00
99.356 850.00
99.6602 841.00
99.9645 843.00
100.095 927.00