File: data/xrd_creation/results/PG_2447-1.xy
9.903433 2655.00
10.2077 2641.00
10.512 2600.00
10.8162 2524.00
11.1205 2394.00
11.4247 2335.00
11.729 2224.00
12.0333 2206.00
12.3375 2144.00
12.6418 2091.00
12.946 2028.00
13.2503 1995.00
13.5546 1973.00
13.8588 1875.00
14.1631 1897.00
14.4673 1870.00
14.7716 1796.00
15.0759 1795.00
15.3801 1769.00
15.6844 1715.00
15.9886 1742.00
16.2929 1674.00
16.5972 1691.00
16.9014 1716.00
17.2057 1697.00
17.5099 1556.00
17.8142 1589.00
18.1185 1593.00
18.4227 1525.00
18.727 1448.00
19.0312 1537.00
19.3355 1496.00
19.6398 1456.00
19.944 1440.00
20.2483 1391.00
20.5525 1423.00
20.8568 1412.00
21.1611 1387.00
21.4653 1439.00
21.7696 1553.00
22.0738 1349.00
22.3781 1271.00
22.6824 1331.00
22.9866 1212.00
23.2909 1337.00
23.5951 1349.00
23.8994 1288.00
24.2037 1367.00
24.5079 3817.00
24.8122 1662.00
25.1164 1231.00
25.4207 1166.00
25.725 1127.00
26.0292 1228.00
26.3335 1091.00
26.6378 1012.00
26.942 1059.00
27.2463 1055.00
27.5505 1007.00
27.8548 1008.00
28.1591 938.00
28.4633 950.00
28.7676 895.00
29.0718 939.00
29.3761 963.00
29.6804 976.00
29.9846 988.00
30.2889 1312.00
30.5931 1107.00
30.8974 1113.00
31.2017 949.00
31.5059 1012.00
31.8102 1115.00
32.1144 1231.00
32.4187 1038.00
32.723 1114.00
33.0272 1415.00
33.3315 9815.00
33.6357 1204.00
33.94 1718.00
34.2443 938.00
34.5485 886.00
34.8528 876.00
35.157 1033.00
35.4613 837.00
35.7656 846.00
36.0698 1073.00
36.3741 2175.00
36.6783 3306.00
36.9826 927.00
37.2869 1299.00
37.5911 859.00
37.8954 794.00
38.1996 760.00
38.5039 773.00
38.8082 1234.00
39.1124 766.00
39.4167 748.00
39.7209 743.00
40.0252 781.00
40.3295 767.00
40.6337 792.00
40.938 772.00
41.2422 879.00
41.5465 3836.00
41.8508 839.00
42.155 707.00
42.4593 681.00
42.7635 625.00
43.0678 717.00
43.3721 641.00
43.6763 655.00
43.9806 707.00
44.2849 802.00
44.5891 793.00
44.8934 659.00
45.1976 689.00
45.5019 623.00
45.8062 658.00
46.1104 620.00
46.4147 664.00
46.7189 634.00
47.0232 584.00
47.3275 675.00
47.6317 642.00
47.936 615.00
48.2402 625.00
48.5445 645.00
48.8488 677.00
49.153 662.00
49.4573 728.00
49.7615 880.00
50.0658 3193.00
50.3701 861.00
50.6743 642.00
50.9786 640.00
51.2828 612.00
51.5871 620.00
51.8914 598.00
52.1956 631.00
52.4999 647.00
52.8041 841.00
53.1084 624.00
53.4127 622.00
53.7169 764.00
54.0212 1589.00
54.3254 5488.00
54.6297 854.00
54.934 655.00
55.2382 645.00
55.5425 678.00
55.8467 608.00
56.151 588.00
56.4553 606.00
56.7595 582.00
57.0638 702.00
57.368 635.00
57.6723 616.00
57.9766 678.00
58.2808 690.00
58.5851 975.00
58.8893 738.00
59.1936 648.00
59.4979 647.00
59.8021 615.00
60.1064 594.00
60.4106 619.00
60.7149 556.00
61.0192 613.00
61.3234 649.00
61.6277 630.00
61.932 628.00
62.2362 574.00
62.5405 556.00
62.8447 606.00
63.149 740.00
63.4533 2174.00
63.7575 722.00
64.0618 581.00
64.366 640.00
64.6703 633.00
64.9745 631.00
65.2788 1164.00
65.5831 2122.00
65.8873 725.00
66.1916 547.00
66.4959 550.00
66.8001 584.00
67.1044 550.00
67.4086 516.00
67.7129 543.00
68.0172 560.00
68.3214 580.00
68.6257 558.00
68.9299 546.00
69.2342 602.00
69.5385 586.00
69.8427 557.00
70.147 581.00
70.4512 597.00
70.7555 713.00
71.0598 1272.00
71.364 697.00
71.6683 557.00
71.9725 677.00
72.2768 529.00
72.5811 538.00
72.8853 510.00
73.1896 534.00
73.4938 574.00
73.7981 524.00
74.1024 557.00
74.4066 539.00
74.7109 558.00
75.0151 537.00
75.3194 545.00
75.6237 576.00
75.9279 514.00
76.2322 564.00
76.5364 530.00
76.8407 551.00
77.145 967.00
77.4492 669.00
77.7535 565.00
78.0577 511.00
78.362 570.00
78.6663 791.00
78.9705 582.00
79.2748 530.00
79.579 520.00
79.8833 534.00
80.1876 520.00
80.4918 568.00
80.7961 528.00
81.1003 542.00
81.4046 488.00
81.7089 513.00
82.0131 533.00
82.3174 1084.00
82.6217 848.00
82.9259 624.00
83.2302 565.00
83.5344 506.00
83.8387 526.00
84.143 458.00
84.4472 498.00
84.7515 496.00
85.0557 540.00
85.36 554.00
85.6643 478.00
85.9685 538.00
86.2728 579.00
86.577 796.00
86.8813 661.00
87.1856 539.00
87.4898 528.00
87.7941 527.00
88.0983 532.00
88.4026 509.00
88.7069 522.00
89.0111 530.00
89.3154 581.00
89.6196 946.00
89.9239 917.00
90.2282 609.00
90.5324 580.00
90.8367 447.00
91.1409 500.00
91.4452 505.00
91.7495 461.00
92.0537 520.00
92.358 499.00
92.6622 512.00
92.9665 533.00
93.2708 776.00
93.575 917.00
93.8793 768.00
94.1835 591.00
94.4878 504.00
94.7921 490.00
95.0963 527.00
95.4006 463.00
95.7048 531.00
96.0091 490.00
96.3134 501.00
96.6176 500.00
96.9219 529.00
97.2261 507.00
97.5304 607.00
97.8347 589.00
98.1389 470.00
98.4432 521.00
98.7474 498.00
99.0517 502.00
99.356 491.00
99.6602 509.00
99.9645 467.00
100.095 529.00