File: data/xrd_creation/results/PG_2052-1.xy
9.903433 2836.00
10.2077 2695.00
10.512 2647.00
10.8162 2586.00
11.1205 2552.00
11.4247 2459.00
11.729 2331.00
12.0333 2367.00
12.3375 2308.00
12.6418 2197.00
12.946 2238.00
13.2503 2288.00
13.5546 2185.00
13.8588 2241.00
14.1631 2274.00
14.4673 2150.00
14.7716 2212.00
15.0759 2106.00
15.3801 2020.00
15.6844 2071.00
15.9886 2107.00
16.2929 2046.00
16.5972 2092.00
16.9014 2063.00
17.2057 2140.00
17.5099 2542.00
17.8142 2439.00
18.1185 1982.00
18.4227 1927.00
18.727 1933.00
19.0312 1905.00
19.3355 1841.00
19.6398 1802.00
19.944 1863.00
20.2483 1816.00
20.5525 1805.00
20.8568 1771.00
21.1611 1770.00
21.4653 1703.00
21.7696 1769.00
22.0738 1792.00
22.3781 1825.00
22.6824 1760.00
22.9866 1755.00
23.2909 1747.00
23.5951 1796.00
23.8994 2795.00
24.2037 9193.00
24.5079 2671.00
24.8122 2783.00
25.1164 1781.00
25.4207 1795.00
25.725 1723.00
26.0292 1613.00
26.3335 1710.00
26.6378 1748.00
26.942 1685.00
27.2463 1665.00
27.5505 1726.00
27.8548 2004.00
28.1591 3149.00
28.4633 13883.00
28.7676 2703.00
29.0718 1922.00
29.3761 1798.00
29.6804 1663.00
29.9846 2983.00
30.2889 1723.00
30.5931 1952.00
30.8974 4952.00
31.2017 2262.00
31.5059 3259.00
31.8102 9079.00
32.1144 2151.00
32.4187 1636.00
32.723 1561.00
33.0272 1555.00
33.3315 1563.00
33.6357 1557.00
33.94 1668.00
34.2443 4144.00
34.5485 3991.00
34.8528 2083.00
35.157 1705.00
35.4613 3027.00
35.7656 1972.00
36.0698 1682.00
36.3741 1444.00
36.6783 1472.00
36.9826 1409.00
37.2869 1389.00
37.5911 1322.00
37.8954 1327.00
38.1996 1350.00
38.5039 1671.00
38.8082 2772.00
39.1124 1448.00
39.4167 1374.00
39.7209 1437.00
40.0252 1349.00
40.3295 1438.00
40.6337 1543.00
40.938 2895.00
41.2422 1947.00
41.5465 2022.00
41.8508 1526.00
42.155 1278.00
42.4593 1297.00
42.7635 1217.00
43.0678 1196.00
43.3721 1291.00
43.6763 1254.00
43.9806 1223.00
44.2849 1301.00
44.5891 1311.00
44.8934 1487.00
45.1976 1983.00
45.5019 1545.00
45.8062 2167.00
46.1104 2015.00
46.4147 1332.00
46.7189 5915.00
47.0232 1364.00
47.3275 1239.00
47.6317 1259.00
47.936 1637.00
48.2402 1307.00
48.5445 1291.00
48.8488 1364.00
49.153 1680.00
49.4573 2951.00
49.7615 1980.00
50.0658 1781.00
50.3701 4418.00
50.6743 2369.00
50.9786 2345.00
51.2828 1607.00
51.5871 1796.00
51.8914 1235.00
52.1956 1203.00
52.4999 1343.00
52.8041 1197.00
53.1084 1187.00
53.4127 1258.00
53.7169 1305.00
54.0212 1353.00
54.3254 2637.00
54.6297 1621.00
54.934 1355.00
55.2382 1711.00
55.5425 2584.00
55.8467 2607.00
56.151 2445.00
56.4553 1520.00
56.7595 1253.00
57.0638 1290.00
57.368 1960.00
57.6723 1586.00
57.9766 1459.00
58.2808 1689.00
58.5851 2090.00
58.8893 1463.00
59.1936 1720.00
59.4979 1264.00
59.8021 1511.00
60.1064 2512.00
60.4106 1875.00
60.7149 1365.00
61.0192 1236.00
61.3234 1272.00
61.6277 1859.00
61.932 1532.00
62.2362 1966.00
62.5405 1392.00
62.8447 1477.00
63.149 2103.00
63.4533 1395.00
63.7575 1217.00
64.0618 1399.00
64.366 1698.00
64.6703 1373.00
64.9745 1220.00
65.2788 1251.00
65.5831 1535.00
65.8873 1827.00
66.1916 1564.00
66.4959 1157.00
66.8001 1121.00
67.1044 1084.00
67.4086 1057.00
67.7129 1119.00
68.0172 1069.00
68.3214 1059.00
68.6257 1126.00
68.9299 1154.00
69.2342 1361.00
69.5385 1162.00
69.8427 1489.00
70.147 1554.00
70.4512 1162.00
70.7555 1079.00
71.0598 1182.00
71.364 1523.00
71.6683 1436.00
71.9725 1334.00
72.2768 1267.00
72.5811 1203.00
72.8853 1238.00
73.1896 1158.00
73.4938 1141.00
73.7981 1133.00
74.1024 1072.00
74.4066 1185.00
74.7109 1907.00
75.0151 1377.00
75.3194 1507.00
75.6237 1309.00
75.9279 1092.00
76.2322 1111.00
76.5364 1172.00
76.8407 1298.00
77.145 1242.00
77.4492 1135.00
77.7535 1190.00
78.0577 1126.00
78.362 1163.00
78.6663 1211.00
78.9705 1183.00
79.2748 1215.00
79.579 1254.00
79.8833 1264.00
80.1876 1250.00
80.4918 1073.00
80.7961 1072.00
81.1003 1101.00
81.4046 1110.00
81.7089 1299.00
82.0131 1309.00
82.3174 1139.00
82.6217 1202.00
82.9259 1243.00
83.2302 1277.00
83.5344 1340.00
83.8387 1245.00
84.143 1341.00
84.4472 1235.00
84.7515 1092.00
85.0557 1217.00
85.36 1160.00
85.6643 1288.00
85.9685 1191.00
86.2728 1075.00
86.577 1133.00
86.8813 1025.00
87.1856 1073.00
87.4898 1141.00
87.7941 1228.00
88.0983 1165.00
88.4026 1344.00
88.7069 1490.00
89.0111 1214.00
89.3154 1122.00
89.6196 1216.00
89.9239 1325.00
90.2282 1277.00
90.5324 1078.00
90.8367 1099.00
91.1409 1094.00
91.4452 1126.00
91.7495 1053.00
92.0537 1005.00
92.358 1000.00
92.6622 935.00
92.9665 994.00
93.2708 940.00
93.575 1080.00
93.8793 1139.00
94.1835 1089.00
94.4878 1092.00
94.7921 1054.00
95.0963 1139.00
95.4006 1372.00
95.7048 1217.00
96.0091 1094.00
96.3134 1279.00
96.6176 1488.00
96.9219 1351.00
97.2261 1359.00
97.5304 1227.00
97.8347 1149.00
98.1389 1229.00
98.4432 1169.00
98.7474 1187.00
99.0517 1278.00
99.356 1529.00
99.6602 1709.00
99.9645 1324.00
100.095 1306.00