File: data/xrd_creation/results/PG_2635-1.xy
9.903433 4067.00
10.2077 3909.00
10.512 3909.00
10.8162 3994.00
11.1205 3798.00
11.4247 3931.00
11.729 3948.00
12.0333 4080.00
12.3375 4599.00
12.6418 8288.00
12.946 6551.00
13.2503 4283.00
13.5546 3915.00
13.8588 3874.00
14.1631 3891.00
14.4673 3797.00
14.7716 3833.00
15.0759 3809.00
15.3801 3975.00
15.6844 3972.00
15.9886 4580.00
16.2929 4941.00
16.5972 3785.00
16.9014 3844.00
17.2057 3985.00
17.5099 3688.00
17.8142 3615.00
18.1185 3531.00
18.4227 3701.00
18.727 3652.00
19.0312 3639.00
19.3355 3543.00
19.6398 3588.00
19.944 3634.00
20.2483 3511.00
20.5525 3522.00
20.8568 3572.00
21.1611 3515.00
21.4653 3585.00
21.7696 3590.00
22.0738 3504.00
22.3781 3473.00
22.6824 3462.00
22.9866 3531.00
23.2909 3459.00
23.5951 3379.00
23.8994 3559.00
24.2037 3412.00
24.5079 3437.00
24.8122 3550.00
25.1164 4234.00
25.4207 5194.00
25.725 3938.00
26.0292 3451.00
26.3335 3573.00
26.6378 3453.00
26.942 3368.00
27.2463 3369.00
27.5505 3403.00
27.8548 3462.00
28.1591 3253.00
28.4633 3144.00
28.7676 3299.00
29.0718 3281.00
29.3761 3357.00
29.6804 3284.00
29.9846 3256.00
30.2889 3409.00
30.5931 3316.00
30.8974 3269.00
31.2017 3321.00
31.5059 3265.00
31.8102 3283.00
32.1144 3376.00
32.4187 3541.00
32.723 3914.00
33.0272 3308.00
33.3315 3290.00
33.6357 3481.00
33.94 3532.00
34.2443 3241.00
34.5485 3367.00
34.8528 3356.00
35.157 3737.00
35.4613 3528.00
35.7656 3553.00
36.0698 3684.00
36.3741 3665.00
36.6783 3688.00
36.9826 3904.00
37.2869 4471.00
37.5911 3874.00
37.8954 3577.00
38.1996 4236.00
38.5039 3488.00
38.8082 3393.00
39.1124 3262.00
39.4167 3226.00
39.7209 3218.00
40.0252 3343.00
40.3295 3533.00
40.6337 3494.00
40.938 3849.00
41.2422 3466.00
41.5465 3530.00
41.8508 3675.00
42.155 3613.00
42.4593 3721.00
42.7635 3364.00
43.0678 3199.00
43.3721 3218.00
43.6763 3220.00
43.9806 3216.00
44.2849 3194.00
44.5891 3300.00
44.8934 3333.00
45.1976 3246.00
45.5019 3402.00
45.8062 3093.00
46.1104 3143.00
46.4147 3134.00
46.7189 3177.00
47.0232 3230.00
47.3275 3200.00
47.6317 3182.00
47.936 3127.00
48.2402 3082.00
48.5445 3295.00
48.8488 3250.00
49.153 3231.00
49.4573 3279.00
49.7615 3290.00
50.0658 3252.00
50.3701 3368.00
50.6743 3373.00
50.9786 3338.00
51.2828 3233.00
51.5871 3083.00
51.8914 3269.00
52.1956 3086.00
52.4999 3070.00
52.8041 3101.00
53.1084 3112.00
53.4127 3131.00
53.7169 3092.00
54.0212 3083.00
54.3254 3046.00
54.6297 3073.00
54.934 3130.00
55.2382 3094.00
55.5425 3164.00
55.8467 3144.00
56.151 3208.00
56.4553 3181.00
56.7595 3158.00
57.0638 3258.00
57.368 3316.00
57.6723 3139.00
57.9766 3180.00
58.2808 3014.00
58.5851 3146.00
58.8893 3265.00
59.1936 3110.00
59.4979 2972.00
59.8021 3043.00
60.1064 3016.00
60.4106 3039.00
60.7149 3194.00
61.0192 3077.00
61.3234 2989.00
61.6277 3012.00
61.932 2977.00
62.2362 3031.00
62.5405 3035.00
62.8447 3043.00
63.149 3184.00
63.4533 3138.00
63.7575 3103.00
64.0618 3090.00
64.366 3107.00
64.6703 3183.00
64.9745 3140.00
65.2788 3165.00
65.5831 3226.00
65.8873 3296.00
66.1916 3140.00
66.4959 3062.00
66.8001 3183.00
67.1044 3086.00
67.4086 3106.00
67.7129 3080.00
68.0172 3076.00
68.3214 2901.00
68.6257 3007.00
68.9299 3032.00
69.2342 3081.00
69.5385 3057.00
69.8427 3079.00
70.147 3035.00
70.4512 3052.00
70.7555 2948.00
71.0598 2974.00
71.364 2975.00
71.6683 3064.00
71.9725 2964.00
72.2768 2953.00
72.5811 3010.00
72.8853 2932.00
73.1896 2993.00
73.4938 2942.00
73.7981 2988.00
74.1024 3100.00
74.4066 2944.00
74.7109 2910.00
75.0151 2884.00
75.3194 2982.00
75.6237 2819.00
75.9279 2949.00
76.2322 3032.00
76.5364 3006.00
76.8407 2985.00
77.145 3135.00
77.4492 2923.00
77.7535 2875.00
78.0577 2859.00
78.362 2969.00
78.6663 2930.00
78.9705 2967.00
79.2748 2941.00
79.579 2902.00
79.8833 2956.00
80.1876 3030.00
80.4918 3032.00
80.7961 3058.00
81.1003 2922.00
81.4046 2988.00
81.7089 3066.00
82.0131 2948.00
82.3174 2961.00
82.6217 2906.00
82.9259 2984.00
83.2302 2838.00
83.5344 3032.00
83.8387 2944.00
84.143 2961.00
84.4472 3041.00
84.7515 2953.00
85.0557 2915.00
85.36 3003.00
85.6643 2884.00
85.9685 2994.00
86.2728 2990.00
86.577 2898.00
86.8813 2776.00
87.1856 2879.00
87.4898 2895.00
87.7941 2884.00
88.0983 2913.00
88.4026 2884.00
88.7069 2874.00
89.0111 2967.00
89.3154 2919.00
89.6196 2774.00
89.9239 2887.00
90.2282 2973.00
90.5324 2779.00
90.8367 2973.00
91.1409 2932.00
91.4452 2907.00
91.7495 2911.00
92.0537 2850.00
92.358 2842.00
92.6622 2882.00
92.9665 2927.00
93.2708 2888.00
93.575 2967.00
93.8793 2883.00
94.1835 2913.00
94.4878 2919.00
94.7921 2926.00
95.0963 2897.00
95.4006 2925.00
95.7048 2820.00
96.0091 2949.00
96.3134 2887.00
96.6176 2912.00
96.9219 2935.00
97.2261 3020.00
97.5304 2999.00
97.8347 2993.00
98.1389 2994.00
98.4432 2960.00
98.7474 2947.00
99.0517 3018.00
99.356 2913.00
99.6602 2885.00
99.9645 2829.00
100.095 2901.00