File: data/xrd_creation/results/PG_2239-1.xy
9.903433 4472.00
10.2077 4488.00
10.512 4468.00
10.8162 4323.00
11.1205 4258.00
11.4247 4313.00
11.729 4326.00
12.0333 4214.00
12.3375 4264.00
12.6418 4325.00
12.946 4193.00
13.2503 4280.00
13.5546 4273.00
13.8588 4314.00
14.1631 4291.00
14.4673 4336.00
14.7716 4321.00
15.0759 4439.00
15.3801 4420.00
15.6844 4406.00
15.9886 4432.00
16.2929 4434.00
16.5972 4378.00
16.9014 4431.00
17.2057 4575.00
17.5099 4568.00
17.8142 4588.00
18.1185 4665.00
18.4227 4593.00
18.727 4487.00
19.0312 4548.00
19.3355 4710.00
19.6398 4542.00
19.944 4603.00
20.2483 4754.00
20.5525 4858.00
20.8568 4991.00
21.1611 5231.00
21.4653 9913.00
21.7696 6335.00
22.0738 4971.00
22.3781 4930.00
22.6824 4826.00
22.9866 4911.00
23.2909 5146.00
23.5951 6262.00
23.8994 5017.00
24.2037 4787.00
24.5079 4840.00
24.8122 4900.00
25.1164 4907.00
25.4207 4832.00
25.725 4834.00
26.0292 4916.00
26.3335 4905.00
26.6378 4889.00
26.942 5051.00
27.2463 4787.00
27.5505 5037.00
27.8548 4975.00
28.1591 4896.00
28.4633 4971.00
28.7676 4878.00
29.0718 4962.00
29.3761 5422.00
29.6804 8644.00
29.9846 5379.00
30.2889 5267.00
30.5931 7615.00
30.8974 18620.00
31.2017 5614.00
31.5059 5591.00
31.8102 9498.00
32.1144 21545.00
32.4187 5780.00
32.723 5251.00
33.0272 5248.00
33.3315 5148.00
33.6357 5084.00
33.94 5479.00
34.2443 7984.00
34.5485 6259.00
34.8528 5180.00
35.157 5277.00
35.4613 5118.00
35.7656 5122.00
36.0698 5609.00
36.3741 9966.00
36.6783 5353.00
36.9826 7441.00
37.2869 18483.00
37.5911 29196.00
37.8954 6040.00
38.1996 5373.00
38.5039 5029.00
38.8082 5107.00
39.1124 5210.00
39.4167 5376.00
39.7209 7063.00
40.0252 6551.00
40.3295 6028.00
40.6337 5138.00
40.938 5180.00
41.2422 5017.00
41.5465 5156.00
41.8508 5045.00
42.155 5273.00
42.4593 5295.00
42.7635 5743.00
43.0678 7359.00
43.3721 22955.00
43.6763 32386.00
43.9806 6422.00
44.2849 5480.00
44.5891 5341.00
44.8934 5231.00
45.1976 5362.00
45.5019 5088.00
45.8062 5219.00
46.1104 5061.00
46.4147 5235.00
46.7189 5086.00
47.0232 5210.00
47.3275 5237.00
47.6317 5290.00
47.936 5263.00
48.2402 5413.00
48.5445 5187.00
48.8488 6625.00
49.153 6553.00
49.4573 5204.00
49.7615 4979.00
50.0658 4953.00
50.3701 5339.00
50.6743 5534.00
50.9786 5077.00
51.2828 5071.00
51.5871 4888.00
51.8914 5051.00
52.1956 5024.00
52.4999 4981.00
52.8041 4962.00
53.1084 4966.00
53.4127 4886.00
53.7169 4911.00
54.0212 4962.00
54.3254 5001.00
54.6297 4984.00
54.934 4933.00
55.2382 4967.00
55.5425 5097.00
55.8467 5009.00
56.151 4948.00
56.4553 5073.00
56.7595 5053.00
57.0638 5910.00
57.368 5004.00
57.6723 5249.00
57.9766 6481.00
58.2808 5557.00
58.5851 5888.00
58.8893 5824.00
59.1936 6365.00
59.4979 5323.00
59.8021 5726.00
60.1064 6226.00
60.4106 5028.00
60.7149 5103.00
61.0192 5237.00
61.3234 5735.00
61.6277 6075.00
61.932 5341.00
62.2362 5384.00
62.5405 5720.00
62.8447 10326.00
63.149 22915.00
63.4533 7975.00
63.7575 5994.00
64.0618 5410.00
64.366 5203.00
64.6703 5111.00
64.9745 5206.00
65.2788 5191.00
65.5831 5580.00
65.8873 5441.00
66.1916 5174.00
66.4959 5135.00
66.8001 5086.00
67.1044 5154.00
67.4086 5291.00
67.7129 5049.00
68.0172 5089.00
68.3214 5096.00
68.6257 5090.00
68.9299 4988.00
69.2342 5034.00
69.5385 5109.00
69.8427 5035.00
70.147 4940.00
70.4512 5017.00
70.7555 5135.00
71.0598 4936.00
71.364 4878.00
71.6683 5025.00
71.9725 5138.00
72.2768 5107.00
72.5811 5065.00
72.8853 4879.00
73.1896 5034.00
73.4938 4914.00
73.7981 5161.00
74.1024 5606.00
74.4066 5261.00
74.7109 5011.00
75.0151 5238.00
75.3194 6716.00
75.6237 11440.00
75.9279 7053.00
76.2322 5176.00
76.5364 4948.00
76.8407 4938.00
77.145 4979.00
77.4492 4991.00
77.7535 4872.00
78.0577 4951.00
78.362 4902.00
78.6663 4884.00
78.9705 4972.00
79.2748 5890.00
79.579 9101.00
79.8833 6709.00
80.1876 5216.00
80.4918 4930.00
80.7961 4933.00
81.1003 5100.00
81.4046 4991.00
81.7089 5052.00
82.0131 5145.00
82.3174 5084.00
82.6217 4868.00
82.9259 4915.00
83.2302 4821.00
83.5344 4788.00
83.8387 4902.00
84.143 4931.00
84.4472 4783.00
84.7515 4902.00
85.0557 4853.00
85.36 4911.00
85.6643 4915.00
85.9685 4832.00
86.2728 5058.00
86.577 5222.00
86.8813 5071.00
87.1856 4905.00
87.4898 4760.00
87.7941 4888.00
88.0983 4892.00
88.4026 4840.00
88.7069 4923.00
89.0111 4818.00
89.3154 4756.00
89.6196 4785.00
89.9239 4795.00
90.2282 4727.00
90.5324 4821.00
90.8367 4827.00
91.1409 4825.00
91.4452 4882.00
91.7495 4881.00
92.0537 4920.00
92.358 4928.00
92.6622 5086.00
92.9665 5000.00
93.2708 5013.00
93.575 4931.00
93.8793 4869.00
94.1835 4884.00
94.4878 4768.00
94.7921 5018.00
95.0963 6071.00
95.4006 5881.00
95.7048 5246.00
96.0091 4966.00
96.3134 4773.00
96.6176 4953.00
96.9219 4966.00
97.2261 4974.00
97.5304 4934.00
97.8347 4905.00
98.1389 4952.00
98.4432 4930.00
98.7474 5041.00
99.0517 5118.00
99.356 5025.00
99.6602 4920.00
99.9645 4956.00
100.095 4958.00