File: data/xrd_creation/results/PG_2048-1.xy
9.903433 2724.00
10.2077 2770.00
10.512 2554.00
10.8162 2560.00
11.1205 2408.00
11.4247 2290.00
11.729 2227.00
12.0333 2131.00
12.3375 2080.00
12.6418 2076.00
12.946 1941.00
13.2503 1857.00
13.5546 1919.00
13.8588 1801.00
14.1631 1902.00
14.4673 1745.00
14.7716 1679.00
15.0759 1617.00
15.3801 1797.00
15.6844 3109.00
15.9886 1762.00
16.2929 1676.00
16.5972 1549.00
16.9014 1572.00
17.2057 1578.00
17.5099 1753.00
17.8142 2473.00
18.1185 1458.00
18.4227 1420.00
18.727 1445.00
19.0312 1399.00
19.3355 1379.00
19.6398 1258.00
19.944 1406.00
20.2483 1583.00
20.5525 4578.00
20.8568 1562.00
21.1611 1207.00
21.4653 1252.00
21.7696 1384.00
22.0738 2407.00
22.3781 1237.00
22.6824 1192.00
22.9866 1170.00
23.2909 1137.00
23.5951 1189.00
23.8994 1507.00
24.2037 15859.00
24.5079 1233.00
24.8122 1098.00
25.1164 1026.00
25.4207 1004.00
25.725 1133.00
26.0292 1108.00
26.3335 2218.00
26.6378 1394.00
26.942 1001.00
27.2463 919.00
27.5505 991.00
27.8548 927.00
28.1591 951.00
28.4633 981.00
28.7676 937.00
29.0718 906.00
29.3761 975.00
29.6804 948.00
29.9846 2350.00
30.2889 1017.00
30.5931 1099.00
30.8974 2909.00
31.2017 3040.00
31.5059 1916.00
31.8102 990.00
32.1144 886.00
32.4187 949.00
32.723 1878.00
33.0272 857.00
33.3315 800.00
33.6357 1184.00
33.94 751.00
34.2443 2175.00
34.5485 1584.00
34.8528 837.00
35.157 716.00
35.4613 1116.00
35.7656 662.00
36.0698 633.00
36.3741 722.00
36.6783 642.00
36.9826 654.00
37.2869 584.00
37.5911 635.00
37.8954 586.00
38.1996 609.00
38.5039 1057.00
38.8082 1690.00
39.1124 603.00
39.4167 535.00
39.7209 524.00
40.0252 533.00
40.3295 551.00
40.6337 579.00
40.938 1225.00
41.2422 593.00
41.5465 1064.00
41.8508 592.00
42.155 581.00
42.4593 677.00
42.7635 508.00
43.0678 487.00
43.3721 498.00
43.6763 519.00
43.9806 479.00
44.2849 499.00
44.5891 516.00
44.8934 490.00
45.1976 515.00
45.5019 557.00
45.8062 1060.00
46.1104 1468.00
46.4147 669.00
46.7189 4104.00
47.0232 831.00
47.3275 627.00
47.6317 1324.00
47.936 1166.00
48.2402 766.00
48.5445 566.00
48.8488 521.00
49.153 1064.00
49.4573 533.00
49.7615 574.00
50.0658 475.00
50.3701 472.00
50.6743 462.00
50.9786 422.00
51.2828 562.00
51.5871 1027.00
51.8914 546.00
52.1956 524.00
52.4999 732.00
52.8041 567.00
53.1084 459.00
53.4127 432.00
53.7169 442.00
54.0212 521.00
54.3254 489.00
54.6297 465.00
54.934 414.00
55.2382 631.00
55.5425 836.00
55.8467 628.00
56.151 499.00
56.4553 467.00
56.7595 472.00
57.0638 448.00
57.368 408.00
57.6723 408.00
57.9766 406.00
58.2808 440.00
58.5851 752.00
58.8893 831.00
59.1936 1023.00
59.4979 563.00
59.8021 412.00
60.1064 764.00
60.4106 507.00
60.7149 412.00
61.0192 396.00
61.3234 789.00
61.6277 449.00
61.932 462.00
62.2362 497.00
62.5405 751.00
62.8447 443.00
63.149 354.00
63.4533 347.00
63.7575 386.00
64.0618 543.00
64.366 693.00
64.6703 480.00
64.9745 477.00
65.2788 439.00
65.5831 410.00
65.8873 385.00
66.1916 416.00
66.4959 508.00
66.8001 381.00
67.1044 420.00
67.4086 374.00
67.7129 400.00
68.0172 440.00
68.3214 462.00
68.6257 526.00
68.9299 426.00
69.2342 454.00
69.5385 438.00
69.8427 671.00
70.147 1023.00
70.4512 425.00
70.7555 456.00
71.0598 371.00
71.364 361.00
71.6683 397.00
71.9725 577.00
72.2768 404.00
72.5811 651.00
72.8853 561.00
73.1896 486.00
73.4938 328.00
73.7981 370.00
74.1024 371.00
74.4066 482.00
74.7109 1370.00
75.0151 586.00
75.3194 343.00
75.6237 363.00
75.9279 353.00
76.2322 489.00
76.5364 405.00
76.8407 394.00
77.145 417.00
77.4492 376.00
77.7535 381.00
78.0577 306.00
78.362 424.00
78.6663 395.00
78.9705 344.00
79.2748 331.00
79.579 471.00
79.8833 587.00
80.1876 546.00
80.4918 360.00
80.7961 328.00
81.1003 302.00
81.4046 312.00
81.7089 373.00
82.0131 415.00
82.3174 335.00
82.6217 345.00
82.9259 331.00
83.2302 359.00
83.5344 339.00
83.8387 366.00
84.143 331.00
84.4472 340.00
84.7515 317.00
85.0557 351.00
85.36 360.00
85.6643 563.00
85.9685 515.00
86.2728 298.00
86.577 333.00
86.8813 371.00
87.1856 353.00
87.4898 315.00
87.7941 318.00
88.0983 312.00
88.4026 292.00
88.7069 358.00
89.0111 329.00
89.3154 315.00
89.6196 327.00
89.9239 326.00
90.2282 321.00
90.5324 297.00
90.8367 360.00
91.1409 352.00
91.4452 306.00
91.7495 270.00
92.0537 286.00
92.358 275.00
92.6622 313.00
92.9665 338.00
93.2708 337.00
93.575 354.00
93.8793 344.00
94.1835 335.00
94.4878 424.00
94.7921 382.00
95.0963 356.00
95.4006 457.00
95.7048 429.00
96.0091 357.00
96.3134 322.00
96.6176 435.00
96.9219 436.00
97.2261 355.00
97.5304 292.00
97.8347 298.00
98.1389 309.00
98.4432 327.00
98.7474 332.00
99.0517 312.00
99.356 521.00
99.6602 604.00
99.9645 470.00
100.095 562.00