File: data/xrd_creation/results/PG_2238-1.xy
9.903433 3046.00
10.2077 2976.00
10.512 2980.00
10.8162 2835.00
11.1205 2938.00
11.4247 2709.00
11.729 2720.00
12.0333 2695.00
12.3375 2659.00
12.6418 2672.00
12.946 2589.00
13.2503 2501.00
13.5546 2617.00
13.8588 2520.00
14.1631 2515.00
14.4673 2476.00
14.7716 2550.00
15.0759 2457.00
15.3801 2390.00
15.6844 2468.00
15.9886 2459.00
16.2929 2346.00
16.5972 2440.00
16.9014 2462.00
17.2057 2492.00
17.5099 2505.00
17.8142 2220.00
18.1185 2313.00
18.4227 2295.00
18.727 2151.00
19.0312 2118.00
19.3355 2143.00
19.6398 2287.00
19.944 2158.00
20.2483 2223.00
20.5525 2115.00
20.8568 2056.00
21.1611 2026.00
21.4653 2245.00
21.7696 2569.00
22.0738 2215.00
22.3781 2422.00
22.6824 4636.00
22.9866 19593.00
23.2909 2622.00
23.5951 2330.00
23.8994 2327.00
24.2037 2288.00
24.5079 2195.00
24.8122 2085.00
25.1164 2174.00
25.4207 2160.00
25.725 2170.00
26.0292 2151.00
26.3335 2148.00
26.6378 2117.00
26.942 2363.00
27.2463 2737.00
27.5505 2958.00
27.8548 3142.00
28.1591 3519.00
28.4633 9090.00
28.7676 8275.00
29.0718 5868.00
29.3761 6424.00
29.6804 2912.00
29.9846 2393.00
30.2889 2171.00
30.5931 2123.00
30.8974 2889.00
31.2017 2017.00
31.5059 1967.00
31.8102 1959.00
32.1144 4019.00
32.4187 2086.00
32.723 1935.00
33.0272 1962.00
33.3315 2054.00
33.6357 1902.00
33.94 2043.00
34.2443 2136.00
34.5485 2130.00
34.8528 1849.00
35.157 1816.00
35.4613 1902.00
35.7656 2229.00
36.0698 2305.00
36.3741 2796.00
36.6783 4467.00
36.9826 4719.00
37.2869 5866.00
37.5911 2483.00
37.8954 1920.00
38.1996 1780.00
38.5039 1617.00
38.8082 1679.00
39.1124 1713.00
39.4167 1616.00
39.7209 1735.00
40.0252 1758.00
40.3295 1774.00
40.6337 1572.00
40.938 1673.00
41.2422 1663.00
41.5465 1639.00
41.8508 1564.00
42.155 1583.00
42.4593 1573.00
42.7635 1737.00
43.0678 1810.00
43.3721 1762.00
43.6763 1775.00
43.9806 1765.00
44.2849 1758.00
44.5891 2090.00
44.8934 2175.00
45.1976 2207.00
45.5019 2062.00
45.8062 1885.00
46.1104 1876.00
46.4147 7174.00
46.7189 1890.00
47.0232 1675.00
47.3275 1648.00
47.6317 1750.00
47.936 1633.00
48.2402 1739.00
48.5445 1822.00
48.8488 1910.00
49.153 2154.00
49.4573 2307.00
49.7615 3509.00
50.0658 4031.00
50.3701 2594.00
50.6743 2513.00
50.9786 2610.00
51.2828 2885.00
51.5871 2130.00
51.8914 2115.00
52.1956 2060.00
52.4999 1984.00
52.8041 1865.00
53.1084 1767.00
53.4127 1645.00
53.7169 1749.00
54.0212 1651.00
54.3254 1786.00
54.6297 1920.00
54.934 2340.00
55.2382 4941.00
55.5425 5127.00
55.8467 3295.00
56.151 2243.00
56.4553 2103.00
56.7595 2357.00
57.0638 2165.00
57.368 1983.00
57.6723 2058.00
57.9766 1948.00
58.2808 1868.00
58.5851 2011.00
58.8893 2228.00
59.1936 1914.00
59.4979 1804.00
59.8021 1832.00
60.1064 2146.00
60.4106 2007.00
60.7149 1698.00
61.0192 1705.00
61.3234 1642.00
61.6277 1844.00
61.932 1888.00
62.2362 1872.00
62.5405 1933.00
62.8447 1784.00
63.149 1803.00
63.4533 1834.00
63.7575 2039.00
64.0618 1993.00
64.366 1789.00
64.6703 1684.00
64.9745 1848.00
65.2788 1926.00
65.5831 1737.00
65.8873 1716.00
66.1916 1700.00
66.4959 1774.00
66.8001 1839.00
67.1044 1772.00
67.4086 1753.00
67.7129 1763.00
68.0172 1726.00
68.3214 1768.00
68.6257 1649.00
68.9299 1654.00
69.2342 1609.00
69.5385 1548.00
69.8427 1728.00
70.147 2153.00
70.4512 2491.00
70.7555 1985.00
71.0598 1706.00
71.364 1970.00
71.6683 1746.00
71.9725 1749.00
72.2768 2012.00
72.5811 1678.00
72.8853 1488.00
73.1896 1517.00
73.4938 1499.00
73.7981 1467.00
74.1024 1442.00
74.4066 1526.00
74.7109 1476.00
75.0151 1508.00
75.3194 1554.00
75.6237 1545.00
75.9279 1537.00
76.2322 1621.00
76.5364 1652.00
76.8407 1582.00
77.145 1624.00
77.4492 1662.00
77.7535 1642.00
78.0577 1692.00
78.362 1523.00
78.6663 1670.00
78.9705 1907.00
79.2748 1967.00
79.579 1896.00
79.8833 1759.00
80.1876 1789.00
80.4918 1611.00
80.7961 1564.00
81.1003 1618.00
81.4046 1619.00
81.7089 1648.00
82.0131 1624.00
82.3174 1587.00
82.6217 1559.00
82.9259 1608.00
83.2302 1604.00
83.5344 1591.00
83.8387 1522.00
84.143 1552.00
84.4472 1660.00
84.7515 1714.00
85.0557 1557.00
85.36 1445.00
85.6643 1494.00
85.9685 1530.00
86.2728 1507.00
86.577 1450.00
86.8813 1509.00
87.1856 1490.00
87.4898 1449.00
87.7941 1449.00
88.0983 1560.00
88.4026 1560.00
88.7069 1497.00
89.0111 1497.00
89.3154 1537.00
89.6196 1452.00
89.9239 1389.00
90.2282 1532.00
90.5324 1533.00
90.8367 1562.00
91.1409 1432.00
91.4452 1490.00
91.7495 1438.00
92.0537 1538.00
92.358 1532.00
92.6622 1569.00
92.9665 1553.00
93.2708 1536.00
93.575 1581.00
93.8793 1537.00
94.1835 1549.00
94.4878 1572.00
94.7921 1567.00
95.0963 1560.00
95.4006 1540.00
95.7048 1593.00
96.0091 1653.00
96.3134 1613.00
96.6176 1525.00
96.9219 1526.00
97.2261 1638.00
97.5304 1697.00
97.8347 1684.00
98.1389 1651.00
98.4432 1557.00
98.7474 1497.00
99.0517 1567.00
99.356 1551.00
99.6602 1578.00
99.9645 1550.00
100.095 1613.00