File: data/xrd_creation/results/PG_2735-1.xy
9.903433 3115.00
10.2077 3125.00
10.512 2999.00
10.8162 2876.00
11.1205 2774.00
11.4247 2805.00
11.729 2791.00
12.0333 2734.00
12.3375 2636.00
12.6418 2604.00
12.946 2475.00
13.2503 2581.00
13.5546 2506.00
13.8588 2445.00
14.1631 2397.00
14.4673 2442.00
14.7716 2423.00
15.0759 2455.00
15.3801 2691.00
15.6844 3186.00
15.9886 4376.00
16.2929 2864.00
16.5972 2512.00
16.9014 2454.00
17.2057 2380.00
17.5099 2367.00
17.8142 2412.00
18.1185 2259.00
18.4227 2199.00
18.727 2183.00
19.0312 2179.00
19.3355 2241.00
19.6398 2259.00
19.944 2164.00
20.2483 2202.00
20.5525 2226.00
20.8568 2248.00
21.1611 2192.00
21.4653 2208.00
21.7696 2293.00
22.0738 2209.00
22.3781 2092.00
22.6824 2153.00
22.9866 2184.00
23.2909 2205.00
23.5951 2092.00
23.8994 2097.00
24.2037 2046.00
24.5079 2157.00
24.8122 2108.00
25.1164 2137.00
25.4207 2085.00
25.725 2099.00
26.0292 2112.00
26.3335 2033.00
26.6378 2084.00
26.942 2097.00
27.2463 2112.00
27.5505 2082.00
27.8548 2006.00
28.1591 2020.00
28.4633 1993.00
28.7676 2004.00
29.0718 2008.00
29.3761 1947.00
29.6804 1954.00
29.9846 1956.00
30.2889 1996.00
30.5931 1993.00
30.8974 1971.00
31.2017 2149.00
31.5059 2081.00
31.8102 2163.00
32.1144 2305.00
32.4187 2313.00
32.723 2052.00
33.0272 1983.00
33.3315 2062.00
33.6357 2029.00
33.94 1860.00
34.2443 2078.00
34.5485 1869.00
34.8528 1927.00
35.157 2041.00
35.4613 1880.00
35.7656 1988.00
36.0698 1859.00
36.3741 2004.00
36.6783 2177.00
36.9826 2186.00
37.2869 2201.00
37.5911 2215.00
37.8954 2300.00
38.1996 2144.00
38.5039 1974.00
38.8082 2021.00
39.1124 2034.00
39.4167 1973.00
39.7209 1955.00
40.0252 1982.00
40.3295 1962.00
40.6337 1911.00
40.938 1897.00
41.2422 1924.00
41.5465 1953.00
41.8508 1938.00
42.155 1863.00
42.4593 1895.00
42.7635 1997.00
43.0678 1993.00
43.3721 1955.00
43.6763 1967.00
43.9806 2029.00
44.2849 1999.00
44.5891 2064.00
44.8934 2009.00
45.1976 2060.00
45.5019 2013.00
45.8062 2044.00
46.1104 1950.00
46.4147 1955.00
46.7189 1970.00
47.0232 1962.00
47.3275 1947.00
47.6317 1857.00
47.936 1887.00
48.2402 1886.00
48.5445 1952.00
48.8488 1872.00
49.153 1853.00
49.4573 1902.00
49.7615 1876.00
50.0658 1892.00
50.3701 1791.00
50.6743 1845.00
50.9786 1855.00
51.2828 1854.00
51.5871 1838.00
51.8914 1868.00
52.1956 1851.00
52.4999 1827.00
52.8041 1824.00
53.1084 1763.00
53.4127 1818.00
53.7169 1810.00
54.0212 1849.00
54.3254 1889.00
54.6297 1873.00
54.934 1885.00
55.2382 1905.00
55.5425 1874.00
55.8467 1915.00
56.151 1919.00
56.4553 1876.00
56.7595 1984.00
57.0638 1925.00
57.368 1916.00
57.6723 1890.00
57.9766 1838.00
58.2808 1774.00
58.5851 1869.00
58.8893 1926.00
59.1936 1795.00
59.4979 1782.00
59.8021 1810.00
60.1064 1804.00
60.4106 1830.00
60.7149 1756.00
61.0192 1749.00
61.3234 1875.00
61.6277 1777.00
61.932 1840.00
62.2362 1818.00
62.5405 1864.00
62.8447 1849.00
63.149 1861.00
63.4533 1855.00
63.7575 1845.00
64.0618 1867.00
64.366 1770.00
64.6703 1744.00
64.9745 1829.00
65.2788 1886.00
65.5831 2134.00
65.8873 2001.00
66.1916 1894.00
66.4959 1812.00
66.8001 1838.00
67.1044 1802.00
67.4086 1865.00
67.7129 1966.00
68.0172 1749.00
68.3214 1868.00
68.6257 1828.00
68.9299 1799.00
69.2342 1892.00
69.5385 1929.00
69.8427 1795.00
70.147 1861.00
70.4512 1831.00
70.7555 1789.00
71.0598 1809.00
71.364 1733.00
71.6683 1862.00
71.9725 1748.00
72.2768 1856.00
72.5811 1786.00
72.8853 1778.00
73.1896 1758.00
73.4938 1744.00
73.7981 1837.00
74.1024 1754.00
74.4066 1726.00
74.7109 1763.00
75.0151 1785.00
75.3194 1794.00
75.6237 1679.00
75.9279 1786.00
76.2322 1846.00
76.5364 1783.00
76.8407 1765.00
77.145 1861.00
77.4492 1846.00
77.7535 1784.00
78.0577 1785.00
78.362 1801.00
78.6663 1786.00
78.9705 1793.00
79.2748 1704.00
79.579 1819.00
79.8833 1789.00
80.1876 1855.00
80.4918 1787.00
80.7961 1829.00
81.1003 1805.00
81.4046 1674.00
81.7089 1706.00
82.0131 1798.00
82.3174 1765.00
82.6217 1835.00
82.9259 1790.00
83.2302 1841.00
83.5344 1677.00
83.8387 1784.00
84.143 1729.00
84.4472 1809.00
84.7515 1743.00
85.0557 1755.00
85.36 1851.00
85.6643 1813.00
85.9685 1746.00
86.2728 1731.00
86.577 1875.00
86.8813 1830.00
87.1856 1665.00
87.4898 1846.00
87.7941 1787.00
88.0983 1758.00
88.4026 1664.00
88.7069 1689.00
89.0111 1702.00
89.3154 1744.00
89.6196 1753.00
89.9239 1765.00
90.2282 1818.00
90.5324 1749.00
90.8367 1756.00
91.1409 1760.00
91.4452 1670.00
91.7495 1759.00
92.0537 1812.00
92.358 1748.00
92.6622 1804.00
92.9665 1756.00
93.2708 1786.00
93.575 1802.00
93.8793 1744.00
94.1835 1748.00
94.4878 1782.00
94.7921 1729.00
95.0963 1702.00
95.4006 1762.00
95.7048 1796.00
96.0091 1780.00
96.3134 1813.00
96.6176 1861.00
96.9219 1768.00
97.2261 1750.00
97.5304 1789.00
97.8347 1831.00
98.1389 1768.00
98.4432 1816.00
98.7474 1805.00
99.0517 1767.00
99.356 1757.00
99.6602 1809.00
99.9645 1740.00
100.095 1680.00