File: data/xrd_creation/results/PG_2435-1.xy
9.903433 2683.00
10.2077 2572.00
10.512 2379.00
10.8162 2304.00
11.1205 2176.00
11.4247 2090.00
11.729 1976.00
12.0333 1891.00
12.3375 1878.00
12.6418 1753.00
12.946 1652.00
13.2503 1684.00
13.5546 1543.00
13.8588 1566.00
14.1631 1490.00
14.4673 1458.00
14.7716 1501.00
15.0759 1414.00
15.3801 1343.00
15.6844 1323.00
15.9886 1361.00
16.2929 1253.00
16.5972 1291.00
16.9014 1167.00
17.2057 1192.00
17.5099 1150.00
17.8142 1160.00
18.1185 1153.00
18.4227 1195.00
18.727 1106.00
19.0312 1048.00
19.3355 986.00
19.6398 958.00
19.944 927.00
20.2483 1031.00
20.5525 1010.00
20.8568 906.00
21.1611 929.00
21.4653 877.00
21.7696 817.00
22.0738 924.00
22.3781 1137.00
22.6824 848.00
22.9866 810.00
23.2909 816.00
23.5951 804.00
23.8994 835.00
24.2037 778.00
24.5079 789.00
24.8122 748.00
25.1164 770.00
25.4207 748.00
25.725 790.00
26.0292 677.00
26.3335 791.00
26.6378 725.00
26.942 705.00
27.2463 689.00
27.5505 724.00
27.8548 836.00
28.1591 1250.00
28.4633 769.00
28.7676 794.00
29.0718 688.00
29.3761 629.00
29.6804 605.00
29.9846 636.00
30.2889 626.00
30.5931 639.00
30.8974 622.00
31.2017 617.00
31.5059 721.00
31.8102 570.00
32.1144 593.00
32.4187 561.00
32.723 570.00
33.0272 610.00
33.3315 538.00
33.6357 535.00
33.94 512.00
34.2443 638.00
34.5485 533.00
34.8528 498.00
35.157 462.00
35.4613 547.00
35.7656 496.00
36.0698 490.00
36.3741 581.00
36.6783 482.00
36.9826 463.00
37.2869 459.00
37.5911 475.00
37.8954 426.00
38.1996 413.00
38.5039 448.00
38.8082 450.00
39.1124 384.00
39.4167 450.00
39.7209 429.00
40.0252 426.00
40.3295 391.00
40.6337 364.00
40.938 420.00
41.2422 409.00
41.5465 394.00
41.8508 407.00
42.155 393.00
42.4593 357.00
42.7635 390.00
43.0678 385.00
43.3721 379.00
43.6763 393.00
43.9806 327.00
44.2849 337.00
44.5891 339.00
44.8934 359.00
45.1976 362.00
45.5019 334.00
45.8062 344.00
46.1104 365.00
46.4147 371.00
46.7189 322.00
47.0232 322.00
47.3275 339.00
47.6317 309.00
47.936 323.00
48.2402 309.00
48.5445 332.00
48.8488 281.00
49.153 315.00
49.4573 381.00
49.7615 298.00
50.0658 301.00
50.3701 357.00
50.6743 358.00
50.9786 324.00
51.2828 325.00
51.5871 321.00
51.8914 269.00
52.1956 272.00
52.4999 286.00
52.8041 299.00
53.1084 320.00
53.4127 278.00
53.7169 260.00
54.0212 265.00
54.3254 305.00
54.6297 293.00
54.934 293.00
55.2382 311.00
55.5425 315.00
55.8467 298.00
56.151 277.00
56.4553 279.00
56.7595 236.00
57.0638 261.00
57.368 298.00
57.6723 247.00
57.9766 268.00
58.2808 288.00
58.5851 271.00
58.8893 217.00
59.1936 250.00
59.4979 240.00
59.8021 245.00
60.1064 270.00
60.4106 229.00
60.7149 238.00
61.0192 239.00
61.3234 220.00
61.6277 245.00
61.932 257.00
62.2362 234.00
62.5405 239.00
62.8447 213.00
63.149 231.00
63.4533 221.00
63.7575 233.00
64.0618 218.00
64.366 230.00
64.6703 228.00
64.9745 229.00
65.2788 246.00
65.5831 201.00
65.8873 244.00
66.1916 228.00
66.4959 243.00
66.8001 182.00
67.1044 229.00
67.4086 216.00
67.7129 203.00
68.0172 213.00
68.3214 196.00
68.6257 229.00
68.9299 219.00
69.2342 195.00
69.5385 212.00
69.8427 204.00
70.147 223.00
70.4512 215.00
70.7555 235.00
71.0598 249.00
71.364 258.00
71.6683 194.00
71.9725 222.00
72.2768 209.00
72.5811 215.00
72.8853 221.00
73.1896 225.00
73.4938 218.00
73.7981 200.00
74.1024 216.00
74.4066 221.00
74.7109 208.00
75.0151 219.00
75.3194 208.00
75.6237 234.00
75.9279 201.00
76.2322 236.00
76.5364 214.00
76.8407 207.00
77.145 198.00
77.4492 236.00
77.7535 210.00
78.0577 235.00
78.362 246.00
78.6663 238.00
78.9705 259.00
79.2748 242.00
79.579 239.00
79.8833 220.00
80.1876 238.00
80.4918 249.00
80.7961 223.00
81.1003 265.00
81.4046 257.00
81.7089 221.00
82.0131 247.00
82.3174 273.00
82.6217 221.00
82.9259 232.00
83.2302 228.00
83.5344 224.00
83.8387 228.00
84.143 258.00
84.4472 244.00
84.7515 256.00
85.0557 224.00
85.36 238.00
85.6643 220.00
85.9685 233.00
86.2728 238.00
86.577 242.00
86.8813 218.00
87.1856 213.00
87.4898 219.00
87.7941 208.00
88.0983 199.00
88.4026 215.00
88.7069 213.00
89.0111 218.00
89.3154 221.00
89.6196 212.00
89.9239 197.00
90.2282 225.00
90.5324 217.00
90.8367 211.00
91.1409 200.00
91.4452 204.00
91.7495 192.00
92.0537 227.00
92.358 210.00
92.6622 182.00
92.9665 210.00
93.2708 185.00
93.575 229.00
93.8793 189.00
94.1835 186.00
94.4878 201.00
94.7921 158.00
95.0963 204.00
95.4006 192.00
95.7048 212.00
96.0091 205.00
96.3134 208.00
96.6176 204.00
96.9219 190.00
97.2261 210.00
97.5304 207.00
97.8347 204.00
98.1389 214.00
98.4432 214.00
98.7474 197.00
99.0517 204.00
99.356 208.00
99.6602 166.00
99.9645 181.00
100.095 191.00