File: data/xrd_creation/results/PG_2249-1.xy
9.903433 2482.00
10.2077 2386.00
10.512 2206.00
10.8162 2135.00
11.1205 2161.00
11.4247 2049.00
11.729 1815.00
12.0333 1889.00
12.3375 1774.00
12.6418 1966.00
12.946 1676.00
13.2503 1648.00
13.5546 1825.00
13.8588 1635.00
14.1631 1499.00
14.4673 1571.00
14.7716 1925.00
15.0759 1469.00
15.3801 1341.00
15.6844 1325.00
15.9886 1353.00
16.2929 1280.00
16.5972 1272.00
16.9014 1280.00
17.2057 1328.00
17.5099 1206.00
17.8142 1188.00
18.1185 1219.00
18.4227 1146.00
18.727 1083.00
19.0312 1138.00
19.3355 1142.00
19.6398 1123.00
19.944 1560.00
20.2483 1571.00
20.5525 1076.00
20.8568 1186.00
21.1611 2422.00
21.4653 3026.00
21.7696 1496.00
22.0738 1031.00
22.3781 1127.00
22.6824 1465.00
22.9866 1804.00
23.2909 5105.00
23.5951 4449.00
23.8994 13517.00
24.2037 2191.00
24.5079 4201.00
24.8122 4828.00
25.1164 2302.00
25.4207 1013.00
25.725 964.00
26.0292 1016.00
26.3335 1251.00
26.6378 1345.00
26.942 4169.00
27.2463 930.00
27.5505 950.00
27.8548 1403.00
28.1591 772.00
28.4633 771.00
28.7676 1322.00
29.0718 3068.00
29.3761 1505.00
29.6804 820.00
29.9846 840.00
30.2889 808.00
30.5931 834.00
30.8974 2622.00
31.2017 741.00
31.5059 644.00
31.8102 701.00
32.1144 1148.00
32.4187 702.00
32.723 943.00
33.0272 1037.00
33.3315 3512.00
33.6357 5777.00
33.94 3378.00
34.2443 3728.00
34.5485 7081.00
34.8528 1130.00
35.157 716.00
35.4613 756.00
35.7656 1546.00
36.0698 994.00
36.3741 765.00
36.6783 659.00
36.9826 874.00
37.2869 716.00
37.5911 623.00
37.8954 1348.00
38.1996 562.00
38.5039 882.00
38.8082 579.00
39.1124 593.00
39.4167 573.00
39.7209 1143.00
40.0252 631.00
40.3295 494.00
40.6337 569.00
40.938 742.00
41.2422 1138.00
41.5465 912.00
41.8508 2308.00
42.155 2099.00
42.4593 1018.00
42.7635 550.00
43.0678 632.00
43.3721 615.00
43.6763 490.00
43.9806 610.00
44.2849 535.00
44.5891 1203.00
44.8934 812.00
45.1976 1263.00
45.5019 1003.00
45.8062 1236.00
46.1104 905.00
46.4147 768.00
46.7189 487.00
47.0232 491.00
47.3275 666.00
47.6317 2207.00
47.936 795.00
48.2402 730.00
48.5445 2119.00
48.8488 709.00
49.153 827.00
49.4573 553.00
49.7615 656.00
50.0658 1598.00
50.3701 3281.00
50.6743 2363.00
50.9786 2112.00
51.2828 886.00
51.5871 948.00
51.8914 628.00
52.1956 582.00
52.4999 655.00
52.8041 783.00
53.1084 646.00
53.4127 902.00
53.7169 1963.00
54.0212 1072.00
54.3254 1628.00
54.6297 1642.00
54.934 1467.00
55.2382 1724.00
55.5425 1394.00
55.8467 2131.00
56.151 3770.00
56.4553 1724.00
56.7595 627.00
57.0638 567.00
57.368 466.00
57.6723 574.00
57.9766 825.00
58.2808 610.00
58.5851 509.00
58.8893 507.00
59.1936 709.00
59.4979 882.00
59.8021 796.00
60.1064 1002.00
60.4106 1374.00
60.7149 1195.00
61.0192 853.00
61.3234 1188.00
61.6277 1451.00
61.932 1333.00
62.2362 1472.00
62.5405 2302.00
62.8447 1007.00
63.149 812.00
63.4533 901.00
63.7575 1326.00
64.0618 554.00
64.366 438.00
64.6703 402.00
64.9745 494.00
65.2788 476.00
65.5831 486.00
65.8873 490.00
66.1916 495.00
66.4959 627.00
66.8001 905.00
67.1044 812.00
67.4086 860.00
67.7129 829.00
68.0172 842.00
68.3214 758.00
68.6257 439.00
68.9299 485.00
69.2342 543.00
69.5385 455.00
69.8427 533.00
70.147 732.00
70.4512 585.00
70.7555 615.00
71.0598 645.00
71.364 730.00
71.6683 752.00
71.9725 815.00
72.2768 1126.00
72.5811 623.00
72.8853 669.00
73.1896 569.00
73.4938 584.00
73.7981 648.00
74.1024 635.00
74.4066 496.00
74.7109 463.00
75.0151 514.00
75.3194 636.00
75.6237 709.00
75.9279 900.00
76.2322 826.00
76.5364 1231.00
76.8407 1374.00
77.145 1606.00
77.4492 942.00
77.7535 496.00
78.0577 529.00
78.362 458.00
78.6663 573.00
78.9705 622.00
79.2748 482.00
79.579 425.00
79.8833 486.00
80.1876 511.00
80.4918 587.00
80.7961 528.00
81.1003 679.00
81.4046 767.00
81.7089 846.00
82.0131 960.00
82.3174 680.00
82.6217 670.00
82.9259 642.00
83.2302 702.00
83.5344 863.00
83.8387 979.00
84.143 684.00
84.4472 570.00
84.7515 664.00
85.0557 684.00
85.36 652.00
85.6643 538.00
85.9685 643.00
86.2728 1021.00
86.577 1097.00
86.8813 688.00
87.1856 656.00
87.4898 1071.00
87.7941 951.00
88.0983 758.00
88.4026 742.00
88.7069 780.00
89.0111 564.00
89.3154 469.00
89.6196 434.00
89.9239 494.00
90.2282 505.00
90.5324 517.00
90.8367 514.00
91.1409 514.00
91.4452 540.00
91.7495 495.00
92.0537 700.00
92.358 673.00
92.6622 556.00
92.9665 425.00
93.2708 462.00
93.575 450.00
93.8793 531.00
94.1835 497.00
94.4878 463.00
94.7921 495.00
95.0963 488.00
95.4006 489.00
95.7048 600.00
96.0091 602.00
96.3134 685.00
96.6176 646.00
96.9219 562.00
97.2261 567.00
97.5304 518.00
97.8347 500.00
98.1389 491.00
98.4432 448.00
98.7474 391.00
99.0517 371.00
99.356 428.00
99.6602 434.00
99.9645 425.00
100.095 414.00