File: data/xrd_creation/results/PG_2044-1.xy
9.903433 2629.00
10.2077 2566.00
10.512 2448.00
10.8162 2356.00
11.1205 2304.00
11.4247 2225.00
11.729 2275.00
12.0333 2032.00
12.3375 1932.00
12.6418 2046.00
12.946 1954.00
13.2503 1863.00
13.5546 1877.00
13.8588 1833.00
14.1631 1856.00
14.4673 1722.00
14.7716 1716.00
15.0759 1775.00
15.3801 1675.00
15.6844 1689.00
15.9886 1639.00
16.2929 1540.00
16.5972 1595.00
16.9014 1564.00
17.2057 1574.00
17.5099 1638.00
17.8142 1927.00
18.1185 1385.00
18.4227 1424.00
18.727 1417.00
19.0312 1400.00
19.3355 1385.00
19.6398 1269.00
19.944 1322.00
20.2483 1286.00
20.5525 1209.00
20.8568 1270.00
21.1611 1190.00
21.4653 1196.00
21.7696 1236.00
22.0738 1268.00
22.3781 1204.00
22.6824 1139.00
22.9866 1177.00
23.2909 1085.00
23.5951 1202.00
23.8994 1325.00
24.2037 9272.00
24.5079 1200.00
24.8122 1074.00
25.1164 1062.00
25.4207 1041.00
25.725 1064.00
26.0292 1245.00
26.3335 1466.00
26.6378 2982.00
26.942 22561.00
27.2463 2236.00
27.5505 1260.00
27.8548 1065.00
28.1591 1007.00
28.4633 954.00
28.7676 910.00
29.0718 910.00
29.3761 938.00
29.6804 879.00
29.9846 1579.00
30.2889 921.00
30.5931 928.00
30.8974 1622.00
31.2017 1448.00
31.5059 841.00
31.8102 743.00
32.1144 798.00
32.4187 781.00
32.723 794.00
33.0272 906.00
33.3315 932.00
33.6357 1093.00
33.94 2453.00
34.2443 17732.00
34.5485 1865.00
34.8528 988.00
35.157 860.00
35.4613 953.00
35.7656 726.00
36.0698 652.00
36.3741 688.00
36.6783 654.00
36.9826 688.00
37.2869 713.00
37.5911 747.00
37.8954 898.00
38.1996 3354.00
38.5039 1794.00
38.8082 1377.00
39.1124 736.00
39.4167 1189.00
39.7209 636.00
40.0252 563.00
40.3295 590.00
40.6337 613.00
40.938 924.00
41.2422 571.00
41.5465 566.00
41.8508 548.00
42.155 551.00
42.4593 563.00
42.7635 587.00
43.0678 692.00
43.3721 536.00
43.6763 519.00
43.9806 532.00
44.2849 489.00
44.5891 520.00
44.8934 477.00
45.1976 504.00
45.5019 536.00
45.8062 486.00
46.1104 950.00
46.4147 537.00
46.7189 2119.00
47.0232 623.00
47.3275 555.00
47.6317 494.00
47.936 694.00
48.2402 471.00
48.5445 439.00
48.8488 503.00
49.153 635.00
49.4573 429.00
49.7615 466.00
50.0658 489.00
50.3701 479.00
50.6743 517.00
50.9786 492.00
51.2828 582.00
51.5871 847.00
51.8914 2651.00
52.1956 9795.00
52.4999 1295.00
52.8041 621.00
53.1084 595.00
53.4127 523.00
53.7169 510.00
54.0212 492.00
54.3254 553.00
54.6297 577.00
54.934 1485.00
55.2382 2238.00
55.5425 878.00
55.8467 481.00
56.151 449.00
56.4553 454.00
56.7595 413.00
57.0638 430.00
57.368 441.00
57.6723 488.00
57.9766 847.00
58.2808 1291.00
58.5851 599.00
58.8893 592.00
59.1936 634.00
59.4979 418.00
59.8021 407.00
60.1064 586.00
60.4106 408.00
60.7149 393.00
61.0192 411.00
61.3234 424.00
61.6277 456.00
61.932 785.00
62.2362 2477.00
62.5405 686.00
62.8447 463.00
63.149 451.00
63.4533 422.00
63.7575 434.00
64.0618 521.00
64.366 607.00
64.6703 654.00
64.9745 2445.00
65.2788 1356.00
65.5831 571.00
65.8873 646.00
66.1916 2733.00
66.4959 1852.00
66.8001 525.00
67.1044 494.00
67.4086 396.00
67.7129 384.00
68.0172 367.00
68.3214 355.00
68.6257 415.00
68.9299 355.00
69.2342 380.00
69.5385 397.00
69.8427 417.00
70.147 678.00
70.4512 373.00
70.7555 347.00
71.0598 404.00
71.364 605.00
71.6683 1120.00
71.9725 540.00
72.2768 398.00
72.5811 369.00
72.8853 333.00
73.1896 319.00
73.4938 320.00
73.7981 403.00
74.1024 307.00
74.4066 367.00
74.7109 868.00
75.0151 458.00
75.3194 334.00
75.6237 344.00
75.9279 336.00
76.2322 335.00
76.5364 363.00
76.8407 346.00
77.145 387.00
77.4492 329.00
77.7535 309.00
78.0577 370.00
78.362 385.00
78.6663 565.00
78.9705 2496.00
79.2748 1109.00
79.579 465.00
79.8833 480.00
80.1876 511.00
80.4918 373.00
80.7961 354.00
81.1003 405.00
81.4046 950.00
81.7089 602.00
82.0131 384.00
82.3174 373.00
82.6217 405.00
82.9259 309.00
83.2302 335.00
83.5344 424.00
83.8387 793.00
84.143 1033.00
84.4472 478.00
84.7515 361.00
85.0557 328.00
85.36 306.00
85.6643 405.00
85.9685 407.00
86.2728 325.00
86.577 330.00
86.8813 316.00
87.1856 421.00
87.4898 946.00
87.7941 599.00
88.0983 352.00
88.4026 345.00
88.7069 319.00
89.0111 329.00
89.3154 392.00
89.6196 466.00
89.9239 1086.00
90.2282 1078.00
90.5324 591.00
90.8367 569.00
91.1409 2004.00
91.4452 1270.00
91.7495 443.00
92.0537 348.00
92.358 334.00
92.6622 370.00
92.9665 327.00
93.2708 455.00
93.575 967.00
93.8793 652.00
94.1835 334.00
94.4878 411.00
94.7921 392.00
95.0963 296.00
95.4006 378.00
95.7048 374.00
96.0091 412.00
96.3134 803.00
96.6176 673.00
96.9219 429.00
97.2261 326.00
97.5304 312.00
97.8347 317.00
98.1389 284.00
98.4432 308.00
98.7474 304.00
99.0517 306.00
99.356 451.00
99.6602 454.00
99.9645 329.00
100.095 468.00