File: data/xrd_creation/results/PG_2250-1.xy
9.903433 2574.00
10.2077 2579.00
10.512 2395.00
10.8162 2221.00
11.1205 2239.00
11.4247 2217.00
11.729 2105.00
12.0333 1944.00
12.3375 1908.00
12.6418 1753.00
12.946 1750.00
13.2503 1696.00
13.5546 1581.00
13.8588 1601.00
14.1631 1573.00
14.4673 1525.00
14.7716 1491.00
15.0759 1440.00
15.3801 1552.00
15.6844 1437.00
15.9886 1336.00
16.2929 1319.00
16.5972 1324.00
16.9014 1340.00
17.2057 1316.00
17.5099 1218.00
17.8142 1178.00
18.1185 1167.00
18.4227 1172.00
18.727 1127.00
19.0312 1051.00
19.3355 1064.00
19.6398 1071.00
19.944 1071.00
20.2483 1351.00
20.5525 1386.00
20.8568 1041.00
21.1611 1096.00
21.4653 988.00
21.7696 995.00
22.0738 992.00
22.3781 1100.00
22.6824 935.00
22.9866 940.00
23.2909 966.00
23.5951 866.00
23.8994 911.00
24.2037 893.00
24.5079 909.00
24.8122 836.00
25.1164 831.00
25.4207 860.00
25.725 787.00
26.0292 830.00
26.3335 867.00
26.6378 761.00
26.942 779.00
27.2463 816.00
27.5505 859.00
27.8548 854.00
28.1591 1176.00
28.4633 886.00
28.7676 1198.00
29.0718 6631.00
29.3761 1054.00
29.6804 758.00
29.9846 760.00
30.2889 802.00
30.5931 810.00
30.8974 689.00
31.2017 727.00
31.5059 815.00
31.8102 830.00
32.1144 678.00
32.4187 607.00
32.723 619.00
33.0272 611.00
33.3315 628.00
33.6357 1642.00
33.94 867.00
34.2443 691.00
34.5485 602.00
34.8528 591.00
35.157 569.00
35.4613 612.00
35.7656 774.00
36.0698 598.00
36.3741 608.00
36.6783 558.00
36.9826 600.00
37.2869 508.00
37.5911 558.00
37.8954 575.00
38.1996 497.00
38.5039 483.00
38.8082 519.00
39.1124 517.00
39.4167 510.00
39.7209 702.00
40.0252 521.00
40.3295 442.00
40.6337 456.00
40.938 447.00
41.2422 427.00
41.5465 437.00
41.8508 444.00
42.155 441.00
42.4593 417.00
42.7635 436.00
43.0678 430.00
43.3721 779.00
43.6763 560.00
43.9806 443.00
44.2849 354.00
44.5891 429.00
44.8934 423.00
45.1976 396.00
45.5019 383.00
45.8062 439.00
46.1104 412.00
46.4147 380.00
46.7189 445.00
47.0232 406.00
47.3275 408.00
47.6317 401.00
47.936 417.00
48.2402 595.00
48.5445 1963.00
48.8488 480.00
49.153 378.00
49.4573 412.00
49.7615 392.00
50.0658 444.00
50.3701 390.00
50.6743 384.00
50.9786 379.00
51.2828 356.00
51.5871 445.00
51.8914 360.00
52.1956 300.00
52.4999 350.00
52.8041 391.00
53.1084 535.00
53.4127 361.00
53.7169 327.00
54.0212 337.00
54.3254 393.00
54.6297 404.00
54.934 329.00
55.2382 411.00
55.5425 358.00
55.8467 358.00
56.151 484.00
56.4553 358.00
56.7595 347.00
57.0638 344.00
57.368 485.00
57.6723 1120.00
57.9766 359.00
58.2808 341.00
58.5851 318.00
58.8893 496.00
59.1936 390.00
59.4979 328.00
59.8021 304.00
60.1064 326.00
60.4106 422.00
60.7149 315.00
61.0192 321.00
61.3234 340.00
61.6277 349.00
61.932 343.00
62.2362 302.00
62.5405 244.00
62.8447 307.00
63.149 340.00
63.4533 291.00
63.7575 293.00
64.0618 275.00
64.366 324.00
64.6703 327.00
64.9745 264.00
65.2788 284.00
65.5831 261.00
65.8873 324.00
66.1916 299.00
66.4959 297.00
66.8001 280.00
67.1044 278.00
67.4086 259.00
67.7129 311.00
68.0172 260.00
68.3214 264.00
68.6257 257.00
68.9299 259.00
69.2342 244.00
69.5385 283.00
69.8427 297.00
70.147 281.00
70.4512 266.00
70.7555 313.00
71.0598 383.00
71.364 296.00
71.6683 267.00
71.9725 262.00
72.2768 374.00
72.5811 285.00
72.8853 249.00
73.1896 234.00
73.4938 307.00
73.7981 281.00
74.1024 256.00
74.4066 305.00
74.7109 295.00
75.0151 302.00
75.3194 277.00
75.6237 241.00
75.9279 293.00
76.2322 290.00
76.5364 268.00
76.8407 277.00
77.145 311.00
77.4492 300.00
77.7535 267.00
78.0577 281.00
78.362 296.00
78.6663 420.00
78.9705 305.00
79.2748 306.00
79.579 278.00
79.8833 288.00
80.1876 290.00
80.4918 271.00
80.7961 267.00
81.1003 352.00
81.4046 287.00
81.7089 281.00
82.0131 295.00
82.3174 291.00
82.6217 300.00
82.9259 247.00
83.2302 287.00
83.5344 321.00
83.8387 277.00
84.143 260.00
84.4472 269.00
84.7515 272.00
85.0557 271.00
85.36 262.00
85.6643 245.00
85.9685 278.00
86.2728 267.00
86.577 242.00
86.8813 295.00
87.1856 297.00
87.4898 274.00
87.7941 285.00
88.0983 277.00
88.4026 275.00
88.7069 235.00
89.0111 288.00
89.3154 287.00
89.6196 308.00
89.9239 275.00
90.2282 238.00
90.5324 285.00
90.8367 295.00
91.1409 241.00
91.4452 286.00
91.7495 243.00
92.0537 243.00
92.358 242.00
92.6622 242.00
92.9665 216.00
93.2708 262.00
93.575 238.00
93.8793 219.00
94.1835 230.00
94.4878 283.00
94.7921 257.00
95.0963 215.00
95.4006 230.00
95.7048 287.00
96.0091 250.00
96.3134 259.00
96.6176 235.00
96.9219 275.00
97.2261 224.00
97.5304 248.00
97.8347 261.00
98.1389 308.00
98.4432 264.00
98.7474 243.00
99.0517 271.00
99.356 260.00
99.6602 245.00
99.9645 234.00
100.095 232.00