File: data/xrd_creation/results/PG_2041-1.xy
9.903433 2672.00
10.2077 2604.00
10.512 2548.00
10.8162 2409.00
11.1205 2328.00
11.4247 2226.00
11.729 2211.00
12.0333 2074.00
12.3375 2103.00
12.6418 1965.00
12.946 1977.00
13.2503 1886.00
13.5546 1916.00
13.8588 2236.00
14.1631 2483.00
14.4673 1764.00
14.7716 1753.00
15.0759 1683.00
15.3801 1720.00
15.6844 1556.00
15.9886 1565.00
16.2929 1614.00
16.5972 1516.00
16.9014 1500.00
17.2057 1483.00
17.5099 1563.00
17.8142 1625.00
18.1185 1412.00
18.4227 1369.00
18.727 1258.00
19.0312 1284.00
19.3355 1262.00
19.6398 1369.00
19.944 1220.00
20.2483 1237.00
20.5525 1236.00
20.8568 1216.00
21.1611 1167.00
21.4653 1212.00
21.7696 1184.00
22.0738 1125.00
22.3781 1095.00
22.6824 1055.00
22.9866 1151.00
23.2909 1048.00
23.5951 1030.00
23.8994 1217.00
24.2037 5836.00
24.5079 1040.00
24.8122 963.00
25.1164 1022.00
25.4207 983.00
25.725 1012.00
26.0292 945.00
26.3335 907.00
26.6378 939.00
26.942 954.00
27.2463 990.00
27.5505 1407.00
27.8548 5450.00
28.1591 5181.00
28.4633 1255.00
28.7676 1469.00
29.0718 934.00
29.3761 870.00
29.6804 854.00
29.9846 1392.00
30.2889 928.00
30.5931 891.00
30.8974 1632.00
31.2017 1280.00
31.5059 813.00
31.8102 857.00
32.1144 1189.00
32.4187 8063.00
32.723 1058.00
33.0272 835.00
33.3315 780.00
33.6357 712.00
33.94 750.00
34.2443 1345.00
34.5485 785.00
34.8528 775.00
35.157 860.00
35.4613 1868.00
35.7656 631.00
36.0698 580.00
36.3741 556.00
36.6783 604.00
36.9826 585.00
37.2869 552.00
37.5911 534.00
37.8954 547.00
38.1996 555.00
38.5039 718.00
38.8082 953.00
39.1124 541.00
39.4167 517.00
39.7209 603.00
40.0252 625.00
40.3295 513.00
40.6337 526.00
40.938 734.00
41.2422 474.00
41.5465 498.00
41.8508 491.00
42.155 513.00
42.4593 808.00
42.7635 480.00
43.0678 447.00
43.3721 452.00
43.6763 451.00
43.9806 411.00
44.2849 472.00
44.5891 495.00
44.8934 477.00
45.1976 480.00
45.5019 486.00
45.8062 650.00
46.1104 1794.00
46.4147 4985.00
46.7189 2324.00
47.0232 691.00
47.3275 623.00
47.6317 457.00
47.936 657.00
48.2402 432.00
48.5445 761.00
48.8488 471.00
49.153 539.00
49.4573 445.00
49.7615 424.00
50.0658 413.00
50.3701 396.00
50.6743 435.00
50.9786 534.00
51.2828 468.00
51.5871 415.00
51.8914 372.00
52.1956 441.00
52.4999 421.00
52.8041 388.00
53.1084 421.00
53.4127 432.00
53.7169 438.00
54.0212 470.00
54.3254 619.00
54.6297 1417.00
54.934 4601.00
55.2382 933.00
55.5425 637.00
55.8467 477.00
56.151 394.00
56.4553 407.00
56.7595 394.00
57.0638 507.00
57.368 1200.00
57.6723 1155.00
57.9766 434.00
58.2808 407.00
58.5851 551.00
58.8893 556.00
59.1936 763.00
59.4979 1111.00
59.8021 469.00
60.1064 540.00
60.4106 361.00
60.7149 356.00
61.0192 373.00
61.3234 374.00
61.6277 364.00
61.932 367.00
62.2362 332.00
62.5405 383.00
62.8447 317.00
63.149 347.00
63.4533 344.00
63.7575 345.00
64.0618 498.00
64.366 1190.00
64.6703 418.00
64.9745 304.00
65.2788 324.00
65.5831 309.00
65.8873 314.00
66.1916 291.00
66.4959 306.00
66.8001 352.00
67.1044 438.00
67.4086 933.00
67.7129 423.00
68.0172 373.00
68.3214 333.00
68.6257 332.00
68.9299 436.00
69.2342 699.00
69.5385 396.00
69.8427 428.00
70.147 549.00
70.4512 297.00
70.7555 305.00
71.0598 324.00
71.364 276.00
71.6683 319.00
71.9725 465.00
72.2768 378.00
72.5811 306.00
72.8853 307.00
73.1896 313.00
73.4938 356.00
73.7981 487.00
74.1024 648.00
74.4066 1244.00
74.7109 928.00
75.0151 438.00
75.3194 342.00
75.6237 343.00
75.9279 335.00
76.2322 499.00
76.5364 1790.00
76.8407 967.00
77.145 417.00
77.4492 358.00
77.7535 326.00
78.0577 403.00
78.362 475.00
78.6663 368.00
78.9705 372.00
79.2748 328.00
79.579 352.00
79.8833 395.00
80.1876 408.00
80.4918 311.00
80.7961 276.00
81.1003 301.00
81.4046 294.00
81.7089 374.00
82.0131 342.00
82.3174 296.00
82.6217 478.00
82.9259 403.00
83.2302 309.00
83.5344 320.00
83.8387 317.00
84.143 287.00
84.4472 289.00
84.7515 294.00
85.0557 374.00
85.36 937.00
85.6643 893.00
85.9685 385.00
86.2728 282.00
86.577 298.00
86.8813 357.00
87.1856 405.00
87.4898 283.00
87.7941 288.00
88.0983 274.00
88.4026 244.00
88.7069 299.00
89.0111 307.00
89.3154 249.00
89.6196 280.00
89.9239 280.00
90.2282 290.00
90.5324 287.00
90.8367 351.00
91.1409 390.00
91.4452 966.00
91.7495 737.00
92.0537 902.00
92.358 566.00
92.6622 265.00
92.9665 299.00
93.2708 286.00
93.575 282.00
93.8793 270.00
94.1835 259.00
94.4878 296.00
94.7921 282.00
95.0963 296.00
95.4006 364.00
95.7048 389.00
96.0091 345.00
96.3134 302.00
96.6176 353.00
96.9219 324.00
97.2261 263.00
97.5304 289.00
97.8347 263.00
98.1389 278.00
98.4432 316.00
98.7474 238.00
99.0517 243.00
99.356 326.00
99.6602 384.00
99.9645 330.00
100.095 442.00