File: data/xrd_creation/results/PG_2135-1.xy
9.903433 2653.00
10.2077 2520.00
10.512 2424.00
10.8162 2286.00
11.1205 2234.00
11.4247 2198.00
11.729 2118.00
12.0333 1975.00
12.3375 1902.00
12.6418 1932.00
12.946 1859.00
13.2503 1767.00
13.5546 1772.00
13.8588 1739.00
14.1631 1755.00
14.4673 1690.00
14.7716 1719.00
15.0759 1759.00
15.3801 1982.00
15.6844 3199.00
15.9886 9891.00
16.2929 2105.00
16.5972 1687.00
16.9014 1679.00
17.2057 1548.00
17.5099 1491.00
17.8142 1437.00
18.1185 1440.00
18.4227 1346.00
18.727 1290.00
19.0312 1292.00
19.3355 1265.00
19.6398 1257.00
19.944 1272.00
20.2483 1223.00
20.5525 1181.00
20.8568 1205.00
21.1611 1118.00
21.4653 1084.00
21.7696 1185.00
22.0738 1102.00
22.3781 1017.00
22.6824 1055.00
22.9866 1064.00
23.2909 1079.00
23.5951 997.00
23.8994 962.00
24.2037 982.00
24.5079 1003.00
24.8122 939.00
25.1164 952.00
25.4207 918.00
25.725 925.00
26.0292 878.00
26.3335 957.00
26.6378 981.00
26.942 1094.00
27.2463 1615.00
27.5505 7789.00
27.8548 2777.00
28.1591 6533.00
28.4633 4811.00
28.7676 1324.00
29.0718 926.00
29.3761 892.00
29.6804 828.00
29.9846 862.00
30.2889 863.00
30.5931 892.00
30.8974 770.00
31.2017 782.00
31.5059 875.00
31.8102 1944.00
32.1144 1317.00
32.4187 686.00
32.723 669.00
33.0272 692.00
33.3315 714.00
33.6357 640.00
33.94 614.00
34.2443 597.00
34.5485 760.00
34.8528 793.00
35.157 662.00
35.4613 747.00
35.7656 648.00
36.0698 791.00
36.3741 1280.00
36.6783 637.00
36.9826 558.00
37.2869 604.00
37.5911 584.00
37.8954 574.00
38.1996 788.00
38.5039 779.00
38.8082 678.00
39.1124 775.00
39.4167 1381.00
39.7209 6622.00
40.0252 2744.00
40.3295 1040.00
40.6337 625.00
40.938 584.00
41.2422 599.00
41.5465 689.00
41.8508 690.00
42.155 747.00
42.4593 1505.00
42.7635 1073.00
43.0678 588.00
43.3721 524.00
43.6763 493.00
43.9806 462.00
44.2849 514.00
44.5891 485.00
44.8934 533.00
45.1976 469.00
45.5019 453.00
45.8062 469.00
46.1104 439.00
46.4147 516.00
46.7189 538.00
47.0232 615.00
47.3275 1597.00
47.6317 1028.00
47.936 756.00
48.2402 1350.00
48.5445 3408.00
48.8488 5104.00
49.153 3339.00
49.4573 1001.00
49.7615 716.00
50.0658 882.00
50.3701 1060.00
50.6743 534.00
50.9786 428.00
51.2828 435.00
51.5871 419.00
51.8914 394.00
52.1956 453.00
52.4999 378.00
52.8041 401.00
53.1084 415.00
53.4127 398.00
53.7169 415.00
54.0212 415.00
54.3254 422.00
54.6297 407.00
54.934 512.00
55.2382 649.00
55.5425 1980.00
55.8467 1033.00
56.151 611.00
56.4553 973.00
56.7595 890.00
57.0638 473.00
57.368 474.00
57.6723 444.00
57.9766 617.00
58.2808 682.00
58.5851 482.00
58.8893 649.00
59.1936 732.00
59.4979 466.00
59.8021 374.00
60.1064 355.00
60.4106 336.00
60.7149 323.00
61.0192 353.00
61.3234 333.00
61.6277 309.00
61.932 322.00
62.2362 408.00
62.5405 329.00
62.8447 403.00
63.149 420.00
63.4533 371.00
63.7575 502.00
64.0618 912.00
64.366 1486.00
64.6703 739.00
64.9745 518.00
65.2788 703.00
65.5831 654.00
65.8873 435.00
66.1916 512.00
66.4959 464.00
66.8001 353.00
67.1044 312.00
67.4086 309.00
67.7129 379.00
68.0172 294.00
68.3214 343.00
68.6257 343.00
68.9299 343.00
69.2342 381.00
69.5385 502.00
69.8427 1082.00
70.147 1021.00
70.4512 539.00
70.7555 466.00
71.0598 582.00
71.364 570.00
71.6683 361.00
71.9725 353.00
72.2768 328.00
72.5811 322.00
72.8853 432.00
73.1896 444.00
73.4938 378.00
73.7981 345.00
74.1024 325.00
74.4066 287.00
74.7109 311.00
75.0151 327.00
75.3194 303.00
75.6237 386.00
75.9279 558.00
76.2322 763.00
76.5364 855.00
76.8407 788.00
77.145 732.00
77.4492 1215.00
77.7535 1542.00
78.0577 1084.00
78.362 594.00
78.6663 603.00
78.9705 552.00
79.2748 377.00
79.579 347.00
79.8833 309.00
80.1876 339.00
80.4918 350.00
80.7961 313.00
81.1003 309.00
81.4046 293.00
81.7089 316.00
82.0131 364.00
82.3174 481.00
82.6217 629.00
82.9259 479.00
83.2302 338.00
83.5344 289.00
83.8387 316.00
84.143 302.00
84.4472 302.00
84.7515 332.00
85.0557 393.00
85.36 389.00
85.6643 358.00
85.9685 370.00
86.2728 325.00
86.577 310.00
86.8813 269.00
87.1856 304.00
87.4898 293.00
87.7941 303.00
88.0983 305.00
88.4026 371.00
88.7069 535.00
89.0111 784.00
89.3154 574.00
89.6196 435.00
89.9239 432.00
90.2282 487.00
90.5324 621.00
90.8367 565.00
91.1409 427.00
91.4452 433.00
91.7495 439.00
92.0537 349.00
92.358 374.00
92.6622 344.00
92.9665 297.00
93.2708 324.00
93.575 314.00
93.8793 280.00
94.1835 309.00
94.4878 319.00
94.7921 329.00
95.0963 381.00
95.4006 511.00
95.7048 706.00
96.0091 740.00
96.3134 591.00
96.6176 513.00
96.9219 627.00
97.2261 608.00
97.5304 451.00
97.8347 354.00
98.1389 288.00
98.4432 317.00
98.7474 354.00
99.0517 308.00
99.356 339.00
99.6602 312.00
99.9645 291.00
100.095 313.00