File: data/xrd_creation/results/PG_2147-1.xy
9.903433 2475.00
10.2077 2528.00
10.512 2281.00
10.8162 2262.00
11.1205 2310.00
11.4247 2183.00
11.729 2063.00
12.0333 2044.00
12.3375 1934.00
12.6418 1881.00
12.946 1858.00
13.2503 1786.00
13.5546 1736.00
13.8588 1734.00
14.1631 1697.00
14.4673 1698.00
14.7716 1618.00
15.0759 1668.00
15.3801 1736.00
15.6844 2637.00
15.9886 8437.00
16.2929 2287.00
16.5972 1591.00
16.9014 1522.00
17.2057 1456.00
17.5099 1414.00
17.8142 1459.00
18.1185 1412.00
18.4227 1300.00
18.727 1294.00
19.0312 1269.00
19.3355 1250.00
19.6398 1259.00
19.944 1215.00
20.2483 1247.00
20.5525 1141.00
20.8568 1142.00
21.1611 1118.00
21.4653 1156.00
21.7696 1120.00
22.0738 1094.00
22.3781 1116.00
22.6824 1023.00
22.9866 1040.00
23.2909 1001.00
23.5951 948.00
23.8994 977.00
24.2037 1017.00
24.5079 1190.00
24.8122 1192.00
25.1164 961.00
25.4207 922.00
25.725 947.00
26.0292 963.00
26.3335 919.00
26.6378 952.00
26.942 1069.00
27.2463 1491.00
27.5505 5929.00
27.8548 2789.00
28.1591 4384.00
28.4633 5699.00
28.7676 1363.00
29.0718 1002.00
29.3761 947.00
29.6804 888.00
29.9846 888.00
30.2889 822.00
30.5931 831.00
30.8974 807.00
31.2017 816.00
31.5059 849.00
31.8102 1502.00
32.1144 1495.00
32.4187 800.00
32.723 744.00
33.0272 771.00
33.3315 2408.00
33.6357 764.00
33.94 654.00
34.2443 659.00
34.5485 662.00
34.8528 634.00
35.157 655.00
35.4613 680.00
35.7656 637.00
36.0698 700.00
36.3741 1272.00
36.6783 1671.00
36.9826 639.00
37.2869 589.00
37.5911 599.00
37.8954 513.00
38.1996 596.00
38.5039 592.00
38.8082 682.00
39.1124 737.00
39.4167 1135.00
39.7209 4646.00
40.0252 3056.00
40.3295 948.00
40.6337 685.00
40.938 616.00
41.2422 546.00
41.5465 1072.00
41.8508 547.00
42.155 710.00
42.4593 1265.00
42.7635 1134.00
43.0678 607.00
43.3721 552.00
43.6763 563.00
43.9806 493.00
44.2849 536.00
44.5891 589.00
44.8934 451.00
45.1976 508.00
45.5019 488.00
45.8062 526.00
46.1104 473.00
46.4147 515.00
46.7189 518.00
47.0232 602.00
47.3275 1167.00
47.6317 981.00
47.936 687.00
48.2402 1026.00
48.5445 2787.00
48.8488 3753.00
49.153 3434.00
49.4573 1069.00
49.7615 677.00
50.0658 943.00
50.3701 1147.00
50.6743 555.00
50.9786 505.00
51.2828 480.00
51.5871 476.00
51.8914 462.00
52.1956 423.00
52.4999 446.00
52.8041 468.00
53.1084 451.00
53.4127 445.00
53.7169 484.00
54.0212 519.00
54.3254 1668.00
54.6297 516.00
54.934 485.00
55.2382 595.00
55.5425 1528.00
55.8467 1037.00
56.151 589.00
56.4553 816.00
56.7595 895.00
57.0638 564.00
57.368 483.00
57.6723 406.00
57.9766 559.00
58.2808 683.00
58.5851 511.00
58.8893 582.00
59.1936 683.00
59.4979 507.00
59.8021 394.00
60.1064 367.00
60.4106 421.00
60.7149 342.00
61.0192 384.00
61.3234 358.00
61.6277 372.00
61.932 344.00
62.2362 354.00
62.5405 370.00
62.8447 394.00
63.149 387.00
63.4533 767.00
63.7575 513.00
64.0618 770.00
64.366 1370.00
64.6703 803.00
64.9745 554.00
65.2788 684.00
65.5831 1003.00
65.8873 491.00
66.1916 525.00
66.4959 418.00
66.8001 373.00
67.1044 394.00
67.4086 352.00
67.7129 365.00
68.0172 378.00
68.3214 365.00
68.6257 343.00
68.9299 361.00
69.2342 407.00
69.5385 502.00
69.8427 866.00
70.147 1043.00
70.4512 567.00
70.7555 450.00
71.0598 769.00
71.364 670.00
71.6683 427.00
71.9725 388.00
72.2768 370.00
72.5811 383.00
72.8853 424.00
73.1896 470.00
73.4938 400.00
73.7981 384.00
74.1024 348.00
74.4066 328.00
74.7109 335.00
75.0151 330.00
75.3194 337.00
75.6237 383.00
75.9279 553.00
76.2322 735.00
76.5364 810.00
76.8407 769.00
77.145 773.00
77.4492 1036.00
77.7535 1392.00
78.0577 1020.00
78.362 614.00
78.6663 663.00
78.9705 626.00
79.2748 435.00
79.579 366.00
79.8833 378.00
80.1876 361.00
80.4918 377.00
80.7961 334.00
81.1003 302.00
81.4046 314.00
81.7089 303.00
82.0131 371.00
82.3174 510.00
82.6217 684.00
82.9259 590.00
83.2302 385.00
83.5344 371.00
83.8387 317.00
84.143 358.00
84.4472 311.00
84.7515 335.00
85.0557 403.00
85.36 428.00
85.6643 363.00
85.9685 368.00
86.2728 372.00
86.577 408.00
86.8813 344.00
87.1856 359.00
87.4898 337.00
87.7941 323.00
88.0983 339.00
88.4026 349.00
88.7069 537.00
89.0111 751.00
89.3154 605.00
89.6196 465.00
89.9239 552.00
90.2282 561.00
90.5324 574.00
90.8367 547.00
91.1409 484.00
91.4452 464.00
91.7495 429.00
92.0537 379.00
92.358 380.00
92.6622 332.00
92.9665 331.00
93.2708 352.00
93.575 438.00
93.8793 393.00
94.1835 346.00
94.4878 306.00
94.7921 284.00
95.0963 387.00
95.4006 479.00
95.7048 672.00
96.0091 676.00
96.3134 603.00
96.6176 539.00
96.9219 626.00
97.2261 607.00
97.5304 504.00
97.8347 428.00
98.1389 357.00
98.4432 341.00
98.7474 340.00
99.0517 334.00
99.356 309.00
99.6602 338.00
99.9645 319.00
100.095 329.00