File: data/xrd_creation/results/PG_2152-1.xy
9.903433 2640.00
10.2077 2506.00
10.512 2485.00
10.8162 2398.00
11.1205 2343.00
11.4247 2215.00
11.729 2148.00
12.0333 2055.00
12.3375 2008.00
12.6418 1982.00
12.946 2005.00
13.2503 1949.00
13.5546 1836.00
13.8588 1867.00
14.1631 1841.00
14.4673 1916.00
14.7716 1806.00
15.0759 1841.00
15.3801 2007.00
15.6844 3005.00
15.9886 8079.00
16.2929 2223.00
16.5972 1738.00
16.9014 1704.00
17.2057 1688.00
17.5099 1667.00
17.8142 1738.00
18.1185 1551.00
18.4227 1590.00
18.727 1456.00
19.0312 1480.00
19.3355 1471.00
19.6398 1449.00
19.944 1450.00
20.2483 1359.00
20.5525 1363.00
20.8568 1350.00
21.1611 1350.00
21.4653 1394.00
21.7696 1318.00
22.0738 1324.00
22.3781 1408.00
22.6824 1294.00
22.9866 1294.00
23.2909 1304.00
23.5951 1348.00
23.8994 1263.00
24.2037 1563.00
24.5079 1572.00
24.8122 1775.00
25.1164 1293.00
25.4207 1221.00
25.725 1284.00
26.0292 1167.00
26.3335 1201.00
26.6378 1306.00
26.942 1359.00
27.2463 1847.00
27.5505 6526.00
27.8548 2803.00
28.1591 5877.00
28.4633 8441.00
28.7676 2193.00
29.0718 1445.00
29.3761 1331.00
29.6804 1223.00
29.9846 1234.00
30.2889 1137.00
30.5931 1184.00
30.8974 1143.00
31.2017 1214.00
31.5059 1666.00
31.8102 5640.00
32.1144 1854.00
32.4187 1191.00
32.723 1060.00
33.0272 1052.00
33.3315 1143.00
33.6357 991.00
33.94 1053.00
34.2443 1251.00
34.5485 1991.00
34.8528 1331.00
35.157 1030.00
35.4613 1265.00
35.7656 1330.00
36.0698 1114.00
36.3741 1445.00
36.6783 975.00
36.9826 968.00
37.2869 967.00
37.5911 902.00
37.8954 838.00
38.1996 909.00
38.5039 1018.00
38.8082 1188.00
39.1124 1100.00
39.4167 1635.00
39.7209 5857.00
40.0252 2498.00
40.3295 1209.00
40.6337 1079.00
40.938 1238.00
41.2422 1148.00
41.5465 1263.00
41.8508 1108.00
42.155 998.00
42.4593 1786.00
42.7635 1262.00
43.0678 952.00
43.3721 921.00
43.6763 913.00
43.9806 854.00
44.2849 840.00
44.5891 885.00
44.8934 860.00
45.1976 1233.00
45.5019 915.00
45.8062 1148.00
46.1104 890.00
46.4147 890.00
46.7189 862.00
47.0232 939.00
47.3275 1640.00
47.6317 1205.00
47.936 1041.00
48.2402 1547.00
48.5445 3148.00
48.8488 4538.00
49.153 3272.00
49.4573 1745.00
49.7615 1440.00
50.0658 1428.00
50.3701 2414.00
50.6743 1315.00
50.9786 1430.00
51.2828 960.00
51.5871 1067.00
51.8914 865.00
52.1956 822.00
52.4999 871.00
52.8041 816.00
53.1084 832.00
53.4127 845.00
53.7169 811.00
54.0212 839.00
54.3254 1278.00
54.6297 1111.00
54.934 950.00
55.2382 1141.00
55.5425 2315.00
55.8467 1899.00
56.151 1390.00
56.4553 1350.00
56.7595 1286.00
57.0638 890.00
57.368 977.00
57.6723 1013.00
57.9766 1097.00
58.2808 1243.00
58.5851 1079.00
58.8893 940.00
59.1936 1083.00
59.4979 867.00
59.8021 888.00
60.1064 1225.00
60.4106 1108.00
60.7149 755.00
61.0192 818.00
61.3234 825.00
61.6277 1053.00
61.932 880.00
62.2362 1085.00
62.5405 865.00
62.8447 833.00
63.149 1288.00
63.4533 841.00
63.7575 884.00
64.0618 1183.00
64.366 1650.00
64.6703 1188.00
64.9745 953.00
65.2788 1203.00
65.5831 1135.00
65.8873 1096.00
66.1916 1097.00
66.4959 903.00
66.8001 788.00
67.1044 734.00
67.4086 674.00
67.7129 714.00
68.0172 777.00
68.3214 762.00
68.6257 771.00
68.9299 768.00
69.2342 891.00
69.5385 868.00
69.8427 1316.00
70.147 1295.00
70.4512 938.00
70.7555 916.00
71.0598 960.00
71.364 1109.00
71.6683 898.00
71.9725 782.00
72.2768 829.00
72.5811 806.00
72.8853 802.00
73.1896 874.00
73.4938 774.00
73.7981 833.00
74.1024 705.00
74.4066 705.00
74.7109 746.00
75.0151 888.00
75.3194 963.00
75.6237 860.00
75.9279 983.00
76.2322 1139.00
76.5364 1208.00
76.8407 1076.00
77.145 1111.00
77.4492 1437.00
77.7535 1738.00
78.0577 1354.00
78.362 1032.00
78.6663 1002.00
78.9705 1018.00
79.2748 875.00
79.579 805.00
79.8833 775.00
80.1876 720.00
80.4918 692.00
80.7961 757.00
81.1003 734.00
81.4046 711.00
81.7089 764.00
82.0131 849.00
82.3174 899.00
82.6217 1014.00
82.9259 954.00
83.2302 809.00
83.5344 794.00
83.8387 754.00
84.143 846.00
84.4472 763.00
84.7515 794.00
85.0557 843.00
85.36 815.00
85.6643 773.00
85.9685 757.00
86.2728 825.00
86.577 791.00
86.8813 741.00
87.1856 719.00
87.4898 747.00
87.7941 851.00
88.0983 793.00
88.4026 900.00
88.7069 1069.00
89.0111 1184.00
89.3154 1011.00
89.6196 906.00
89.9239 912.00
90.2282 928.00
90.5324 1050.00
90.8367 974.00
91.1409 883.00
91.4452 907.00
91.7495 836.00
92.0537 735.00
92.358 731.00
92.6622 778.00
92.9665 729.00
93.2708 778.00
93.575 778.00
93.8793 765.00
94.1835 755.00
94.4878 735.00
94.7921 750.00
95.0963 854.00
95.4006 965.00
95.7048 1107.00
96.0091 1069.00
96.3134 1058.00
96.6176 1036.00
96.9219 1091.00
97.2261 1107.00
97.5304 956.00
97.8347 736.00
98.1389 811.00
98.4432 798.00
98.7474 778.00
99.0517 847.00
99.356 835.00
99.6602 911.00
99.9645 837.00
100.095 795.00