File: data/xrd_creation/results/PG_2243-1.xy
9.903433 2874.00
10.2077 2690.00
10.512 2683.00
10.8162 2562.00
11.1205 2445.00
11.4247 2340.00
11.729 2241.00
12.0333 2073.00
12.3375 2149.00
12.6418 1978.00
12.946 1918.00
13.2503 1879.00
13.5546 1812.00
13.8588 1740.00
14.1631 1744.00
14.4673 1697.00
14.7716 1688.00
15.0759 1708.00
15.3801 1709.00
15.6844 1665.00
15.9886 1634.00
16.2929 1656.00
16.5972 1725.00
16.9014 1599.00
17.2057 1615.00
17.5099 1605.00
17.8142 1715.00
18.1185 1579.00
18.4227 1621.00
18.727 1638.00
19.0312 1708.00
19.3355 1671.00
19.6398 1652.00
19.944 1715.00
20.2483 1709.00
20.5525 1713.00
20.8568 1696.00
21.1611 2486.00
21.4653 2230.00
21.7696 1786.00
22.0738 1803.00
22.3781 1766.00
22.6824 1754.00
22.9866 1733.00
23.2909 1915.00
23.5951 1746.00
23.8994 1627.00
24.2037 1599.00
24.5079 1536.00
24.8122 1538.00
25.1164 1470.00
25.4207 1430.00
25.725 1388.00
26.0292 1388.00
26.3335 1359.00
26.6378 1280.00
26.942 1235.00
27.2463 1269.00
27.5505 1279.00
27.8548 1232.00
28.1591 1154.00
28.4633 1177.00
28.7676 1164.00
29.0718 1091.00
29.3761 1607.00
29.6804 1114.00
29.9846 1129.00
30.2889 1148.00
30.5931 2667.00
30.8974 1027.00
31.2017 984.00
31.5059 1146.00
31.8102 2721.00
32.1144 959.00
32.4187 898.00
32.723 842.00
33.0272 833.00
33.3315 815.00
33.6357 758.00
33.94 1015.00
34.2443 979.00
34.5485 781.00
34.8528 768.00
35.157 732.00
35.4613 785.00
35.7656 729.00
36.0698 1044.00
36.3741 684.00
36.6783 747.00
36.9826 1437.00
37.2869 718.00
37.5911 713.00
37.8954 620.00
38.1996 640.00
38.5039 600.00
38.8082 580.00
39.1124 601.00
39.4167 694.00
39.7209 693.00
40.0252 734.00
40.3295 545.00
40.6337 567.00
40.938 569.00
41.2422 505.00
41.5465 557.00
41.8508 513.00
42.155 538.00
42.4593 552.00
42.7635 620.00
43.0678 496.00
43.3721 623.00
43.6763 553.00
43.9806 498.00
44.2849 494.00
44.5891 512.00
44.8934 511.00
45.1976 522.00
45.5019 502.00
45.8062 462.00
46.1104 475.00
46.4147 470.00
46.7189 490.00
47.0232 508.00
47.3275 507.00
47.6317 528.00
47.936 501.00
48.2402 453.00
48.5445 535.00
48.8488 697.00
49.153 470.00
49.4573 472.00
49.7615 446.00
50.0658 458.00
50.3701 511.00
50.6743 465.00
50.9786 426.00
51.2828 424.00
51.5871 420.00
51.8914 421.00
52.1956 468.00
52.4999 437.00
52.8041 415.00
53.1084 423.00
53.4127 394.00
53.7169 391.00
54.0212 413.00
54.3254 450.00
54.6297 431.00
54.934 421.00
55.2382 401.00
55.5425 445.00
55.8467 395.00
56.151 394.00
56.4553 419.00
56.7595 511.00
57.0638 391.00
57.368 383.00
57.6723 513.00
57.9766 396.00
58.2808 485.00
58.5851 480.00
58.8893 498.00
59.1936 437.00
59.4979 392.00
59.8021 486.00
60.1064 367.00
60.4106 409.00
60.7149 350.00
61.0192 424.00
61.3234 407.00
61.6277 408.00
61.932 354.00
62.2362 382.00
62.5405 379.00
62.8447 357.00
63.149 395.00
63.4533 433.00
63.7575 380.00
64.0618 342.00
64.366 359.00
64.6703 316.00
64.9745 371.00
65.2788 378.00
65.5831 371.00
65.8873 336.00
66.1916 332.00
66.4959 381.00
66.8001 368.00
67.1044 349.00
67.4086 365.00
67.7129 355.00
68.0172 358.00
68.3214 361.00
68.6257 336.00
68.9299 366.00
69.2342 358.00
69.5385 327.00
69.8427 329.00
70.147 315.00
70.4512 328.00
70.7555 324.00
71.0598 326.00
71.364 330.00
71.6683 361.00
71.9725 339.00
72.2768 355.00
72.5811 346.00
72.8853 323.00
73.1896 342.00
73.4938 348.00
73.7981 341.00
74.1024 337.00
74.4066 321.00
74.7109 304.00
75.0151 358.00
75.3194 334.00
75.6237 346.00
75.9279 317.00
76.2322 319.00
76.5364 321.00
76.8407 328.00
77.145 329.00
77.4492 354.00
77.7535 312.00
78.0577 282.00
78.362 325.00
78.6663 332.00
78.9705 339.00
79.2748 314.00
79.579 329.00
79.8833 312.00
80.1876 319.00
80.4918 315.00
80.7961 376.00
81.1003 317.00
81.4046 352.00
81.7089 355.00
82.0131 334.00
82.3174 314.00
82.6217 322.00
82.9259 299.00
83.2302 316.00
83.5344 292.00
83.8387 300.00
84.143 282.00
84.4472 303.00
84.7515 320.00
85.0557 301.00
85.36 281.00
85.6643 275.00
85.9685 263.00
86.2728 338.00
86.577 290.00
86.8813 279.00
87.1856 287.00
87.4898 261.00
87.7941 280.00
88.0983 306.00
88.4026 299.00
88.7069 294.00
89.0111 268.00
89.3154 244.00
89.6196 274.00
89.9239 289.00
90.2282 250.00
90.5324 261.00
90.8367 231.00
91.1409 262.00
91.4452 240.00
91.7495 271.00
92.0537 259.00
92.358 284.00
92.6622 266.00
92.9665 270.00
93.2708 286.00
93.575 236.00
93.8793 227.00
94.1835 224.00
94.4878 269.00
94.7921 257.00
95.0963 276.00
95.4006 237.00
95.7048 257.00
96.0091 248.00
96.3134 318.00
96.6176 280.00
96.9219 273.00
97.2261 259.00
97.5304 283.00
97.8347 268.00
98.1389 246.00
98.4432 226.00
98.7474 247.00
99.0517 270.00
99.356 277.00
99.6602 264.00
99.9645 248.00
100.095 242.00