File: data/xrd_creation/results/PG_2445-1.xy
9.903433 2511.00
10.2077 2431.00
10.512 2192.00
10.8162 2198.00
11.1205 2074.00
11.4247 1969.00
11.729 1977.00
12.0333 1879.00
12.3375 1766.00
12.6418 1710.00
12.946 1605.00
13.2503 1618.00
13.5546 1570.00
13.8588 1434.00
14.1631 1452.00
14.4673 1408.00
14.7716 1376.00
15.0759 1312.00
15.3801 1262.00
15.6844 1314.00
15.9886 1223.00
16.2929 1232.00
16.5972 1126.00
16.9014 1187.00
17.2057 1078.00
17.5099 1121.00
17.8142 1083.00
18.1185 1066.00
18.4227 1046.00
18.727 954.00
19.0312 987.00
19.3355 931.00
19.6398 920.00
19.944 983.00
20.2483 958.00
20.5525 875.00
20.8568 828.00
21.1611 857.00
21.4653 802.00
21.7696 794.00
22.0738 791.00
22.3781 766.00
22.6824 738.00
22.9866 790.00
23.2909 757.00
23.5951 738.00
23.8994 716.00
24.2037 689.00
24.5079 690.00
24.8122 705.00
25.1164 663.00
25.4207 678.00
25.725 705.00
26.0292 662.00
26.3335 704.00
26.6378 657.00
26.942 620.00
27.2463 616.00
27.5505 639.00
27.8548 663.00
28.1591 653.00
28.4633 545.00
28.7676 567.00
29.0718 572.00
29.3761 558.00
29.6804 581.00
29.9846 566.00
30.2889 483.00
30.5931 567.00
30.8974 509.00
31.2017 492.00
31.5059 503.00
31.8102 486.00
32.1144 505.00
32.4187 494.00
32.723 471.00
33.0272 480.00
33.3315 453.00
33.6357 520.00
33.94 467.00
34.2443 412.00
34.5485 454.00
34.8528 455.00
35.157 392.00
35.4613 371.00
35.7656 392.00
36.0698 421.00
36.3741 400.00
36.6783 347.00
36.9826 370.00
37.2869 388.00
37.5911 375.00
37.8954 393.00
38.1996 392.00
38.5039 347.00
38.8082 331.00
39.1124 344.00
39.4167 340.00
39.7209 342.00
40.0252 347.00
40.3295 381.00
40.6337 326.00
40.938 316.00
41.2422 343.00
41.5465 348.00
41.8508 360.00
42.155 326.00
42.4593 284.00
42.7635 317.00
43.0678 386.00
43.3721 325.00
43.6763 305.00
43.9806 294.00
44.2849 282.00
44.5891 265.00
44.8934 340.00
45.1976 271.00
45.5019 295.00
45.8062 295.00
46.1104 257.00
46.4147 273.00
46.7189 303.00
47.0232 269.00
47.3275 268.00
47.6317 240.00
47.936 283.00
48.2402 273.00
48.5445 267.00
48.8488 268.00
49.153 269.00
49.4573 246.00
49.7615 297.00
50.0658 238.00
50.3701 271.00
50.6743 247.00
50.9786 270.00
51.2828 234.00
51.5871 260.00
51.8914 278.00
52.1956 237.00
52.4999 219.00
52.8041 204.00
53.1084 249.00
53.4127 239.00
53.7169 241.00
54.0212 256.00
54.3254 241.00
54.6297 212.00
54.934 195.00
55.2382 232.00
55.5425 266.00
55.8467 244.00
56.151 260.00
56.4553 209.00
56.7595 237.00
57.0638 213.00
57.368 245.00
57.6723 216.00
57.9766 216.00
58.2808 206.00
58.5851 226.00
58.8893 228.00
59.1936 229.00
59.4979 205.00
59.8021 207.00
60.1064 214.00
60.4106 184.00
60.7149 218.00
61.0192 197.00
61.3234 220.00
61.6277 208.00
61.932 210.00
62.2362 194.00
62.5405 199.00
62.8447 210.00
63.149 183.00
63.4533 179.00
63.7575 173.00
64.0618 163.00
64.366 201.00
64.6703 199.00
64.9745 176.00
65.2788 182.00
65.5831 184.00
65.8873 190.00
66.1916 189.00
66.4959 171.00
66.8001 176.00
67.1044 207.00
67.4086 163.00
67.7129 182.00
68.0172 207.00
68.3214 175.00
68.6257 208.00
68.9299 180.00
69.2342 202.00
69.5385 178.00
69.8427 169.00
70.147 200.00
70.4512 189.00
70.7555 191.00
71.0598 201.00
71.364 177.00
71.6683 174.00
71.9725 182.00
72.2768 186.00
72.5811 214.00
72.8853 181.00
73.1896 201.00
73.4938 213.00
73.7981 203.00
74.1024 209.00
74.4066 197.00
74.7109 210.00
75.0151 182.00
75.3194 203.00
75.6237 189.00
75.9279 194.00
76.2322 236.00
76.5364 229.00
76.8407 208.00
77.145 228.00
77.4492 207.00
77.7535 212.00
78.0577 216.00
78.362 190.00
78.6663 214.00
78.9705 226.00
79.2748 231.00
79.579 223.00
79.8833 245.00
80.1876 236.00
80.4918 223.00
80.7961 225.00
81.1003 220.00
81.4046 211.00
81.7089 201.00
82.0131 217.00
82.3174 214.00
82.6217 226.00
82.9259 213.00
83.2302 226.00
83.5344 186.00
83.8387 226.00
84.143 191.00
84.4472 219.00
84.7515 233.00
85.0557 206.00
85.36 222.00
85.6643 216.00
85.9685 193.00
86.2728 204.00
86.577 194.00
86.8813 189.00
87.1856 193.00
87.4898 184.00
87.7941 191.00
88.0983 201.00
88.4026 195.00
88.7069 188.00
89.0111 167.00
89.3154 185.00
89.6196 168.00
89.9239 190.00
90.2282 182.00
90.5324 197.00
90.8367 166.00
91.1409 187.00
91.4452 191.00
91.7495 185.00
92.0537 169.00
92.358 173.00
92.6622 161.00
92.9665 182.00
93.2708 182.00
93.575 179.00
93.8793 177.00
94.1835 193.00
94.4878 163.00
94.7921 188.00
95.0963 177.00
95.4006 179.00
95.7048 188.00
96.0091 181.00
96.3134 176.00
96.6176 173.00
96.9219 201.00
97.2261 180.00
97.5304 203.00
97.8347 166.00
98.1389 200.00
98.4432 167.00
98.7474 179.00
99.0517 202.00
99.356 152.00
99.6602 179.00
99.9645 187.00
100.095 188.00