File: data/xrd_creation/results/PG_2551-1.xy
9.903433 2529.00
10.2077 2392.00
10.512 2365.00
10.8162 2197.00
11.1205 2209.00
11.4247 2006.00
11.729 1956.00
12.0333 1795.00
12.3375 1810.00
12.6418 1784.00
12.946 1763.00
13.2503 1655.00
13.5546 1533.00
13.8588 1580.00
14.1631 1632.00
14.4673 1509.00
14.7716 1478.00
15.0759 1500.00
15.3801 1517.00
15.6844 1427.00
15.9886 1484.00
16.2929 1472.00
16.5972 1462.00
16.9014 1349.00
17.2057 1358.00
17.5099 1254.00
17.8142 1258.00
18.1185 1201.00
18.4227 1266.00
18.727 1228.00
19.0312 1150.00
19.3355 1140.00
19.6398 1172.00
19.944 1142.00
20.2483 1094.00
20.5525 1075.00
20.8568 1147.00
21.1611 1006.00
21.4653 1069.00
21.7696 1081.00
22.0738 972.00
22.3781 983.00
22.6824 979.00
22.9866 926.00
23.2909 933.00
23.5951 898.00
23.8994 961.00
24.2037 898.00
24.5079 876.00
24.8122 942.00
25.1164 863.00
25.4207 820.00
25.725 805.00
26.0292 806.00
26.3335 869.00
26.6378 814.00
26.942 807.00
27.2463 730.00
27.5505 817.00
27.8548 831.00
28.1591 798.00
28.4633 770.00
28.7676 843.00
29.0718 729.00
29.3761 769.00
29.6804 743.00
29.9846 706.00
30.2889 736.00
30.5931 753.00
30.8974 816.00
31.2017 910.00
31.5059 1228.00
31.8102 5860.00
32.1144 13766.00
32.4187 1150.00
32.723 895.00
33.0272 808.00
33.3315 769.00
33.6357 812.00
33.94 855.00
34.2443 1031.00
34.5485 3859.00
34.8528 10786.00
35.157 1060.00
35.4613 917.00
35.7656 1041.00
36.0698 1797.00
36.3741 14788.00
36.6783 11493.00
36.9826 3654.00
37.2869 1652.00
37.5911 834.00
37.8954 752.00
38.1996 702.00
38.5039 736.00
38.8082 719.00
39.1124 631.00
39.4167 689.00
39.7209 671.00
40.0252 620.00
40.3295 628.00
40.6337 575.00
40.938 631.00
41.2422 576.00
41.5465 627.00
41.8508 619.00
42.155 701.00
42.4593 864.00
42.7635 3296.00
43.0678 16285.00
43.3721 1930.00
43.6763 657.00
43.9806 590.00
44.2849 608.00
44.5891 534.00
44.8934 539.00
45.1976 567.00
45.5019 528.00
45.8062 545.00
46.1104 511.00
46.4147 518.00
46.7189 506.00
47.0232 579.00
47.3275 678.00
47.6317 2438.00
47.936 5783.00
48.2402 703.00
48.5445 558.00
48.8488 470.00
49.153 467.00
49.4573 455.00
49.7615 474.00
50.0658 433.00
50.3701 485.00
50.6743 475.00
50.9786 503.00
51.2828 440.00
51.5871 447.00
51.8914 435.00
52.1956 484.00
52.4999 413.00
52.8041 418.00
53.1084 444.00
53.4127 427.00
53.7169 458.00
54.0212 398.00
54.3254 431.00
54.6297 458.00
54.934 451.00
55.2382 430.00
55.5425 501.00
55.8467 549.00
56.151 560.00
56.4553 1331.00
56.7595 11028.00
57.0638 2340.00
57.368 633.00
57.6723 514.00
57.9766 475.00
58.2808 460.00
58.5851 459.00
58.8893 433.00
59.1936 441.00
59.4979 483.00
59.8021 434.00
60.1064 449.00
60.4106 456.00
60.7149 508.00
61.0192 587.00
61.3234 529.00
61.6277 602.00
61.932 1111.00
62.2362 5744.00
62.5405 5443.00
62.8447 1552.00
63.149 9268.00
63.4533 2839.00
63.7575 642.00
64.0618 550.00
64.366 475.00
64.6703 476.00
64.9745 484.00
65.2788 469.00
65.5831 508.00
65.8873 469.00
66.1916 567.00
66.4959 1697.00
66.8001 1008.00
67.1044 540.00
67.4086 548.00
67.7129 746.00
68.0172 3564.00
68.3214 5233.00
68.6257 880.00
68.9299 806.00
69.2342 4037.00
69.5385 1812.00
69.8427 540.00
70.147 428.00
70.4512 443.00
70.7555 423.00
71.0598 403.00
71.364 414.00
71.6683 436.00
71.9725 369.00
72.2768 376.00
72.5811 432.00
72.8853 807.00
73.1896 716.00
73.4938 431.00
73.7981 420.00
74.1024 479.00
74.4066 881.00
74.7109 1418.00
75.0151 715.00
75.3194 418.00
75.6237 399.00
75.9279 382.00
76.2322 378.00
76.5364 355.00
76.8407 526.00
77.145 1551.00
77.4492 833.00
77.7535 411.00
78.0577 518.00
78.362 1294.00
78.6663 1924.00
78.9705 967.00
79.2748 409.00
79.579 358.00
79.8833 336.00
80.1876 352.00
80.4918 350.00
80.7961 367.00
81.1003 324.00
81.4046 382.00
81.7089 817.00
82.0131 602.00
82.3174 391.00
82.6217 341.00
82.9259 386.00
83.2302 348.00
83.5344 348.00
83.8387 343.00
84.143 328.00
84.4472 315.00
84.7515 348.00
85.0557 349.00
85.36 347.00
85.6643 347.00
85.9685 356.00
86.2728 330.00
86.577 351.00
86.8813 335.00
87.1856 343.00
87.4898 345.00
87.7941 312.00
88.0983 317.00
88.4026 352.00
88.7069 371.00
89.0111 347.00
89.3154 454.00
89.6196 962.00
89.9239 2049.00
90.2282 1028.00
90.5324 438.00
90.8367 392.00
91.1409 372.00
91.4452 339.00
91.7495 386.00
92.0537 361.00
92.358 417.00
92.6622 564.00
92.9665 1025.00
93.2708 719.00
93.575 672.00
93.8793 865.00
94.1835 843.00
94.4878 586.00
94.7921 471.00
95.0963 757.00
95.4006 2702.00
95.7048 1655.00
96.0091 528.00
96.3134 413.00
96.6176 373.00
96.9219 349.00
97.2261 383.00
97.5304 396.00
97.8347 376.00
98.1389 382.00
98.4432 427.00
98.7474 983.00
99.0517 1013.00
99.356 732.00
99.6602 433.00
99.9645 380.00
100.095 370.00