File: data/xrd_creation/results/PG_2145-1.xy
9.903433 2652.00
10.2077 2627.00
10.512 2445.00
10.8162 2406.00
11.1205 2372.00
11.4247 2282.00
11.729 2154.00
12.0333 2044.00
12.3375 2055.00
12.6418 1979.00
12.946 1858.00
13.2503 1883.00
13.5546 1884.00
13.8588 1807.00
14.1631 1855.00
14.4673 1907.00
14.7716 1861.00
15.0759 1886.00
15.3801 1994.00
15.6844 2884.00
15.9886 8471.00
16.2929 2188.00
16.5972 1824.00
16.9014 1685.00
17.2057 1706.00
17.5099 1557.00
17.8142 1581.00
18.1185 1462.00
18.4227 1574.00
18.727 1526.00
19.0312 1498.00
19.3355 1464.00
19.6398 1477.00
19.944 1543.00
20.2483 1455.00
20.5525 1441.00
20.8568 1488.00
21.1611 1371.00
21.4653 1416.00
21.7696 1328.00
22.0738 1373.00
22.3781 1385.00
22.6824 1322.00
22.9866 1306.00
23.2909 1351.00
23.5951 1270.00
23.8994 1260.00
24.2037 1240.00
24.5079 1254.00
24.8122 1257.00
25.1164 1508.00
25.4207 4322.00
25.725 2713.00
26.0292 3045.00
26.3335 1567.00
26.6378 1267.00
26.942 1391.00
27.2463 1883.00
27.5505 6566.00
27.8548 2753.00
28.1591 5468.00
28.4633 4548.00
28.7676 1521.00
29.0718 1274.00
29.3761 1241.00
29.6804 1147.00
29.9846 1714.00
30.2889 1081.00
30.5931 1095.00
30.8974 1089.00
31.2017 1131.00
31.5059 1289.00
31.8102 2342.00
32.1144 1627.00
32.4187 1072.00
32.723 1064.00
33.0272 923.00
33.3315 946.00
33.6357 900.00
33.94 933.00
34.2443 990.00
34.5485 922.00
34.8528 1163.00
35.157 1113.00
35.4613 1491.00
35.7656 1336.00
36.0698 1288.00
36.3741 2011.00
36.6783 2255.00
36.9826 1989.00
37.2869 1016.00
37.5911 956.00
37.8954 978.00
38.1996 889.00
38.5039 909.00
38.8082 938.00
39.1124 1061.00
39.4167 1481.00
39.7209 5658.00
40.0252 2876.00
40.3295 1173.00
40.6337 969.00
40.938 909.00
41.2422 949.00
41.5465 1150.00
41.8508 1065.00
42.155 1018.00
42.4593 1688.00
42.7635 1296.00
43.0678 946.00
43.3721 961.00
43.6763 882.00
43.9806 956.00
44.2849 1768.00
44.5891 1953.00
44.8934 1069.00
45.1976 996.00
45.5019 1032.00
45.8062 1368.00
46.1104 1182.00
46.4147 914.00
46.7189 1021.00
47.0232 1310.00
47.3275 1812.00
47.6317 1528.00
47.936 1991.00
48.2402 1792.00
48.5445 3066.00
48.8488 4416.00
49.153 3302.00
49.4573 1339.00
49.7615 1025.00
50.0658 1329.00
50.3701 2107.00
50.6743 1285.00
50.9786 930.00
51.2828 814.00
51.5871 728.00
51.8914 849.00
52.1956 866.00
52.4999 803.00
52.8041 765.00
53.1084 779.00
53.4127 812.00
53.7169 786.00
54.0212 755.00
54.3254 754.00
54.6297 719.00
54.934 820.00
55.2382 986.00
55.5425 2055.00
55.8467 1272.00
56.151 948.00
56.4553 1250.00
56.7595 1273.00
57.0638 956.00
57.368 909.00
57.6723 975.00
57.9766 1066.00
58.2808 1082.00
58.5851 837.00
58.8893 1011.00
59.1936 1256.00
59.4979 930.00
59.8021 895.00
60.1064 967.00
60.4106 802.00
60.7149 787.00
61.0192 748.00
61.3234 739.00
61.6277 730.00
61.932 744.00
62.2362 711.00
62.5405 683.00
62.8447 755.00
63.149 892.00
63.4533 777.00
63.7575 917.00
64.0618 1316.00
64.366 1774.00
64.6703 1082.00
64.9745 880.00
65.2788 1171.00
65.5831 1098.00
65.8873 927.00
66.1916 899.00
66.4959 903.00
66.8001 729.00
67.1044 715.00
67.4086 678.00
67.7129 685.00
68.0172 716.00
68.3214 728.00
68.6257 717.00
68.9299 647.00
69.2342 690.00
69.5385 826.00
69.8427 1238.00
70.147 1296.00
70.4512 900.00
70.7555 807.00
71.0598 922.00
71.364 928.00
71.6683 799.00
71.9725 728.00
72.2768 906.00
72.5811 876.00
72.8853 850.00
73.1896 901.00
73.4938 803.00
73.7981 877.00
74.1024 1039.00
74.4066 934.00
74.7109 908.00
75.0151 850.00
75.3194 865.00
75.6237 916.00
75.9279 1034.00
76.2322 1235.00
76.5364 1229.00
76.8407 1113.00
77.145 1067.00
77.4492 1489.00
77.7535 1796.00
78.0577 1364.00
78.362 1020.00
78.6663 925.00
78.9705 904.00
79.2748 731.00
79.579 708.00
79.8833 720.00
80.1876 702.00
80.4918 753.00
80.7961 742.00
81.1003 714.00
81.4046 718.00
81.7089 736.00
82.0131 862.00
82.3174 922.00
82.6217 1033.00
82.9259 878.00
83.2302 799.00
83.5344 816.00
83.8387 800.00
84.143 752.00
84.4472 769.00
84.7515 685.00
85.0557 738.00
85.36 787.00
85.6643 798.00
85.9685 722.00
86.2728 712.00
86.577 691.00
86.8813 667.00
87.1856 674.00
87.4898 723.00
87.7941 723.00
88.0983 714.00
88.4026 738.00
88.7069 949.00
89.0111 1107.00
89.3154 951.00
89.6196 814.00
89.9239 765.00
90.2282 893.00
90.5324 877.00
90.8367 866.00
91.1409 733.00
91.4452 779.00
91.7495 892.00
92.0537 803.00
92.358 765.00
92.6622 726.00
92.9665 711.00
93.2708 719.00
93.575 689.00
93.8793 727.00
94.1835 798.00
94.4878 789.00
94.7921 797.00
95.0963 923.00
95.4006 907.00
95.7048 1055.00
96.0091 1081.00
96.3134 994.00
96.6176 945.00
96.9219 960.00
97.2261 1005.00
97.5304 929.00
97.8347 794.00
98.1389 716.00
98.4432 729.00
98.7474 730.00
99.0517 780.00
99.356 772.00
99.6602 765.00
99.9645 662.00
100.095 731.00