File: data/xrd_creation/results/PG_2251-1.xy
9.903433 2412.00
10.2077 2351.00
10.512 2220.00
10.8162 2114.00
11.1205 2028.00
11.4247 1981.00
11.729 1921.00
12.0333 1786.00
12.3375 1712.00
12.6418 1830.00
12.946 1758.00
13.2503 1694.00
13.5546 1573.00
13.8588 1618.00
14.1631 1548.00
14.4673 1511.00
14.7716 1496.00
15.0759 1481.00
15.3801 1445.00
15.6844 1407.00
15.9886 1413.00
16.2929 1328.00
16.5972 1414.00
16.9014 1277.00
17.2057 1298.00
17.5099 1254.00
17.8142 1201.00
18.1185 1188.00
18.4227 1238.00
18.727 1182.00
19.0312 1103.00
19.3355 1160.00
19.6398 1141.00
19.944 1089.00
20.2483 1010.00
20.5525 999.00
20.8568 1052.00
21.1611 1023.00
21.4653 1244.00
21.7696 5079.00
22.0738 1068.00
22.3781 958.00
22.6824 976.00
22.9866 941.00
23.2909 954.00
23.5951 984.00
23.8994 1494.00
24.2037 912.00
24.5079 869.00
24.8122 861.00
25.1164 866.00
25.4207 823.00
25.725 844.00
26.0292 782.00
26.3335 840.00
26.6378 795.00
26.942 794.00
27.2463 809.00
27.5505 753.00
27.8548 778.00
28.1591 781.00
28.4633 791.00
28.7676 794.00
29.0718 895.00
29.3761 761.00
29.6804 968.00
29.9846 1369.00
30.2889 829.00
30.5931 885.00
30.8974 2438.00
31.2017 1684.00
31.5059 1298.00
31.8102 2314.00
32.1144 32103.00
32.4187 4297.00
32.723 1321.00
33.0272 1194.00
33.3315 954.00
33.6357 1030.00
33.94 1091.00
34.2443 1377.00
34.5485 3769.00
34.8528 37128.00
35.157 1793.00
35.4613 1322.00
35.7656 1356.00
36.0698 1760.00
36.3741 5083.00
36.6783 82259.00
36.9826 3569.00
37.2869 2398.00
37.5911 1315.00
37.8954 1036.00
38.1996 916.00
38.5039 887.00
38.8082 813.00
39.1124 811.00
39.4167 784.00
39.7209 856.00
40.0252 1674.00
40.3295 1265.00
40.6337 729.00
40.938 656.00
41.2422 624.00
41.5465 652.00
41.8508 597.00
42.155 630.00
42.4593 616.00
42.7635 633.00
43.0678 815.00
43.3721 613.00
43.6763 638.00
43.9806 758.00
44.2849 606.00
44.5891 575.00
44.8934 538.00
45.1976 580.00
45.5019 574.00
45.8062 563.00
46.1104 502.00
46.4147 582.00
46.7189 639.00
47.0232 612.00
47.3275 793.00
47.6317 1399.00
47.936 17913.00
48.2402 1411.00
48.5445 707.00
48.8488 600.00
49.153 1296.00
49.4573 606.00
49.7615 550.00
50.0658 499.00
50.3701 512.00
50.6743 728.00
50.9786 535.00
51.2828 510.00
51.5871 509.00
51.8914 490.00
52.1956 440.00
52.4999 493.00
52.8041 491.00
53.1084 498.00
53.4127 493.00
53.7169 488.00
54.0212 489.00
54.3254 552.00
54.6297 483.00
54.934 570.00
55.2382 571.00
55.5425 562.00
55.8467 585.00
56.151 671.00
56.4553 927.00
56.7595 3068.00
57.0638 13950.00
57.368 1402.00
57.6723 710.00
57.9766 776.00
58.2808 810.00
58.5851 669.00
58.8893 773.00
59.1936 809.00
59.4979 767.00
59.8021 646.00
60.1064 1087.00
60.4106 663.00
60.7149 574.00
61.0192 681.00
61.3234 624.00
61.6277 772.00
61.932 803.00
62.2362 690.00
62.5405 737.00
62.8447 1276.00
63.149 12316.00
63.4533 7586.00
63.7575 1057.00
64.0618 734.00
64.366 647.00
64.6703 579.00
64.9745 623.00
65.2788 626.00
65.5831 608.00
65.8873 727.00
66.1916 690.00
66.4959 879.00
66.8001 2613.00
67.1044 756.00
67.4086 752.00
67.7129 875.00
68.0172 1746.00
68.3214 18501.00
68.6257 2235.00
68.9299 905.00
69.2342 1677.00
69.5385 4166.00
69.8427 993.00
70.147 649.00
70.4512 578.00
70.7555 616.00
71.0598 561.00
71.364 524.00
71.6683 499.00
71.9725 520.00
72.2768 584.00
72.5811 580.00
72.8853 1897.00
73.1896 785.00
73.4938 451.00
73.7981 483.00
74.1024 576.00
74.4066 592.00
74.7109 469.00
75.0151 519.00
75.3194 601.00
75.6237 505.00
75.9279 478.00
76.2322 416.00
76.5364 442.00
76.8407 531.00
77.145 1083.00
77.4492 1468.00
77.7535 563.00
78.0577 440.00
78.362 446.00
78.6663 430.00
78.9705 455.00
79.2748 415.00
79.579 454.00
79.8833 419.00
80.1876 394.00
80.4918 412.00
80.7961 427.00
81.1003 417.00
81.4046 558.00
81.7089 1838.00
82.0131 839.00
82.3174 504.00
82.6217 419.00
82.9259 419.00
83.2302 420.00
83.5344 457.00
83.8387 369.00
84.143 387.00
84.4472 415.00
84.7515 417.00
85.0557 457.00
85.36 419.00
85.6643 430.00
85.9685 432.00
86.2728 447.00
86.577 494.00
86.8813 465.00
87.1856 413.00
87.4898 400.00
87.7941 428.00
88.0983 459.00
88.4026 443.00
88.7069 415.00
89.0111 473.00
89.3154 499.00
89.6196 822.00
89.9239 6322.00
90.2282 2980.00
90.5324 587.00
90.8367 466.00
91.1409 440.00
91.4452 447.00
91.7495 467.00
92.0537 478.00
92.358 478.00
92.6622 633.00
92.9665 1159.00
93.2708 1032.00
93.575 636.00
93.8793 514.00
94.1835 464.00
94.4878 469.00
94.7921 547.00
95.0963 634.00
95.4006 1476.00
95.7048 2435.00
96.0091 1507.00
96.3134 591.00
96.6176 515.00
96.9219 506.00
97.2261 503.00
97.5304 463.00
97.8347 489.00
98.1389 494.00
98.4432 561.00
98.7474 1338.00
99.0517 1224.00
99.356 897.00
99.6602 523.00
99.9645 553.00
100.095 500.00