File: data/xrd_creation/results/PG_2047-1.xy
9.903433 2742.00
10.2077 2577.00
10.512 2467.00
10.8162 2470.00
11.1205 2336.00
11.4247 2276.00
11.729 2257.00
12.0333 2063.00
12.3375 1945.00
12.6418 2015.00
12.946 1842.00
13.2503 1897.00
13.5546 1870.00
13.8588 1796.00
14.1631 1663.00
14.4673 1758.00
14.7716 1736.00
15.0759 1591.00
15.3801 1638.00
15.6844 1642.00
15.9886 1600.00
16.2929 1514.00
16.5972 1503.00
16.9014 1512.00
17.2057 1525.00
17.5099 1821.00
17.8142 2029.00
18.1185 1394.00
18.4227 1378.00
18.727 1312.00
19.0312 1302.00
19.3355 1282.00
19.6398 1242.00
19.944 1221.00
20.2483 1226.00
20.5525 1199.00
20.8568 1188.00
21.1611 1187.00
21.4653 1092.00
21.7696 1235.00
22.0738 999.00
22.3781 1089.00
22.6824 1075.00
22.9866 1046.00
23.2909 1091.00
23.5951 1223.00
23.8994 1631.00
24.2037 15431.00
24.5079 2571.00
24.8122 1265.00
25.1164 1033.00
25.4207 988.00
25.725 1009.00
26.0292 958.00
26.3335 957.00
26.6378 941.00
26.942 917.00
27.2463 907.00
27.5505 903.00
27.8548 926.00
28.1591 855.00
28.4633 809.00
28.7676 898.00
29.0718 783.00
29.3761 836.00
29.6804 856.00
29.9846 2626.00
30.2889 895.00
30.5931 964.00
30.8974 3492.00
31.2017 1551.00
31.5059 869.00
31.8102 757.00
32.1144 775.00
32.4187 777.00
32.723 745.00
33.0272 915.00
33.3315 5904.00
33.6357 822.00
33.94 756.00
34.2443 2727.00
34.5485 734.00
34.8528 630.00
35.157 694.00
35.4613 1222.00
35.7656 682.00
36.0698 700.00
36.3741 1099.00
36.6783 2166.00
36.9826 666.00
37.2869 598.00
37.5911 579.00
37.8954 577.00
38.1996 619.00
38.5039 978.00
38.8082 1843.00
39.1124 527.00
39.4167 513.00
39.7209 505.00
40.0252 504.00
40.3295 520.00
40.6337 507.00
40.938 1190.00
41.2422 573.00
41.5465 2413.00
41.8508 558.00
42.155 516.00
42.4593 486.00
42.7635 495.00
43.0678 506.00
43.3721 500.00
43.6763 443.00
43.9806 458.00
44.2849 503.00
44.5891 560.00
44.8934 471.00
45.1976 440.00
45.5019 485.00
45.8062 535.00
46.1104 1342.00
46.4147 591.00
46.7189 5557.00
47.0232 731.00
47.3275 468.00
47.6317 513.00
47.936 981.00
48.2402 435.00
48.5445 465.00
48.8488 466.00
49.153 652.00
49.4573 437.00
49.7615 488.00
50.0658 1835.00
50.3701 567.00
50.6743 451.00
50.9786 412.00
51.2828 411.00
51.5871 403.00
51.8914 392.00
52.1956 413.00
52.4999 538.00
52.8041 407.00
53.1084 416.00
53.4127 403.00
53.7169 466.00
54.0212 901.00
54.3254 3111.00
54.6297 582.00
54.934 459.00
55.2382 674.00
55.5425 704.00
55.8467 399.00
56.151 420.00
56.4553 389.00
56.7595 372.00
57.0638 433.00
57.368 402.00
57.6723 348.00
57.9766 402.00
58.2808 410.00
58.5851 964.00
58.8893 699.00
59.1936 843.00
59.4979 422.00
59.8021 382.00
60.1064 697.00
60.4106 378.00
60.7149 342.00
61.0192 382.00
61.3234 343.00
61.6277 383.00
61.932 428.00
62.2362 320.00
62.5405 315.00
62.8447 395.00
63.149 464.00
63.4533 1316.00
63.7575 501.00
64.0618 631.00
64.366 751.00
64.6703 358.00
64.9745 400.00
65.2788 606.00
65.5831 1153.00
65.8873 430.00
66.1916 386.00
66.4959 317.00
66.8001 356.00
67.1044 352.00
67.4086 339.00
67.7129 316.00
68.0172 333.00
68.3214 311.00
68.6257 363.00
68.9299 314.00
69.2342 319.00
69.5385 362.00
69.8427 572.00
70.147 1013.00
70.4512 378.00
70.7555 416.00
71.0598 665.00
71.364 420.00
71.6683 422.00
71.9725 571.00
72.2768 336.00
72.5811 328.00
72.8853 295.00
73.1896 325.00
73.4938 321.00
73.7981 335.00
74.1024 320.00
74.4066 434.00
74.7109 1325.00
75.0151 428.00
75.3194 314.00
75.6237 281.00
75.9279 362.00
76.2322 336.00
76.5364 296.00
76.8407 431.00
77.145 570.00
77.4492 427.00
77.7535 302.00
78.0577 271.00
78.362 347.00
78.6663 456.00
78.9705 316.00
79.2748 307.00
79.579 449.00
79.8833 511.00
80.1876 537.00
80.4918 346.00
80.7961 323.00
81.1003 301.00
81.4046 321.00
81.7089 351.00
82.0131 459.00
82.3174 649.00
82.6217 562.00
82.9259 341.00
83.2302 303.00
83.5344 306.00
83.8387 341.00
84.143 291.00
84.4472 318.00
84.7515 300.00
85.0557 300.00
85.36 298.00
85.6643 582.00
85.9685 442.00
86.2728 312.00
86.577 514.00
86.8813 357.00
87.1856 312.00
87.4898 262.00
87.7941 272.00
88.0983 262.00
88.4026 272.00
88.7069 288.00
89.0111 282.00
89.3154 315.00
89.6196 505.00
89.9239 512.00
90.2282 342.00
90.5324 274.00
90.8367 306.00
91.1409 244.00
91.4452 272.00
91.7495 330.00
92.0537 259.00
92.358 276.00
92.6622 256.00
92.9665 312.00
93.2708 395.00
93.575 518.00
93.8793 448.00
94.1835 345.00
94.4878 385.00
94.7921 365.00
95.0963 311.00
95.4006 427.00
95.7048 416.00
96.0091 361.00
96.3134 297.00
96.6176 416.00
96.9219 401.00
97.2261 347.00
97.5304 358.00
97.8347 307.00
98.1389 314.00
98.4432 319.00
98.7474 293.00
99.0517 326.00
99.356 543.00
99.6602 604.00
99.9645 373.00
100.095 532.00