File: data/xrd_creation/results/PG_2051-1.xy
9.903433 2546.00
10.2077 2418.00
10.512 2296.00
10.8162 2301.00
11.1205 2156.00
11.4247 2150.00
11.729 1953.00
12.0333 1952.00
12.3375 1929.00
12.6418 1836.00
12.946 1797.00
13.2503 1768.00
13.5546 1685.00
13.8588 1666.00
14.1631 1707.00
14.4673 1722.00
14.7716 1876.00
15.0759 1597.00
15.3801 1579.00
15.6844 1549.00
15.9886 1496.00
16.2929 1443.00
16.5972 1405.00
16.9014 1455.00
17.2057 1386.00
17.5099 1907.00
17.8142 2204.00
18.1185 1361.00
18.4227 1260.00
18.727 1318.00
19.0312 1216.00
19.3355 1338.00
19.6398 1281.00
19.944 1276.00
20.2483 1164.00
20.5525 1120.00
20.8568 1260.00
21.1611 1332.00
21.4653 1132.00
21.7696 1113.00
22.0738 1079.00
22.3781 1016.00
22.6824 975.00
22.9866 993.00
23.2909 1024.00
23.5951 1091.00
23.8994 1912.00
24.2037 17528.00
24.5079 1170.00
24.8122 928.00
25.1164 917.00
25.4207 920.00
25.725 952.00
26.0292 910.00
26.3335 922.00
26.6378 992.00
26.942 896.00
27.2463 915.00
27.5505 985.00
27.8548 1105.00
28.1591 1281.00
28.4633 1251.00
28.7676 1537.00
29.0718 1541.00
29.3761 1163.00
29.6804 982.00
29.9846 3169.00
30.2889 952.00
30.5931 1089.00
30.8974 5327.00
31.2017 1815.00
31.5059 1044.00
31.8102 1635.00
32.1144 13173.00
32.4187 1188.00
32.723 978.00
33.0272 1077.00
33.3315 1075.00
33.6357 972.00
33.94 1054.00
34.2443 4043.00
34.5485 2486.00
34.8528 4964.00
35.157 1131.00
35.4613 1812.00
35.7656 922.00
36.0698 1153.00
36.3741 4102.00
36.6783 10709.00
36.9826 1106.00
37.2869 841.00
37.5911 799.00
37.8954 695.00
38.1996 706.00
38.5039 1227.00
38.8082 1983.00
39.1124 640.00
39.4167 588.00
39.7209 655.00
40.0252 609.00
40.3295 558.00
40.6337 673.00
40.938 1450.00
41.2422 635.00
41.5465 581.00
41.8508 567.00
42.155 547.00
42.4593 610.00
42.7635 524.00
43.0678 559.00
43.3721 550.00
43.6763 551.00
43.9806 487.00
44.2849 494.00
44.5891 552.00
44.8934 509.00
45.1976 560.00
45.5019 611.00
45.8062 682.00
46.1104 1675.00
46.4147 742.00
46.7189 8188.00
47.0232 867.00
47.3275 736.00
47.6317 1228.00
47.936 4151.00
48.2402 684.00
48.5445 555.00
48.8488 527.00
49.153 721.00
49.4573 473.00
49.7615 474.00
50.0658 498.00
50.3701 477.00
50.6743 445.00
50.9786 448.00
51.2828 448.00
51.5871 448.00
51.8914 424.00
52.1956 466.00
52.4999 655.00
52.8041 488.00
53.1084 453.00
53.4127 469.00
53.7169 427.00
54.0212 471.00
54.3254 501.00
54.6297 472.00
54.934 580.00
55.2382 1123.00
55.5425 851.00
55.8467 537.00
56.151 603.00
56.4553 712.00
56.7595 3334.00
57.0638 3159.00
57.368 599.00
57.6723 502.00
57.9766 512.00
58.2808 524.00
58.5851 1235.00
58.8893 743.00
59.1936 1171.00
59.4979 456.00
59.8021 425.00
60.1064 787.00
60.4106 453.00
60.7149 475.00
61.0192 496.00
61.3234 455.00
61.6277 406.00
61.932 520.00
62.2362 437.00
62.5405 523.00
62.8447 812.00
63.149 6199.00
63.4533 893.00
63.7575 586.00
64.0618 824.00
64.366 1000.00
64.6703 447.00
64.9745 427.00
65.2788 442.00
65.5831 477.00
65.8873 459.00
66.1916 399.00
66.4959 681.00
66.8001 981.00
67.1044 515.00
67.4086 433.00
67.7129 508.00
68.0172 1238.00
68.3214 2776.00
68.6257 696.00
68.9299 564.00
69.2342 1582.00
69.5385 1674.00
69.8427 1047.00
70.147 1143.00
70.4512 406.00
70.7555 397.00
71.0598 381.00
71.364 393.00
71.6683 531.00
71.9725 611.00
72.2768 419.00
72.5811 409.00
72.8853 642.00
73.1896 406.00
73.4938 410.00
73.7981 443.00
74.1024 386.00
74.4066 443.00
74.7109 1543.00
75.0151 487.00
75.3194 386.00
75.6237 375.00
75.9279 440.00
76.2322 415.00
76.5364 403.00
76.8407 578.00
77.145 953.00
77.4492 720.00
77.7535 402.00
78.0577 396.00
78.362 355.00
78.6663 367.00
78.9705 375.00
79.2748 430.00
79.579 651.00
79.8833 800.00
80.1876 623.00
80.4918 385.00
80.7961 337.00
81.1003 411.00
81.4046 356.00
81.7089 686.00
82.0131 554.00
82.3174 327.00
82.6217 378.00
82.9259 361.00
83.2302 317.00
83.5344 319.00
83.8387 339.00
84.143 338.00
84.4472 365.00
84.7515 302.00
85.0557 321.00
85.36 340.00
85.6643 696.00
85.9685 468.00
86.2728 298.00
86.577 308.00
86.8813 333.00
87.1856 310.00
87.4898 329.00
87.7941 308.00
88.0983 368.00
88.4026 325.00
88.7069 311.00
89.0111 311.00
89.3154 378.00
89.6196 606.00
89.9239 1006.00
90.2282 545.00
90.5324 349.00
90.8367 300.00
91.1409 318.00
91.4452 300.00
91.7495 294.00
92.0537 326.00
92.358 312.00
92.6622 384.00
92.9665 764.00
93.2708 584.00
93.575 351.00
93.8793 315.00
94.1835 316.00
94.4878 437.00
94.7921 370.00
95.0963 401.00
95.4006 1393.00
95.7048 980.00
96.0091 484.00
96.3134 381.00
96.6176 508.00
96.9219 517.00
97.2261 357.00
97.5304 324.00
97.8347 350.00
98.1389 328.00
98.4432 404.00
98.7474 845.00
99.0517 626.00
99.356 645.00
99.6602 886.00
99.9645 510.00
100.095 533.00