File: data/xrd_creation/results/PG_2439-1.xy
9.903433 2569.00
10.2077 2489.00
10.512 2576.00
10.8162 2379.00
11.1205 2270.00
11.4247 2168.00
11.729 2034.00
12.0333 1929.00
12.3375 1893.00
12.6418 1789.00
12.946 1609.00
13.2503 1647.00
13.5546 1559.00
13.8588 1555.00
14.1631 1536.00
14.4673 1472.00
14.7716 1449.00
15.0759 1381.00
15.3801 1408.00
15.6844 1303.00
15.9886 1325.00
16.2929 1301.00
16.5972 1284.00
16.9014 1255.00
17.2057 1202.00
17.5099 1192.00
17.8142 1117.00
18.1185 1178.00
18.4227 1100.00
18.727 1100.00
19.0312 1121.00
19.3355 1009.00
19.6398 966.00
19.944 938.00
20.2483 995.00
20.5525 1016.00
20.8568 973.00
21.1611 993.00
21.4653 978.00
21.7696 942.00
22.0738 963.00
22.3781 917.00
22.6824 936.00
22.9866 866.00
23.2909 832.00
23.5951 841.00
23.8994 758.00
24.2037 833.00
24.5079 785.00
24.8122 817.00
25.1164 746.00
25.4207 714.00
25.725 791.00
26.0292 733.00
26.3335 731.00
26.6378 691.00
26.942 730.00
27.2463 736.00
27.5505 773.00
27.8548 724.00
28.1591 741.00
28.4633 756.00
28.7676 709.00
29.0718 728.00
29.3761 670.00
29.6804 665.00
29.9846 666.00
30.2889 752.00
30.5931 643.00
30.8974 587.00
31.2017 638.00
31.5059 632.00
31.8102 572.00
32.1144 593.00
32.4187 538.00
32.723 564.00
33.0272 593.00
33.3315 560.00
33.6357 605.00
33.94 538.00
34.2443 562.00
34.5485 526.00
34.8528 522.00
35.157 554.00
35.4613 506.00
35.7656 542.00
36.0698 489.00
36.3741 474.00
36.6783 494.00
36.9826 474.00
37.2869 502.00
37.5911 457.00
37.8954 420.00
38.1996 467.00
38.5039 442.00
38.8082 421.00
39.1124 460.00
39.4167 460.00
39.7209 414.00
40.0252 428.00
40.3295 402.00
40.6337 399.00
40.938 383.00
41.2422 392.00
41.5465 391.00
41.8508 404.00
42.155 412.00
42.4593 408.00
42.7635 419.00
43.0678 489.00
43.3721 414.00
43.6763 394.00
43.9806 389.00
44.2849 384.00
44.5891 353.00
44.8934 334.00
45.1976 370.00
45.5019 370.00
45.8062 326.00
46.1104 366.00
46.4147 369.00
46.7189 323.00
47.0232 338.00
47.3275 376.00
47.6317 328.00
47.936 343.00
48.2402 349.00
48.5445 367.00
48.8488 354.00
49.153 363.00
49.4573 356.00
49.7615 313.00
50.0658 328.00
50.3701 284.00
50.6743 336.00
50.9786 345.00
51.2828 329.00
51.5871 319.00
51.8914 319.00
52.1956 323.00
52.4999 324.00
52.8041 274.00
53.1084 317.00
53.4127 318.00
53.7169 306.00
54.0212 349.00
54.3254 332.00
54.6297 311.00
54.934 326.00
55.2382 288.00
55.5425 280.00
55.8467 277.00
56.151 287.00
56.4553 279.00
56.7595 278.00
57.0638 296.00
57.368 304.00
57.6723 270.00
57.9766 233.00
58.2808 290.00
58.5851 242.00
58.8893 276.00
59.1936 249.00
59.4979 243.00
59.8021 271.00
60.1064 271.00
60.4106 258.00
60.7149 242.00
61.0192 261.00
61.3234 229.00
61.6277 261.00
61.932 275.00
62.2362 260.00
62.5405 248.00
62.8447 247.00
63.149 286.00
63.4533 225.00
63.7575 236.00
64.0618 258.00
64.366 235.00
64.6703 292.00
64.9745 256.00
65.2788 258.00
65.5831 264.00
65.8873 243.00
66.1916 244.00
66.4959 231.00
66.8001 242.00
67.1044 264.00
67.4086 234.00
67.7129 270.00
68.0172 208.00
68.3214 242.00
68.6257 238.00
68.9299 230.00
69.2342 236.00
69.5385 257.00
69.8427 232.00
70.147 240.00
70.4512 238.00
70.7555 237.00
71.0598 260.00
71.364 248.00
71.6683 237.00
71.9725 247.00
72.2768 244.00
72.5811 269.00
72.8853 227.00
73.1896 238.00
73.4938 270.00
73.7981 246.00
74.1024 242.00
74.4066 223.00
74.7109 261.00
75.0151 237.00
75.3194 235.00
75.6237 277.00
75.9279 246.00
76.2322 263.00
76.5364 247.00
76.8407 257.00
77.145 284.00
77.4492 262.00
77.7535 224.00
78.0577 284.00
78.362 242.00
78.6663 247.00
78.9705 263.00
79.2748 270.00
79.579 293.00
79.8833 250.00
80.1876 257.00
80.4918 298.00
80.7961 264.00
81.1003 315.00
81.4046 248.00
81.7089 286.00
82.0131 234.00
82.3174 315.00
82.6217 293.00
82.9259 299.00
83.2302 267.00
83.5344 279.00
83.8387 260.00
84.143 272.00
84.4472 272.00
84.7515 268.00
85.0557 237.00
85.36 262.00
85.6643 243.00
85.9685 240.00
86.2728 270.00
86.577 251.00
86.8813 232.00
87.1856 234.00
87.4898 244.00
87.7941 244.00
88.0983 211.00
88.4026 261.00
88.7069 224.00
89.0111 244.00
89.3154 233.00
89.6196 222.00
89.9239 241.00
90.2282 241.00
90.5324 233.00
90.8367 233.00
91.1409 237.00
91.4452 216.00
91.7495 230.00
92.0537 237.00
92.358 248.00
92.6622 250.00
92.9665 231.00
93.2708 207.00
93.575 217.00
93.8793 232.00
94.1835 193.00
94.4878 235.00
94.7921 259.00
95.0963 198.00
95.4006 213.00
95.7048 211.00
96.0091 222.00
96.3134 232.00
96.6176 226.00
96.9219 222.00
97.2261 224.00
97.5304 211.00
97.8347 201.00
98.1389 215.00
98.4432 211.00
98.7474 217.00
99.0517 249.00
99.356 203.00
99.6602 229.00
99.9645 214.00
100.095 234.00