File: data/xrd_creation/results/PG_2646-1.xy
9.903433 2669.00
10.2077 2464.00
10.512 2378.00
10.8162 2313.00
11.1205 2177.00
11.4247 2126.00
11.729 2116.00
12.0333 1936.00
12.3375 1970.00
12.6418 1883.00
12.946 1772.00
13.2503 1786.00
13.5546 1734.00
13.8588 1684.00
14.1631 1663.00
14.4673 1713.00
14.7716 1612.00
15.0759 1627.00
15.3801 1550.00
15.6844 1535.00
15.9886 1593.00
16.2929 1529.00
16.5972 1523.00
16.9014 1401.00
17.2057 1469.00
17.5099 1387.00
17.8142 1403.00
18.1185 1384.00
18.4227 1338.00
18.727 1373.00
19.0312 1286.00
19.3355 1236.00
19.6398 1298.00
19.944 1171.00
20.2483 1212.00
20.5525 1166.00
20.8568 1114.00
21.1611 1156.00
21.4653 1083.00
21.7696 1092.00
22.0738 1086.00
22.3781 1180.00
22.6824 1011.00
22.9866 1069.00
23.2909 1074.00
23.5951 1351.00
23.8994 1290.00
24.2037 1052.00
24.5079 1016.00
24.8122 942.00
25.1164 992.00
25.4207 899.00
25.725 994.00
26.0292 917.00
26.3335 902.00
26.6378 897.00
26.942 907.00
27.2463 903.00
27.5505 1296.00
27.8548 1046.00
28.1591 881.00
28.4633 888.00
28.7676 828.00
29.0718 847.00
29.3761 848.00
29.6804 905.00
29.9846 814.00
30.2889 747.00
30.5931 869.00
30.8974 832.00
31.2017 796.00
31.5059 734.00
31.8102 783.00
32.1144 1481.00
32.4187 3257.00
32.723 832.00
33.0272 700.00
33.3315 783.00
33.6357 788.00
33.94 753.00
34.2443 740.00
34.5485 789.00
34.8528 955.00
35.157 2940.00
35.4613 804.00
35.7656 742.00
36.0698 799.00
36.3741 1165.00
36.6783 736.00
36.9826 703.00
37.2869 719.00
37.5911 739.00
37.8954 731.00
38.1996 661.00
38.5039 704.00
38.8082 753.00
39.1124 693.00
39.4167 725.00
39.7209 726.00
40.0252 1366.00
40.3295 763.00
40.6337 693.00
40.938 695.00
41.2422 813.00
41.5465 836.00
41.8508 652.00
42.155 649.00
42.4593 660.00
42.7635 719.00
43.0678 638.00
43.3721 683.00
43.6763 693.00
43.9806 689.00
44.2849 762.00
44.5891 655.00
44.8934 688.00
45.1976 644.00
45.5019 688.00
45.8062 631.00
46.1104 661.00
46.4147 673.00
46.7189 628.00
47.0232 679.00
47.3275 607.00
47.6317 683.00
47.936 700.00
48.2402 1287.00
48.5445 1284.00
48.8488 676.00
49.153 686.00
49.4573 699.00
49.7615 653.00
50.0658 666.00
50.3701 684.00
50.6743 667.00
50.9786 669.00
51.2828 680.00
51.5871 708.00
51.8914 667.00
52.1956 742.00
52.4999 1813.00
52.8041 1173.00
53.1084 686.00
53.4127 654.00
53.7169 690.00
54.0212 636.00
54.3254 749.00
54.6297 1391.00
54.934 697.00
55.2382 740.00
55.5425 943.00
55.8467 798.00
56.151 701.00
56.4553 743.00
56.7595 812.00
57.0638 826.00
57.368 761.00
57.6723 685.00
57.9766 675.00
58.2808 664.00
58.5851 685.00
58.8893 692.00
59.1936 723.00
59.4979 735.00
59.8021 656.00
60.1064 701.00
60.4106 690.00
60.7149 765.00
61.0192 1743.00
61.3234 1017.00
61.6277 740.00
61.932 738.00
62.2362 678.00
62.5405 820.00
62.8447 1952.00
63.149 872.00
63.4533 699.00
63.7575 706.00
64.0618 675.00
64.366 787.00
64.6703 718.00
64.9745 723.00
65.2788 725.00
65.5831 715.00
65.8873 686.00
66.1916 670.00
66.4959 672.00
66.8001 706.00
67.1044 724.00
67.4086 860.00
67.7129 745.00
68.0172 740.00
68.3214 749.00
68.6257 739.00
68.9299 738.00
69.2342 1357.00
69.5385 887.00
69.8427 908.00
70.147 827.00
70.4512 702.00
70.7555 746.00
71.0598 702.00
71.364 730.00
71.6683 762.00
71.9725 747.00
72.2768 738.00
72.5811 676.00
72.8853 747.00
73.1896 711.00
73.4938 735.00
73.7981 820.00
74.1024 890.00
74.4066 736.00
74.7109 736.00
75.0151 753.00
75.3194 732.00
75.6237 813.00
75.9279 811.00
76.2322 704.00
76.5364 788.00
76.8407 831.00
77.145 776.00
77.4492 698.00
77.7535 752.00
78.0577 795.00
78.362 853.00
78.6663 856.00
78.9705 708.00
79.2748 700.00
79.579 739.00
79.8833 945.00
80.1876 855.00
80.4918 754.00
80.7961 763.00
81.1003 723.00
81.4046 775.00
81.7089 730.00
82.0131 743.00
82.3174 768.00
82.6217 864.00
82.9259 1132.00
83.2302 828.00
83.5344 746.00
83.8387 771.00
84.143 751.00
84.4472 839.00
84.7515 832.00
85.0557 800.00
85.36 778.00
85.6643 827.00
85.9685 892.00
86.2728 931.00
86.577 847.00
86.8813 752.00
87.1856 771.00
87.4898 797.00
87.7941 752.00
88.0983 777.00
88.4026 840.00
88.7069 779.00
89.0111 804.00
89.3154 809.00
89.6196 826.00
89.9239 854.00
90.2282 1084.00
90.5324 983.00
90.8367 856.00
91.1409 849.00
91.4452 780.00
91.7495 783.00
92.0537 813.00
92.358 794.00
92.6622 855.00
92.9665 817.00
93.2708 850.00
93.575 861.00
93.8793 876.00
94.1835 793.00
94.4878 806.00
94.7921 831.00
95.0963 856.00
95.4006 887.00
95.7048 870.00
96.0091 811.00
96.3134 904.00
96.6176 871.00
96.9219 835.00
97.2261 800.00
97.5304 887.00
97.8347 833.00
98.1389 815.00
98.4432 850.00
98.7474 889.00
99.0517 963.00
99.356 861.00
99.6602 867.00
99.9645 866.00
100.095 894.00