File: data/xrd_creation/results/PG_2248-1.xy
9.903433 2471.00
10.2077 2366.00
10.512 2346.00
10.8162 2208.00
11.1205 2131.00
11.4247 2097.00
11.729 1979.00
12.0333 1988.00
12.3375 1865.00
12.6418 1829.00
12.946 1764.00
13.2503 1694.00
13.5546 1799.00
13.8588 2131.00
14.1631 3798.00
14.4673 1731.00
14.7716 1596.00
15.0759 1604.00
15.3801 1560.00
15.6844 1651.00
15.9886 1485.00
16.2929 1427.00
16.5972 1445.00
16.9014 1414.00
17.2057 1318.00
17.5099 1306.00
17.8142 1292.00
18.1185 1270.00
18.4227 1242.00
18.727 1375.00
19.0312 1384.00
19.3355 1151.00
19.6398 1212.00
19.944 1214.00
20.2483 1116.00
20.5525 1167.00
20.8568 1086.00
21.1611 1089.00
21.4653 1219.00
21.7696 1141.00
22.0738 1056.00
22.3781 998.00
22.6824 1056.00
22.9866 1043.00
23.2909 1197.00
23.5951 1938.00
23.8994 1025.00
24.2037 969.00
24.5079 1031.00
24.8122 943.00
25.1164 961.00
25.4207 881.00
25.725 909.00
26.0292 1008.00
26.3335 1129.00
26.6378 979.00
26.942 1039.00
27.2463 848.00
27.5505 848.00
27.8548 1433.00
28.1591 1200.00
28.4633 1855.00
28.7676 4293.00
29.0718 955.00
29.3761 945.00
29.6804 1115.00
29.9846 798.00
30.2889 1018.00
30.5931 957.00
30.8974 2018.00
31.2017 1979.00
31.5059 849.00
31.8102 790.00
32.1144 1196.00
32.4187 707.00
32.723 753.00
33.0272 686.00
33.3315 686.00
33.6357 692.00
33.94 665.00
34.2443 728.00
34.5485 965.00
34.8528 752.00
35.157 670.00
35.4613 621.00
35.7656 675.00
36.0698 599.00
36.3741 769.00
36.6783 637.00
36.9826 684.00
37.2869 743.00
37.5911 608.00
37.8954 662.00
38.1996 578.00
38.5039 570.00
38.8082 550.00
39.1124 563.00
39.4167 645.00
39.7209 819.00
40.0252 643.00
40.3295 614.00
40.6337 660.00
40.938 776.00
41.2422 2022.00
41.5465 674.00
41.8508 623.00
42.155 608.00
42.4593 1513.00
42.7635 661.00
43.0678 643.00
43.3721 576.00
43.6763 555.00
43.9806 556.00
44.2849 506.00
44.5891 643.00
44.8934 805.00
45.1976 527.00
45.5019 533.00
45.8062 502.00
46.1104 566.00
46.4147 732.00
46.7189 530.00
47.0232 486.00
47.3275 539.00
47.6317 499.00
47.936 505.00
48.2402 499.00
48.5445 510.00
48.8488 628.00
49.153 850.00
49.4573 581.00
49.7615 604.00
50.0658 470.00
50.3701 526.00
50.6743 511.00
50.9786 1995.00
51.2828 568.00
51.5871 542.00
51.8914 506.00
52.1956 632.00
52.4999 540.00
52.8041 472.00
53.1084 803.00
53.4127 508.00
53.7169 527.00
54.0212 500.00
54.3254 530.00
54.6297 526.00
54.934 473.00
55.2382 490.00
55.5425 640.00
55.8467 617.00
56.151 536.00
56.4553 529.00
56.7595 703.00
57.0638 806.00
57.368 672.00
57.6723 458.00
57.9766 482.00
58.2808 447.00
58.5851 522.00
58.8893 574.00
59.1936 606.00
59.4979 484.00
59.8021 479.00
60.1064 542.00
60.4106 775.00
60.7149 1303.00
61.0192 659.00
61.3234 559.00
61.6277 632.00
61.932 658.00
62.2362 756.00
62.5405 635.00
62.8447 607.00
63.149 476.00
63.4533 597.00
63.7575 494.00
64.0618 480.00
64.366 588.00
64.6703 532.00
64.9745 478.00
65.2788 519.00
65.5831 588.00
65.8873 478.00
66.1916 588.00
66.4959 497.00
66.8001 484.00
67.1044 533.00
67.4086 1152.00
67.7129 582.00
68.0172 594.00
68.3214 902.00
68.6257 623.00
68.9299 637.00
69.2342 513.00
69.5385 513.00
69.8427 512.00
70.147 525.00
70.4512 476.00
70.7555 407.00
71.0598 523.00
71.364 463.00
71.6683 466.00
71.9725 438.00
72.2768 490.00
72.5811 462.00
72.8853 416.00
73.1896 456.00
73.4938 504.00
73.7981 457.00
74.1024 429.00
74.4066 530.00
74.7109 509.00
75.0151 500.00
75.3194 461.00
75.6237 409.00
75.9279 459.00
76.2322 469.00
76.5364 505.00
76.8407 573.00
77.145 505.00
77.4492 491.00
77.7535 481.00
78.0577 501.00
78.362 542.00
78.6663 490.00
78.9705 385.00
79.2748 453.00
79.579 408.00
79.8833 442.00
80.1876 470.00
80.4918 451.00
80.7961 486.00
81.1003 431.00
81.4046 426.00
81.7089 457.00
82.0131 482.00
82.3174 447.00
82.6217 454.00
82.9259 418.00
83.2302 441.00
83.5344 440.00
83.8387 491.00
84.143 522.00
84.4472 498.00
84.7515 458.00
85.0557 478.00
85.36 442.00
85.6643 453.00
85.9685 455.00
86.2728 567.00
86.577 534.00
86.8813 466.00
87.1856 557.00
87.4898 496.00
87.7941 455.00
88.0983 506.00
88.4026 524.00
88.7069 461.00
89.0111 457.00
89.3154 410.00
89.6196 412.00
89.9239 441.00
90.2282 424.00
90.5324 428.00
90.8367 453.00
91.1409 470.00
91.4452 445.00
91.7495 436.00
92.0537 421.00
92.358 465.00
92.6622 484.00
92.9665 426.00
93.2708 434.00
93.575 480.00
93.8793 452.00
94.1835 449.00
94.4878 393.00
94.7921 503.00
95.0963 479.00
95.4006 445.00
95.7048 433.00
96.0091 512.00
96.3134 501.00
96.6176 452.00
96.9219 540.00
97.2261 539.00
97.5304 507.00
97.8347 491.00
98.1389 396.00
98.4432 501.00
98.7474 457.00
99.0517 452.00
99.356 452.00
99.6602 429.00
99.9645 478.00
100.095 435.00