File: data/xrd_creation/results/PG_2652-1.xy
9.903433 2721.00
10.2077 2653.00
10.512 2536.00
10.8162 2511.00
11.1205 2363.00
11.4247 2301.00
11.729 2188.00
12.0333 2175.00
12.3375 2180.00
12.6418 2103.00
12.946 2154.00
13.2503 2021.00
13.5546 1902.00
13.8588 1914.00
14.1631 1945.00
14.4673 1842.00
14.7716 1864.00
15.0759 1847.00
15.3801 1882.00
15.6844 1757.00
15.9886 1848.00
16.2929 1742.00
16.5972 1784.00
16.9014 1711.00
17.2057 1781.00
17.5099 1782.00
17.8142 1717.00
18.1185 1739.00
18.4227 1705.00
18.727 1631.00
19.0312 1556.00
19.3355 1653.00
19.6398 1517.00
19.944 1608.00
20.2483 1490.00
20.5525 1498.00
20.8568 1428.00
21.1611 1538.00
21.4653 1455.00
21.7696 1433.00
22.0738 1442.00
22.3781 1455.00
22.6824 1447.00
22.9866 1486.00
23.2909 1389.00
23.5951 1466.00
23.8994 1594.00
24.2037 1770.00
24.5079 1746.00
24.8122 1488.00
25.1164 1374.00
25.4207 1380.00
25.725 1370.00
26.0292 1280.00
26.3335 1365.00
26.6378 1311.00
26.942 1327.00
27.2463 1313.00
27.5505 1308.00
27.8548 1431.00
28.1591 4749.00
28.4633 1897.00
28.7676 1522.00
29.0718 1411.00
29.3761 1293.00
29.6804 1250.00
29.9846 1200.00
30.2889 1168.00
30.5931 1244.00
30.8974 1350.00
31.2017 1688.00
31.5059 3995.00
31.8102 1379.00
32.1144 1275.00
32.4187 1816.00
32.723 1309.00
33.0272 1207.00
33.3315 1160.00
33.6357 1206.00
33.94 1371.00
34.2443 1850.00
34.5485 1589.00
34.8528 1224.00
35.157 1359.00
35.4613 1512.00
35.7656 1297.00
36.0698 2211.00
36.3741 1334.00
36.6783 1217.00
36.9826 1105.00
37.2869 1115.00
37.5911 1165.00
37.8954 1340.00
38.1996 1153.00
38.5039 1264.00
38.8082 1180.00
39.1124 1157.00
39.4167 1202.00
39.7209 1080.00
40.0252 1170.00
40.3295 1165.00
40.6337 1505.00
40.938 1407.00
41.2422 1363.00
41.5465 1306.00
41.8508 1116.00
42.155 1121.00
42.4593 1058.00
42.7635 1122.00
43.0678 1116.00
43.3721 1101.00
43.6763 1112.00
43.9806 1111.00
44.2849 1131.00
44.5891 1338.00
44.8934 1411.00
45.1976 1128.00
45.5019 1456.00
45.8062 1157.00
46.1104 1078.00
46.4147 1061.00
46.7189 1058.00
47.0232 1117.00
47.3275 1062.00
47.6317 1107.00
47.936 1079.00
48.2402 1179.00
48.5445 1150.00
48.8488 1191.00
49.153 1569.00
49.4573 1696.00
49.7615 1284.00
50.0658 2053.00
50.3701 1783.00
50.6743 1973.00
50.9786 1228.00
51.2828 1431.00
51.5871 1138.00
51.8914 1115.00
52.1956 1137.00
52.4999 1059.00
52.8041 1118.00
53.1084 1128.00
53.4127 1144.00
53.7169 1233.00
54.0212 1828.00
54.3254 1310.00
54.6297 1219.00
54.934 1156.00
55.2382 1685.00
55.5425 1698.00
55.8467 1501.00
56.151 1484.00
56.4553 1193.00
56.7595 1162.00
57.0638 1326.00
57.368 1407.00
57.6723 1159.00
57.9766 1395.00
58.2808 1422.00
58.5851 1595.00
58.8893 1204.00
59.1936 1145.00
59.4979 1187.00
59.8021 2187.00
60.1064 1968.00
60.4106 1254.00
60.7149 1217.00
61.0192 1170.00
61.3234 1409.00
61.6277 1319.00
61.932 1495.00
62.2362 1303.00
62.5405 1172.00
62.8447 1659.00
63.149 1230.00
63.4533 1110.00
63.7575 1125.00
64.0618 1193.00
64.366 1340.00
64.6703 1407.00
64.9745 1149.00
65.2788 1237.00
65.5831 1544.00
65.8873 1464.00
66.1916 1145.00
66.4959 1159.00
66.8001 1122.00
67.1044 1164.00
67.4086 1142.00
67.7129 1144.00
68.0172 1151.00
68.3214 1136.00
68.6257 1147.00
68.9299 1256.00
69.2342 1198.00
69.5385 1170.00
69.8427 1170.00
70.147 1166.00
70.4512 1102.00
70.7555 1225.00
71.0598 1388.00
71.364 1442.00
71.6683 1215.00
71.9725 1205.00
72.2768 1261.00
72.5811 1257.00
72.8853 1146.00
73.1896 1152.00
73.4938 1178.00
73.7981 1196.00
74.1024 1260.00
74.4066 1238.00
74.7109 1329.00
75.0151 1256.00
75.3194 1361.00
75.6237 1183.00
75.9279 1192.00
76.2322 1185.00
76.5364 1349.00
76.8407 1266.00
77.145 1165.00
77.4492 1341.00
77.7535 1312.00
78.0577 1241.00
78.362 1243.00
78.6663 1166.00
78.9705 1294.00
79.2748 1227.00
79.579 1210.00
79.8833 1168.00
80.1876 1244.00
80.4918 1299.00
80.7961 1122.00
81.1003 1308.00
81.4046 1254.00
81.7089 1280.00
82.0131 1165.00
82.3174 1205.00
82.6217 1314.00
82.9259 1331.00
83.2302 1327.00
83.5344 1252.00
83.8387 1355.00
84.143 1340.00
84.4472 1301.00
84.7515 1256.00
85.0557 1270.00
85.36 1268.00
85.6643 1181.00
85.9685 1292.00
86.2728 1308.00
86.577 1282.00
86.8813 1173.00
87.1856 1205.00
87.4898 1273.00
87.7941 1259.00
88.0983 1341.00
88.4026 1415.00
88.7069 1312.00
89.0111 1383.00
89.3154 1211.00
89.6196 1299.00
89.9239 1351.00
90.2282 1291.00
90.5324 1271.00
90.8367 1256.00
91.1409 1278.00
91.4452 1217.00
91.7495 1234.00
92.0537 1194.00
92.358 1317.00
92.6622 1206.00
92.9665 1287.00
93.2708 1248.00
93.575 1241.00
93.8793 1257.00
94.1835 1300.00
94.4878 1291.00
94.7921 1354.00
95.0963 1372.00
95.4006 1307.00
95.7048 1282.00
96.0091 1365.00
96.3134 1462.00
96.6176 1570.00
96.9219 1584.00
97.2261 1286.00
97.5304 1321.00
97.8347 1307.00
98.1389 1330.00
98.4432 1394.00
98.7474 1478.00
99.0517 1443.00
99.356 1406.00
99.6602 1372.00
99.9645 1327.00
100.095 1309.00