File: data/xrd_creation/results/PG_2639-1.xy
10.0094 3210.00
10.3137 3053.00
10.618 3161.00
10.9222 3046.00
11.2265 3014.00
11.5307 2915.00
11.835 2845.00
12.1393 2822.00
12.4435 2883.00
12.7478 2911.00
13.052 2779.00
13.3563 2864.00
13.6606 2768.00
13.9648 2790.00
14.2691 2793.00
14.5733 2783.00
14.8776 2731.00
15.1819 2791.00
15.4861 2776.00
15.7904 2780.00
16.0946 2866.00
16.3989 2821.00
16.7032 2762.00
17.0074 2825.00
17.3117 2922.00
17.6159 2896.00
17.9202 2889.00
18.2245 2967.00
18.5287 3670.00
18.833 2972.00
19.1372 2848.00
19.4415 2872.00
19.7458 2893.00
20.05 2845.00
20.3543 2760.00
20.6585 2886.00
20.9628 2905.00
21.2671 2806.00
21.5713 2974.00
21.8756 2825.00
22.1798 2851.00
22.4841 2786.00
22.7884 2916.00
23.0926 2902.00
23.3969 3141.00
23.7011 2915.00
24.0054 2962.00
24.3097 2885.00
24.6139 3009.00
24.9182 2894.00
25.2224 2908.00
25.5267 2976.00
25.831 2963.00
26.1352 2801.00
26.4395 2966.00
26.7438 2955.00
27.048 2841.00
27.3523 2950.00
27.6565 3023.00
27.9608 2995.00
28.2651 2913.00
28.5693 2931.00
28.8736 3022.00
29.1778 2951.00
29.4821 2978.00
29.7864 2992.00
30.0906 3253.00
30.3949 4983.00
30.6991 3085.00
31.0034 2990.00
31.3077 3101.00
31.6119 2987.00
31.9162 2996.00
32.2204 3080.00
32.5247 3079.00
32.829 2942.00
33.1332 3270.00
33.4375 3350.00
33.7417 2951.00
34.046 3132.00
34.3503 2955.00
34.6545 3059.00
34.9588 3008.00
35.263 3216.00
35.5673 6759.00
35.8716 8633.00
36.1758 3229.00
36.4801 3136.00
36.7843 3153.00
37.0886 3121.00
37.3929 5044.00
37.6971 4111.00
38.0014 3112.00
38.3056 3186.00
38.6099 3316.00
38.9142 3057.00
39.2184 2912.00
39.5227 3017.00
39.8269 3172.00
40.1312 3038.00
40.4355 3130.00
40.7397 3117.00
41.044 2954.00
41.3482 2963.00
41.6525 3046.00
41.9568 3169.00
42.261 3132.00
42.5653 3100.00
42.8695 3238.00
43.1738 3983.00
43.4781 9241.00
43.7823 3775.00
44.0866 3184.00
44.3909 3142.00
44.6951 3228.00
44.9994 3098.00
45.3036 3121.00
45.6079 3145.00
45.9122 3019.00
46.2164 3225.00
46.5207 3174.00
46.8249 3067.00
47.1292 3064.00
47.4335 3142.00
47.7377 3137.00
48.042 3036.00
48.3462 3119.00
48.6505 3108.00
48.9548 3161.00
49.259 3222.00
49.5633 3187.00
49.8675 3206.00
50.1718 3145.00
50.4761 3144.00
50.7803 3165.00
51.0846 3157.00
51.3888 3095.00
51.6931 3155.00
51.9974 3166.00
52.3016 3216.00
52.6059 3087.00
52.9101 3180.00
53.2144 3230.00
53.5187 3417.00
53.8229 3596.00
54.1272 3258.00
54.4314 3179.00
54.7357 3093.00
55.04 3215.00
55.3442 3302.00
55.6485 3326.00
55.9527 3151.00
56.257 3141.00
56.5613 3246.00
56.8655 3628.00
57.1698 4520.00
57.474 4769.00
57.7783 3384.00
58.0826 3287.00
58.3868 3309.00
58.6911 3167.00
58.9953 3186.00
59.2996 3277.00
59.6039 3290.00
59.9081 3162.00
60.2124 3365.00
60.5166 3237.00
60.8209 3305.00
61.1252 3224.00
61.4294 3361.00
61.7337 3331.00
62.0379 3260.00
62.3422 3620.00
62.6465 4656.00
62.9507 5852.00
63.255 6102.00
63.5592 3520.00
63.8635 3357.00
64.1678 3297.00
64.472 3446.00
64.7763 3238.00
65.0806 3197.00
65.3848 3244.00
65.6891 3224.00
65.9933 3455.00
66.2976 3470.00
66.6019 3212.00
66.9061 3364.00
67.2104 3164.00
67.5146 3203.00
67.8189 3418.00
68.1232 3247.00
68.4274 3258.00
68.7317 3183.00
69.0359 3328.00
69.3402 3314.00
69.6445 3311.00
69.9487 3316.00
70.253 3433.00
70.5572 3261.00
70.8615 3361.00
71.1658 3441.00
71.47 3320.00
71.7743 3381.00
72.0785 3370.00
72.3828 3113.00
72.6871 3349.00
72.9913 3324.00
73.2956 3235.00
73.5998 3339.00
73.9041 3412.00
74.2084 3575.00
74.5126 3703.00
74.8169 3505.00
75.1211 3500.00
75.4254 3699.00
75.7297 4138.00
76.0339 3445.00
76.3382 3296.00
76.6424 3268.00
76.9467 3290.00
77.251 3245.00
77.5552 3362.00
77.8595 3271.00
78.1637 3278.00
78.468 3337.00
78.7723 3352.00
79.0765 3502.00
79.3808 3525.00
79.685 3912.00
79.9893 3586.00
80.2936 3402.00
80.5978 3325.00
80.9021 3407.00
81.2063 3330.00
81.5106 3367.00
81.8149 3381.00
82.1191 3334.00
82.4234 3398.00
82.7277 3391.00
83.0319 3344.00
83.3362 3446.00
83.6404 3416.00
83.9447 3420.00
84.249 3317.00
84.5532 3354.00
84.8575 3323.00
85.1617 3299.00
85.466 3363.00
85.7703 3328.00
86.0745 3439.00
86.3788 3352.00
86.683 3570.00
86.9873 3536.00
87.2916 3435.00
87.5958 3454.00
87.9001 3407.00
88.2043 3399.00
88.5086 3405.00
88.8129 3381.00
89.1171 3430.00
89.4214 3501.00
89.7256 3650.00
90.0299 3780.00
90.3342 3759.00
90.6384 3522.00
90.9427 3329.00
91.2469 3456.00
91.5512 3476.00
91.8555 3474.00
92.1597 3385.00
92.464 3426.00
92.7682 3419.00
93.0725 3324.00
93.3768 3504.00
93.681 3347.00
93.9853 3388.00
94.2895 3494.00
94.5938 3522.00
94.8981 3552.00
95.2023 3934.00
95.5066 3757.00
95.8108 3497.00
96.1151 3419.00
96.4194 3295.00
96.7236 3550.00
97.0279 3374.00
97.3321 3411.00
97.6364 3461.00
97.9407 3391.00
98.2449 3376.00
98.5492 3376.00
98.8534 3489.00
99.1577 3511.00
99.462 3460.00
99.7662 3363.00
99.9944 3342.00