File: data/xrd_creation/results/PG_2545-1.xy
9.903433 2827.00
10.2077 2836.00
10.512 2769.00
10.8162 2625.00
11.1205 2461.00
11.4247 2407.00
11.729 2360.00
12.0333 2287.00
12.3375 2283.00
12.6418 2207.00
12.946 2191.00
13.2503 2180.00
13.5546 2147.00
13.8588 2139.00
14.1631 2128.00
14.4673 2065.00
14.7716 1996.00
15.0759 2056.00
15.3801 1903.00
15.6844 1965.00
15.9886 1926.00
16.2929 1911.00
16.5972 1936.00
16.9014 1865.00
17.2057 1880.00
17.5099 1830.00
17.8142 1745.00
18.1185 1766.00
18.4227 1883.00
18.727 1777.00
19.0312 1709.00
19.3355 1779.00
19.6398 1766.00
19.944 1760.00
20.2483 1895.00
20.5525 1946.00
20.8568 1783.00
21.1611 1774.00
21.4653 1660.00
21.7696 1726.00
22.0738 1669.00
22.3781 1692.00
22.6824 1657.00
22.9866 1670.00
23.2909 1608.00
23.5951 1572.00
23.8994 1567.00
24.2037 1606.00
24.5079 1675.00
24.8122 1940.00
25.1164 8485.00
25.4207 8416.00
25.725 4648.00
26.0292 5768.00
26.3335 1773.00
26.6378 1529.00
26.942 1557.00
27.2463 1529.00
27.5505 1475.00
27.8548 1462.00
28.1591 1500.00
28.4633 1467.00
28.7676 1451.00
29.0718 1496.00
29.3761 1485.00
29.6804 2742.00
29.9846 1586.00
30.2889 1366.00
30.5931 1434.00
30.8974 1385.00
31.2017 1572.00
31.5059 2638.00
31.8102 1791.00
32.1144 1356.00
32.4187 1313.00
32.723 1318.00
33.0272 1268.00
33.3315 1314.00
33.6357 1317.00
33.94 1273.00
34.2443 1290.00
34.5485 1962.00
34.8528 1548.00
35.157 3148.00
35.4613 2015.00
35.7656 1383.00
36.0698 2224.00
36.3741 4576.00
36.6783 6012.00
36.9826 2075.00
37.2869 1348.00
37.5911 1295.00
37.8954 1162.00
38.1996 1243.00
38.5039 1222.00
38.8082 1202.00
39.1124 1195.00
39.4167 1236.00
39.7209 1420.00
40.0252 1364.00
40.3295 1214.00
40.6337 1136.00
40.938 1210.00
41.2422 1799.00
41.5465 2178.00
41.8508 1198.00
42.155 1153.00
42.4593 1114.00
42.7635 1827.00
43.0678 4704.00
43.3721 1453.00
43.6763 1307.00
43.9806 2855.00
44.2849 5859.00
44.5891 1335.00
44.8934 1194.00
45.1976 1232.00
45.5019 1612.00
45.8062 3483.00
46.1104 1277.00
46.4147 1469.00
46.7189 3224.00
47.0232 1271.00
47.3275 1209.00
47.6317 2795.00
47.936 3674.00
48.2402 1197.00
48.5445 1142.00
48.8488 1093.00
49.153 1196.00
49.4573 1225.00
49.7615 1511.00
50.0658 4166.00
50.3701 2605.00
50.6743 1630.00
50.9786 1134.00
51.2828 1141.00
51.5871 1230.00
51.8914 1341.00
52.1956 1030.00
52.4999 1091.00
52.8041 1067.00
53.1084 1363.00
53.4127 1063.00
53.7169 1087.00
54.0212 1023.00
54.3254 1047.00
54.6297 988.00
54.934 1090.00
55.2382 1200.00
55.5425 1020.00
55.8467 971.00
56.151 1115.00
56.4553 1017.00
56.7595 1282.00
57.0638 1126.00
57.368 2192.00
57.6723 1321.00
57.9766 1007.00
58.2808 965.00
58.5851 1084.00
58.8893 1967.00
59.1936 1410.00
59.4979 1082.00
59.8021 1723.00
60.1064 1470.00
60.4106 1009.00
60.7149 1090.00
61.0192 1001.00
61.3234 967.00
61.6277 1185.00
61.932 1002.00
62.2362 1891.00
62.5405 2232.00
62.8447 1466.00
63.149 1099.00
63.4533 976.00
63.7575 1322.00
64.0618 1685.00
64.366 1032.00
64.6703 951.00
64.9745 1018.00
65.2788 1327.00
65.5831 1529.00
65.8873 1230.00
66.1916 1281.00
66.4959 1105.00
66.8001 1188.00
67.1044 998.00
67.4086 887.00
67.7129 924.00
68.0172 906.00
68.3214 876.00
68.6257 943.00
68.9299 880.00
69.2342 901.00
69.5385 886.00
69.8427 907.00
70.147 921.00
70.4512 910.00
70.7555 907.00
71.0598 909.00
71.364 935.00
71.6683 979.00
71.9725 1619.00
72.2768 1473.00
72.5811 977.00
72.8853 1379.00
73.1896 1110.00
73.4938 1140.00
73.7981 2515.00
74.1024 1545.00
74.4066 1368.00
74.7109 1575.00
75.0151 1187.00
75.3194 1631.00
75.6237 1128.00
75.9279 1162.00
76.2322 1475.00
76.5364 930.00
76.8407 1082.00
77.145 1001.00
77.4492 995.00
77.7535 1533.00
78.0577 1119.00
78.362 937.00
78.6663 1270.00
78.9705 1149.00
79.2748 896.00
79.579 937.00
79.8833 913.00
80.1876 1306.00
80.4918 1082.00
80.7961 893.00
81.1003 902.00
81.4046 845.00
81.7089 1039.00
82.0131 1410.00
82.3174 1210.00
82.6217 925.00
82.9259 1052.00
83.2302 1236.00
83.5344 1009.00
83.8387 912.00
84.143 1051.00
84.4472 1128.00
84.7515 954.00
85.0557 897.00
85.36 1124.00
85.6643 975.00
85.9685 952.00
86.2728 892.00
86.577 874.00
86.8813 853.00
87.1856 963.00
87.4898 932.00
87.7941 1022.00
88.0983 839.00
88.4026 999.00
88.7069 927.00
89.0111 846.00
89.3154 931.00
89.6196 939.00
89.9239 1020.00
90.2282 872.00
90.5324 872.00
90.8367 856.00
91.1409 857.00
91.4452 902.00
91.7495 1219.00
92.0537 1062.00
92.358 870.00
92.6622 837.00
92.9665 809.00
93.2708 814.00
93.575 873.00
93.8793 1139.00
94.1835 1195.00
94.4878 965.00
94.7921 1386.00
95.0963 1472.00
95.4006 1064.00
95.7048 876.00
96.0091 936.00
96.3134 917.00
96.6176 926.00
96.9219 957.00
97.2261 1138.00
97.5304 1060.00
97.8347 907.00
98.1389 850.00
98.4432 924.00
98.7474 834.00
99.0517 878.00
99.356 1122.00
99.6602 1117.00
99.9645 884.00
100.095 987.00