File: data/xrd_creation/results/PG_2649-1.xy
9.903433 2592.00
10.2077 2488.00
10.512 2403.00
10.8162 2331.00
11.1205 2141.00
11.4247 2120.00
11.729 2135.00
12.0333 1949.00
12.3375 1950.00
12.6418 1860.00
12.946 1788.00
13.2503 1736.00
13.5546 1640.00
13.8588 1699.00
14.1631 1696.00
14.4673 1630.00
14.7716 1597.00
15.0759 1588.00
15.3801 1726.00
15.6844 3301.00
15.9886 1595.00
16.2929 1412.00
16.5972 1412.00
16.9014 1471.00
17.2057 1414.00
17.5099 1361.00
17.8142 1327.00
18.1185 1517.00
18.4227 2333.00
18.727 7053.00
19.0312 1442.00
19.3355 1241.00
19.6398 1222.00
19.944 1229.00
20.2483 1241.00
20.5525 1202.00
20.8568 1181.00
21.1611 1221.00
21.4653 1228.00
21.7696 1203.00
22.0738 1151.00
22.3781 1085.00
22.6824 1036.00
22.9866 1220.00
23.2909 1349.00
23.5951 1860.00
23.8994 10795.00
24.2037 2869.00
24.5079 1706.00
24.8122 1080.00
25.1164 1005.00
25.4207 1098.00
25.725 1071.00
26.0292 1025.00
26.3335 963.00
26.6378 1013.00
26.942 996.00
27.2463 930.00
27.5505 908.00
27.8548 937.00
28.1591 937.00
28.4633 931.00
28.7676 974.00
29.0718 999.00
29.3761 1095.00
29.6804 1328.00
29.9846 6017.00
30.2889 2490.00
30.5931 19382.00
30.8974 1299.00
31.2017 1653.00
31.5059 1455.00
31.8102 925.00
32.1144 942.00
32.4187 889.00
32.723 941.00
33.0272 865.00
33.3315 893.00
33.6357 978.00
33.94 950.00
34.2443 892.00
34.5485 1012.00
34.8528 873.00
35.157 862.00
35.4613 854.00
35.7656 973.00
36.0698 1830.00
36.3741 5694.00
36.6783 1846.00
36.9826 919.00
37.2869 1034.00
37.5911 2753.00
37.8954 823.00
38.1996 809.00
38.5039 791.00
38.8082 779.00
39.1124 763.00
39.4167 816.00
39.7209 898.00
40.0252 796.00
40.3295 963.00
40.6337 2827.00
40.938 1351.00
41.2422 3792.00
41.5465 839.00
41.8508 807.00
42.155 831.00
42.4593 752.00
42.7635 746.00
43.0678 724.00
43.3721 827.00
43.6763 1881.00
43.9806 809.00
44.2849 1789.00
44.5891 1449.00
44.8934 792.00
45.1976 1940.00
45.5019 727.00
45.8062 763.00
46.1104 723.00
46.4147 730.00
46.7189 704.00
47.0232 763.00
47.3275 759.00
47.6317 1464.00
47.936 779.00
48.2402 896.00
48.5445 2729.00
48.8488 796.00
49.153 818.00
49.4573 2484.00
49.7615 932.00
50.0658 822.00
50.3701 836.00
50.6743 799.00
50.9786 867.00
51.2828 1215.00
51.5871 3378.00
51.8914 1032.00
52.1956 1319.00
52.4999 2726.00
52.8041 2571.00
53.1084 1182.00
53.4127 3145.00
53.7169 2246.00
54.0212 750.00
54.3254 750.00
54.6297 919.00
54.934 1380.00
55.2382 852.00
55.5425 796.00
55.8467 737.00
56.151 923.00
56.4553 743.00
56.7595 751.00
57.0638 711.00
57.368 832.00
57.6723 861.00
57.9766 1133.00
58.2808 710.00
58.5851 698.00
58.8893 639.00
59.1936 698.00
59.4979 704.00
59.8021 908.00
60.1064 730.00
60.4106 775.00
60.7149 1456.00
61.0192 2312.00
61.3234 1091.00
61.6277 2667.00
61.932 1727.00
62.2362 1473.00
62.5405 2485.00
62.8447 1091.00
63.149 1402.00
63.4533 2154.00
63.7575 897.00
64.0618 2041.00
64.366 1235.00
64.6703 2803.00
64.9745 2119.00
65.2788 832.00
65.5831 725.00
65.8873 698.00
66.1916 719.00
66.4959 733.00
66.8001 874.00
67.1044 714.00
67.4086 699.00
67.7129 1200.00
68.0172 1882.00
68.3214 911.00
68.6257 903.00
68.9299 869.00
69.2342 1068.00
69.5385 957.00
69.8427 740.00
70.147 1069.00
70.4512 1136.00
70.7555 831.00
71.0598 1336.00
71.364 1047.00
71.6683 950.00
71.9725 711.00
72.2768 702.00
72.5811 964.00
72.8853 729.00
73.1896 1002.00
73.4938 898.00
73.7981 683.00
74.1024 757.00
74.4066 891.00
74.7109 680.00
75.0151 655.00
75.3194 695.00
75.6237 673.00
75.9279 709.00
76.2322 753.00
76.5364 1269.00
76.8407 814.00
77.145 759.00
77.4492 1249.00
77.7535 1212.00
78.0577 913.00
78.362 777.00
78.6663 782.00
78.9705 859.00
79.2748 927.00
79.579 1263.00
79.8833 1901.00
80.1876 1214.00
80.4918 1113.00
80.7961 777.00
81.1003 739.00
81.4046 659.00
81.7089 747.00
82.0131 821.00
82.3174 698.00
82.6217 646.00
82.9259 692.00
83.2302 704.00
83.5344 690.00
83.8387 935.00
84.143 870.00
84.4472 847.00
84.7515 1461.00
85.0557 921.00
85.36 715.00
85.6643 649.00
85.9685 661.00
86.2728 734.00
86.577 767.00
86.8813 1341.00
87.1856 1687.00
87.4898 1159.00
87.7941 1642.00
88.0983 1297.00
88.4026 764.00
88.7069 742.00
89.0111 946.00
89.3154 1339.00
89.6196 1171.00
89.9239 1224.00
90.2282 1447.00
90.5324 1023.00
90.8367 939.00
91.1409 881.00
91.4452 1047.00
91.7495 821.00
92.0537 715.00
92.358 687.00
92.6622 720.00
92.9665 856.00
93.2708 791.00
93.575 872.00
93.8793 845.00
94.1835 739.00
94.4878 778.00
94.7921 847.00
95.0963 1043.00
95.4006 1159.00
95.7048 885.00
96.0091 769.00
96.3134 699.00
96.6176 710.00
96.9219 750.00
97.2261 894.00
97.5304 1168.00
97.8347 1412.00
98.1389 1311.00
98.4432 1325.00
98.7474 1094.00
99.0517 757.00
99.356 728.00
99.6602 833.00
99.9645 794.00
100.095 741.00