File: data/xrd_creation/results/PG_2143-1.xy
9.903433 2689.00
10.2077 2686.00
10.512 2569.00
10.8162 2498.00
11.1205 2497.00
11.4247 2433.00
11.729 2221.00
12.0333 2294.00
12.3375 2157.00
12.6418 2133.00
12.946 2039.00
13.2503 1956.00
13.5546 1960.00
13.8588 1922.00
14.1631 1844.00
14.4673 1926.00
14.7716 1877.00
15.0759 1940.00
15.3801 2193.00
15.6844 4185.00
15.9886 11995.00
16.2929 2586.00
16.5972 1894.00
16.9014 1757.00
17.2057 1735.00
17.5099 1596.00
17.8142 1538.00
18.1185 1545.00
18.4227 1515.00
18.727 1535.00
19.0312 1425.00
19.3355 1405.00
19.6398 1412.00
19.944 1382.00
20.2483 1377.00
20.5525 1361.00
20.8568 1265.00
21.1611 1359.00
21.4653 1267.00
21.7696 1238.00
22.0738 1275.00
22.3781 1203.00
22.6824 1177.00
22.9866 1232.00
23.2909 1196.00
23.5951 1177.00
23.8994 1141.00
24.2037 1147.00
24.5079 1070.00
24.8122 1113.00
25.1164 1106.00
25.4207 1049.00
25.725 988.00
26.0292 1009.00
26.3335 1036.00
26.6378 1085.00
26.942 1202.00
27.2463 1871.00
27.5505 8190.00
27.8548 2878.00
28.1591 6774.00
28.4633 4860.00
28.7676 1428.00
29.0718 1035.00
29.3761 924.00
29.6804 914.00
29.9846 883.00
30.2889 886.00
30.5931 850.00
30.8974 869.00
31.2017 866.00
31.5059 903.00
31.8102 2032.00
32.1144 1380.00
32.4187 781.00
32.723 725.00
33.0272 760.00
33.3315 683.00
33.6357 642.00
33.94 674.00
34.2443 644.00
34.5485 623.00
34.8528 658.00
35.157 622.00
35.4613 614.00
35.7656 688.00
36.0698 733.00
36.3741 1239.00
36.6783 666.00
36.9826 558.00
37.2869 607.00
37.5911 588.00
37.8954 540.00
38.1996 571.00
38.5039 593.00
38.8082 660.00
39.1124 757.00
39.4167 1375.00
39.7209 6519.00
40.0252 2692.00
40.3295 865.00
40.6337 651.00
40.938 615.00
41.2422 612.00
41.5465 563.00
41.8508 610.00
42.155 672.00
42.4593 1521.00
42.7635 970.00
43.0678 576.00
43.3721 467.00
43.6763 541.00
43.9806 520.00
44.2849 505.00
44.5891 509.00
44.8934 507.00
45.1976 435.00
45.5019 525.00
45.8062 508.00
46.1104 461.00
46.4147 512.00
46.7189 526.00
47.0232 626.00
47.3275 1475.00
47.6317 1005.00
47.936 668.00
48.2402 1247.00
48.5445 3245.00
48.8488 4835.00
49.153 3152.00
49.4573 1017.00
49.7615 677.00
50.0658 886.00
50.3701 1057.00
50.6743 504.00
50.9786 467.00
51.2828 445.00
51.5871 472.00
51.8914 388.00
52.1956 401.00
52.4999 401.00
52.8041 394.00
53.1084 390.00
53.4127 413.00
53.7169 424.00
54.0212 428.00
54.3254 388.00
54.6297 432.00
54.934 473.00
55.2382 669.00
55.5425 1896.00
55.8467 1010.00
56.151 616.00
56.4553 912.00
56.7595 833.00
57.0638 472.00
57.368 400.00
57.6723 414.00
57.9766 599.00
58.2808 644.00
58.5851 465.00
58.8893 592.00
59.1936 671.00
59.4979 439.00
59.8021 351.00
60.1064 328.00
60.4106 356.00
60.7149 318.00
61.0192 367.00
61.3234 318.00
61.6277 345.00
61.932 322.00
62.2362 357.00
62.5405 337.00
62.8447 333.00
63.149 359.00
63.4533 402.00
63.7575 474.00
64.0618 894.00
64.366 1403.00
64.6703 729.00
64.9745 534.00
65.2788 768.00
65.5831 602.00
65.8873 476.00
66.1916 514.00
66.4959 447.00
66.8001 361.00
67.1044 348.00
67.4086 302.00
67.7129 286.00
68.0172 400.00
68.3214 364.00
68.6257 336.00
68.9299 307.00
69.2342 360.00
69.5385 519.00
69.8427 1011.00
70.147 1007.00
70.4512 556.00
70.7555 445.00
71.0598 568.00
71.364 556.00
71.6683 362.00
71.9725 352.00
72.2768 326.00
72.5811 377.00
72.8853 394.00
73.1896 425.00
73.4938 334.00
73.7981 372.00
74.1024 309.00
74.4066 298.00
74.7109 278.00
75.0151 333.00
75.3194 375.00
75.6237 403.00
75.9279 618.00
76.2322 788.00
76.5364 814.00
76.8407 792.00
77.145 719.00
77.4492 1135.00
77.7535 1464.00
78.0577 1034.00
78.362 591.00
78.6663 646.00
78.9705 520.00
79.2748 434.00
79.579 348.00
79.8833 366.00
80.1876 315.00
80.4918 328.00
80.7961 315.00
81.1003 312.00
81.4046 312.00
81.7089 323.00
82.0131 324.00
82.3174 474.00
82.6217 601.00
82.9259 471.00
83.2302 351.00
83.5344 318.00
83.8387 326.00
84.143 303.00
84.4472 297.00
84.7515 324.00
85.0557 360.00
85.36 392.00
85.6643 331.00
85.9685 327.00
86.2728 336.00
86.577 267.00
86.8813 295.00
87.1856 286.00
87.4898 275.00
87.7941 310.00
88.0983 298.00
88.4026 335.00
88.7069 563.00
89.0111 736.00
89.3154 602.00
89.6196 385.00
89.9239 416.00
90.2282 489.00
90.5324 598.00
90.8367 539.00
91.1409 418.00
91.4452 385.00
91.7495 377.00
92.0537 366.00
92.358 330.00
92.6622 313.00
92.9665 340.00
93.2708 275.00
93.575 322.00
93.8793 294.00
94.1835 314.00
94.4878 288.00
94.7921 297.00
95.0963 331.00
95.4006 431.00
95.7048 695.00
96.0091 694.00
96.3134 625.00
96.6176 552.00
96.9219 619.00
97.2261 556.00
97.5304 444.00
97.8347 326.00
98.1389 326.00
98.4432 363.00
98.7474 332.00
99.0517 306.00
99.356 322.00
99.6602 297.00
99.9645 318.00
100.095 290.00