File: data/xrd_creation/results/PG_2547-1.xy
9.903433 2473.00
10.2077 2530.00
10.512 2431.00
10.8162 2296.00
11.1205 2176.00
11.4247 2183.00
11.729 2066.00
12.0333 2083.00
12.3375 1921.00
12.6418 1788.00
12.946 1781.00
13.2503 1795.00
13.5546 1784.00
13.8588 1739.00
14.1631 1753.00
14.4673 1610.00
14.7716 1634.00
15.0759 1608.00
15.3801 1473.00
15.6844 1506.00
15.9886 1476.00
16.2929 1496.00
16.5972 1522.00
16.9014 1409.00
17.2057 1548.00
17.5099 2064.00
17.8142 1481.00
18.1185 1338.00
18.4227 1329.00
18.727 1350.00
19.0312 1695.00
19.3355 1186.00
19.6398 1191.00
19.944 1227.00
20.2483 1218.00
20.5525 1160.00
20.8568 1312.00
21.1611 1207.00
21.4653 1314.00
21.7696 2237.00
22.0738 1168.00
22.3781 1091.00
22.6824 1232.00
22.9866 2125.00
23.2909 1067.00
23.5951 1047.00
23.8994 1076.00
24.2037 1633.00
24.5079 1026.00
24.8122 976.00
25.1164 1029.00
25.4207 917.00
25.725 923.00
26.0292 955.00
26.3335 842.00
26.6378 944.00
26.942 965.00
27.2463 1426.00
27.5505 994.00
27.8548 1505.00
28.1591 5916.00
28.4633 6451.00
28.7676 986.00
29.0718 1418.00
29.3761 1191.00
29.6804 2355.00
29.9846 1149.00
30.2889 818.00
30.5931 785.00
30.8974 739.00
31.2017 746.00
31.5059 881.00
31.8102 692.00
32.1144 772.00
32.4187 751.00
32.723 684.00
33.0272 683.00
33.3315 681.00
33.6357 754.00
33.94 648.00
34.2443 779.00
34.5485 1566.00
34.8528 1324.00
35.157 784.00
35.4613 1466.00
35.7656 1071.00
36.0698 1287.00
36.3741 791.00
36.6783 792.00
36.9826 638.00
37.2869 673.00
37.5911 819.00
37.8954 736.00
38.1996 642.00
38.5039 805.00
38.8082 839.00
39.1124 595.00
39.4167 558.00
39.7209 508.00
40.0252 537.00
40.3295 558.00
40.6337 587.00
40.938 809.00
41.2422 693.00
41.5465 1015.00
41.8508 1372.00
42.155 519.00
42.4593 682.00
42.7635 500.00
43.0678 718.00
43.3721 939.00
43.6763 1569.00
43.9806 714.00
44.2849 604.00
44.5891 578.00
44.8934 558.00
45.1976 596.00
45.5019 1214.00
45.8062 495.00
46.1104 513.00
46.4147 620.00
46.7189 1384.00
47.0232 1020.00
47.3275 707.00
47.6317 504.00
47.936 633.00
48.2402 658.00
48.5445 529.00
48.8488 511.00
49.153 600.00
49.4573 603.00
49.7615 512.00
50.0658 424.00
50.3701 447.00
50.6743 627.00
50.9786 557.00
51.2828 786.00
51.5871 834.00
51.8914 618.00
52.1956 546.00
52.4999 541.00
52.8041 933.00
53.1084 823.00
53.4127 825.00
53.7169 566.00
54.0212 541.00
54.3254 599.00
54.6297 747.00
54.934 1071.00
55.2382 573.00
55.5425 901.00
55.8467 627.00
56.151 906.00
56.4553 637.00
56.7595 492.00
57.0638 537.00
57.368 792.00
57.6723 547.00
57.9766 974.00
58.2808 865.00
58.5851 676.00
58.8893 603.00
59.1936 473.00
59.4979 462.00
59.8021 505.00
60.1064 943.00
60.4106 949.00
60.7149 982.00
61.0192 726.00
61.3234 735.00
61.6277 546.00
61.932 508.00
62.2362 797.00
62.5405 597.00
62.8447 724.00
63.149 1180.00
63.4533 881.00
63.7575 479.00
64.0618 506.00
64.366 525.00
64.6703 527.00
64.9745 677.00
65.2788 845.00
65.5831 901.00
65.8873 662.00
66.1916 607.00
66.4959 488.00
66.8001 575.00
67.1044 540.00
67.4086 479.00
67.7129 511.00
68.0172 554.00
68.3214 606.00
68.6257 703.00
68.9299 459.00
69.2342 450.00
69.5385 435.00
69.8427 429.00
70.147 475.00
70.4512 568.00
70.7555 582.00
71.0598 546.00
71.364 597.00
71.6683 584.00
71.9725 474.00
72.2768 579.00
72.5811 604.00
72.8853 737.00
73.1896 503.00
73.4938 546.00
73.7981 465.00
74.1024 487.00
74.4066 495.00
74.7109 593.00
75.0151 502.00
75.3194 736.00
75.6237 688.00
75.9279 504.00
76.2322 446.00
76.5364 443.00
76.8407 468.00
77.145 553.00
77.4492 591.00
77.7535 590.00
78.0577 429.00
78.362 454.00
78.6663 630.00
78.9705 555.00
79.2748 414.00
79.579 416.00
79.8833 450.00
80.1876 446.00
80.4918 505.00
80.7961 526.00
81.1003 436.00
81.4046 432.00
81.7089 405.00
82.0131 500.00
82.3174 455.00
82.6217 419.00
82.9259 551.00
83.2302 504.00
83.5344 433.00
83.8387 508.00
84.143 504.00
84.4472 457.00
84.7515 476.00
85.0557 439.00
85.36 458.00
85.6643 457.00
85.9685 463.00
86.2728 499.00
86.577 438.00
86.8813 397.00
87.1856 460.00
87.4898 450.00
87.7941 603.00
88.0983 466.00
88.4026 439.00
88.7069 448.00
89.0111 542.00
89.3154 507.00
89.6196 464.00
89.9239 441.00
90.2282 451.00
90.5324 465.00
90.8367 411.00
91.1409 457.00
91.4452 443.00
91.7495 482.00
92.0537 468.00
92.358 453.00
92.6622 457.00
92.9665 498.00
93.2708 489.00
93.575 489.00
93.8793 525.00
94.1835 522.00
94.4878 534.00
94.7921 522.00
95.0963 561.00
95.4006 483.00
95.7048 577.00
96.0091 475.00
96.3134 430.00
96.6176 501.00
96.9219 541.00
97.2261 483.00
97.5304 490.00
97.8347 443.00
98.1389 541.00
98.4432 462.00
98.7474 449.00
99.0517 500.00
99.356 411.00
99.6602 457.00
99.9645 455.00
100.095 415.00