File: data/xrd_creation/results/PG_2235-1.xy
9.903433 2604.00
10.2077 2429.00
10.512 2429.00
10.8162 2220.00
11.1205 2182.00
11.4247 2172.00
11.729 1924.00
12.0333 1816.00
12.3375 1789.00
12.6418 1783.00
12.946 1653.00
13.2503 1573.00
13.5546 1530.00
13.8588 1468.00
14.1631 1362.00
14.4673 1396.00
14.7716 1322.00
15.0759 1332.00
15.3801 1347.00
15.6844 1256.00
15.9886 1255.00
16.2929 1235.00
16.5972 1252.00
16.9014 1116.00
17.2057 1207.00
17.5099 1077.00
17.8142 1028.00
18.1185 1090.00
18.4227 1022.00
18.727 1002.00
19.0312 1019.00
19.3355 914.00
19.6398 957.00
19.944 906.00
20.2483 898.00
20.5525 881.00
20.8568 803.00
21.1611 863.00
21.4653 805.00
21.7696 793.00
22.0738 748.00
22.3781 783.00
22.6824 797.00
22.9866 677.00
23.2909 782.00
23.5951 718.00
23.8994 768.00
24.2037 712.00
24.5079 681.00
24.8122 725.00
25.1164 714.00
25.4207 647.00
25.725 674.00
26.0292 640.00
26.3335 640.00
26.6378 669.00
26.942 627.00
27.2463 625.00
27.5505 615.00
27.8548 633.00
28.1591 616.00
28.4633 581.00
28.7676 573.00
29.0718 620.00
29.3761 608.00
29.6804 573.00
29.9846 519.00
30.2889 509.00
30.5931 493.00
30.8974 499.00
31.2017 549.00
31.5059 535.00
31.8102 492.00
32.1144 489.00
32.4187 519.00
32.723 504.00
33.0272 489.00
33.3315 434.00
33.6357 479.00
33.94 476.00
34.2443 447.00
34.5485 457.00
34.8528 455.00
35.157 428.00
35.4613 428.00
35.7656 415.00
36.0698 463.00
36.3741 342.00
36.6783 401.00
36.9826 397.00
37.2869 392.00
37.5911 397.00
37.8954 450.00
38.1996 387.00
38.5039 387.00
38.8082 328.00
39.1124 355.00
39.4167 342.00
39.7209 355.00
40.0252 304.00
40.3295 335.00
40.6337 348.00
40.938 327.00
41.2422 295.00
41.5465 363.00
41.8508 331.00
42.155 281.00
42.4593 345.00
42.7635 353.00
43.0678 303.00
43.3721 303.00
43.6763 334.00
43.9806 322.00
44.2849 316.00
44.5891 286.00
44.8934 293.00
45.1976 296.00
45.5019 331.00
45.8062 269.00
46.1104 301.00
46.4147 264.00
46.7189 263.00
47.0232 318.00
47.3275 278.00
47.6317 295.00
47.936 258.00
48.2402 301.00
48.5445 266.00
48.8488 291.00
49.153 261.00
49.4573 271.00
49.7615 262.00
50.0658 243.00
50.3701 260.00
50.6743 247.00
50.9786 275.00
51.2828 242.00
51.5871 242.00
51.8914 243.00
52.1956 224.00
52.4999 238.00
52.8041 264.00
53.1084 217.00
53.4127 224.00
53.7169 248.00
54.0212 237.00
54.3254 220.00
54.6297 258.00
54.934 236.00
55.2382 266.00
55.5425 214.00
55.8467 215.00
56.151 229.00
56.4553 230.00
56.7595 204.00
57.0638 209.00
57.368 200.00
57.6723 219.00
57.9766 198.00
58.2808 216.00
58.5851 225.00
58.8893 223.00
59.1936 240.00
59.4979 179.00
59.8021 191.00
60.1064 209.00
60.4106 200.00
60.7149 184.00
61.0192 198.00
61.3234 211.00
61.6277 191.00
61.932 170.00
62.2362 205.00
62.5405 210.00
62.8447 204.00
63.149 202.00
63.4533 204.00
63.7575 191.00
64.0618 203.00
64.366 203.00
64.6703 198.00
64.9745 211.00
65.2788 202.00
65.5831 170.00
65.8873 172.00
66.1916 201.00
66.4959 206.00
66.8001 190.00
67.1044 179.00
67.4086 165.00
67.7129 203.00
68.0172 184.00
68.3214 166.00
68.6257 197.00
68.9299 194.00
69.2342 197.00
69.5385 178.00
69.8427 161.00
70.147 209.00
70.4512 178.00
70.7555 211.00
71.0598 178.00
71.364 193.00
71.6683 189.00
71.9725 173.00
72.2768 191.00
72.5811 194.00
72.8853 173.00
73.1896 166.00
73.4938 197.00
73.7981 206.00
74.1024 167.00
74.4066 194.00
74.7109 220.00
75.0151 199.00
75.3194 178.00
75.6237 191.00
75.9279 189.00
76.2322 207.00
76.5364 202.00
76.8407 205.00
77.145 210.00
77.4492 190.00
77.7535 184.00
78.0577 223.00
78.362 202.00
78.6663 210.00
78.9705 221.00
79.2748 209.00
79.579 207.00
79.8833 247.00
80.1876 215.00
80.4918 218.00
80.7961 210.00
81.1003 192.00
81.4046 225.00
81.7089 196.00
82.0131 187.00
82.3174 219.00
82.6217 211.00
82.9259 223.00
83.2302 235.00
83.5344 245.00
83.8387 211.00
84.143 227.00
84.4472 240.00
84.7515 215.00
85.0557 194.00
85.36 212.00
85.6643 206.00
85.9685 222.00
86.2728 203.00
86.577 217.00
86.8813 168.00
87.1856 188.00
87.4898 197.00
87.7941 221.00
88.0983 172.00
88.4026 190.00
88.7069 185.00
89.0111 189.00
89.3154 222.00
89.6196 173.00
89.9239 192.00
90.2282 190.00
90.5324 199.00
90.8367 197.00
91.1409 203.00
91.4452 186.00
91.7495 190.00
92.0537 209.00
92.358 180.00
92.6622 195.00
92.9665 199.00
93.2708 187.00
93.575 179.00
93.8793 175.00
94.1835 144.00
94.4878 176.00
94.7921 161.00
95.0963 198.00
95.4006 208.00
95.7048 171.00
96.0091 194.00
96.3134 175.00
96.6176 185.00
96.9219 197.00
97.2261 195.00
97.5304 189.00
97.8347 174.00
98.1389 189.00
98.4432 173.00
98.7474 180.00
99.0517 187.00
99.356 163.00
99.6602 205.00
99.9645 214.00
100.095 206.00