File: data/xrd_creation/results/PG_2438-1.xy
9.903433 2556.00
10.2077 2396.00
10.512 2280.00
10.8162 2206.00
11.1205 2177.00
11.4247 2014.00
11.729 1901.00
12.0333 1828.00
12.3375 1770.00
12.6418 1607.00
12.946 1564.00
13.2503 1433.00
13.5546 1555.00
13.8588 1498.00
14.1631 1410.00
14.4673 1396.00
14.7716 1299.00
15.0759 1272.00
15.3801 1233.00
15.6844 1202.00
15.9886 1175.00
16.2929 1146.00
16.5972 1137.00
16.9014 1113.00
17.2057 1071.00
17.5099 1090.00
17.8142 1044.00
18.1185 1065.00
18.4227 961.00
18.727 1050.00
19.0312 1016.00
19.3355 867.00
19.6398 908.00
19.944 889.00
20.2483 890.00
20.5525 869.00
20.8568 844.00
21.1611 817.00
21.4653 794.00
21.7696 745.00
22.0738 809.00
22.3781 766.00
22.6824 770.00
22.9866 697.00
23.2909 675.00
23.5951 686.00
23.8994 687.00
24.2037 700.00
24.5079 676.00
24.8122 651.00
25.1164 597.00
25.4207 599.00
25.725 619.00
26.0292 612.00
26.3335 591.00
26.6378 532.00
26.942 567.00
27.2463 601.00
27.5505 589.00
27.8548 580.00
28.1591 557.00
28.4633 505.00
28.7676 568.00
29.0718 534.00
29.3761 509.00
29.6804 480.00
29.9846 496.00
30.2889 476.00
30.5931 522.00
30.8974 501.00
31.2017 495.00
31.5059 425.00
31.8102 479.00
32.1144 459.00
32.4187 483.00
32.723 404.00
33.0272 421.00
33.3315 453.00
33.6357 407.00
33.94 430.00
34.2443 414.00
34.5485 392.00
34.8528 403.00
35.157 394.00
35.4613 376.00
35.7656 410.00
36.0698 375.00
36.3741 343.00
36.6783 396.00
36.9826 394.00
37.2869 365.00
37.5911 349.00
37.8954 336.00
38.1996 334.00
38.5039 318.00
38.8082 331.00
39.1124 306.00
39.4167 302.00
39.7209 303.00
40.0252 298.00
40.3295 310.00
40.6337 305.00
40.938 289.00
41.2422 318.00
41.5465 307.00
41.8508 327.00
42.155 280.00
42.4593 284.00
42.7635 315.00
43.0678 306.00
43.3721 278.00
43.6763 258.00
43.9806 295.00
44.2849 264.00
44.5891 284.00
44.8934 268.00
45.1976 244.00
45.5019 259.00
45.8062 268.00
46.1104 297.00
46.4147 236.00
46.7189 247.00
47.0232 210.00
47.3275 246.00
47.6317 237.00
47.936 268.00
48.2402 224.00
48.5445 246.00
48.8488 264.00
49.153 239.00
49.4573 226.00
49.7615 226.00
50.0658 236.00
50.3701 258.00
50.6743 246.00
50.9786 245.00
51.2828 241.00
51.5871 235.00
51.8914 233.00
52.1956 222.00
52.4999 212.00
52.8041 243.00
53.1084 228.00
53.4127 200.00
53.7169 191.00
54.0212 203.00
54.3254 235.00
54.6297 222.00
54.934 213.00
55.2382 220.00
55.5425 195.00
55.8467 180.00
56.151 204.00
56.4553 203.00
56.7595 201.00
57.0638 213.00
57.368 206.00
57.6723 212.00
57.9766 183.00
58.2808 187.00
58.5851 187.00
58.8893 199.00
59.1936 187.00
59.4979 159.00
59.8021 180.00
60.1064 183.00
60.4106 174.00
60.7149 179.00
61.0192 210.00
61.3234 173.00
61.6277 160.00
61.932 167.00
62.2362 171.00
62.5405 196.00
62.8447 191.00
63.149 161.00
63.4533 187.00
63.7575 191.00
64.0618 194.00
64.366 149.00
64.6703 186.00
64.9745 166.00
65.2788 162.00
65.5831 187.00
65.8873 178.00
66.1916 180.00
66.4959 201.00
66.8001 194.00
67.1044 147.00
67.4086 182.00
67.7129 164.00
68.0172 173.00
68.3214 152.00
68.6257 177.00
68.9299 176.00
69.2342 169.00
69.5385 179.00
69.8427 171.00
70.147 151.00
70.4512 164.00
70.7555 173.00
71.0598 151.00
71.364 173.00
71.6683 165.00
71.9725 184.00
72.2768 177.00
72.5811 183.00
72.8853 180.00
73.1896 195.00
73.4938 163.00
73.7981 177.00
74.1024 186.00
74.4066 193.00
74.7109 155.00
75.0151 172.00
75.3194 174.00
75.6237 158.00
75.9279 177.00
76.2322 187.00
76.5364 194.00
76.8407 195.00
77.145 177.00
77.4492 182.00
77.7535 192.00
78.0577 194.00
78.362 197.00
78.6663 186.00
78.9705 208.00
79.2748 213.00
79.579 209.00
79.8833 187.00
80.1876 201.00
80.4918 206.00
80.7961 196.00
81.1003 217.00
81.4046 190.00
81.7089 202.00
82.0131 235.00
82.3174 185.00
82.6217 203.00
82.9259 211.00
83.2302 174.00
83.5344 220.00
83.8387 168.00
84.143 195.00
84.4472 205.00
84.7515 187.00
85.0557 214.00
85.36 197.00
85.6643 183.00
85.9685 167.00
86.2728 204.00
86.577 197.00
86.8813 171.00
87.1856 177.00
87.4898 178.00
87.7941 176.00
88.0983 178.00
88.4026 183.00
88.7069 181.00
89.0111 183.00
89.3154 196.00
89.6196 177.00
89.9239 197.00
90.2282 160.00
90.5324 151.00
90.8367 183.00
91.1409 172.00
91.4452 166.00
91.7495 178.00
92.0537 164.00
92.358 162.00
92.6622 171.00
92.9665 170.00
93.2708 161.00
93.575 182.00
93.8793 164.00
94.1835 158.00
94.4878 147.00
94.7921 170.00
95.0963 156.00
95.4006 139.00
95.7048 157.00
96.0091 154.00
96.3134 168.00
96.6176 166.00
96.9219 154.00
97.2261 189.00
97.5304 147.00
97.8347 176.00
98.1389 153.00
98.4432 172.00
98.7474 170.00
99.0517 149.00
99.356 160.00
99.6602 179.00
99.9645 174.00
100.095 142.00