File: data/xrd_creation/results/PG_2240-1.xy
9.903433 2472.00
10.2077 2308.00
10.512 2236.00
10.8162 2226.00
11.1205 2123.00
11.4247 2054.00
11.729 1978.00
12.0333 1852.00
12.3375 1837.00
12.6418 1732.00
12.946 1729.00
13.2503 1789.00
13.5546 1604.00
13.8588 1590.00
14.1631 1589.00
14.4673 1931.00
14.7716 1534.00
15.0759 1472.00
15.3801 1853.00
15.6844 1390.00
15.9886 1401.00
16.2929 1388.00
16.5972 1384.00
16.9014 1389.00
17.2057 1288.00
17.5099 1300.00
17.8142 1401.00
18.1185 1347.00
18.4227 1284.00
18.727 1177.00
19.0312 1208.00
19.3355 1203.00
19.6398 1218.00
19.944 1228.00
20.2483 1246.00
20.5525 1171.00
20.8568 1145.00
21.1611 1203.00
21.4653 1228.00
21.7696 1544.00
22.0738 1021.00
22.3781 1190.00
22.6824 1170.00
22.9866 1107.00
23.2909 981.00
23.5951 982.00
23.8994 1092.00
24.2037 1029.00
24.5079 1061.00
24.8122 1122.00
25.1164 1178.00
25.4207 1013.00
25.725 970.00
26.0292 1139.00
26.3335 1826.00
26.6378 6297.00
26.942 3301.00
27.2463 1566.00
27.5505 2005.00
27.8548 1261.00
28.1591 1326.00
28.4633 2040.00
28.7676 3762.00
29.0718 6075.00
29.3761 9814.00
29.6804 3329.00
29.9846 1431.00
30.2889 1296.00
30.5931 3114.00
30.8974 2414.00
31.2017 4369.00
31.5059 1379.00
31.8102 1576.00
32.1144 4381.00
32.4187 3525.00
32.723 2301.00
33.0272 3237.00
33.3315 1192.00
33.6357 1013.00
33.94 1236.00
34.2443 2256.00
34.5485 2446.00
34.8528 1108.00
35.157 822.00
35.4613 891.00
35.7656 972.00
36.0698 1550.00
36.3741 1138.00
36.6783 794.00
36.9826 862.00
37.2869 1138.00
37.5911 797.00
37.8954 847.00
38.1996 2701.00
38.5039 809.00
38.8082 654.00
39.1124 708.00
39.4167 733.00
39.7209 1042.00
40.0252 1080.00
40.3295 1236.00
40.6337 796.00
40.938 735.00
41.2422 765.00
41.5465 715.00
41.8508 671.00
42.155 691.00
42.4593 653.00
42.7635 743.00
43.0678 833.00
43.3721 721.00
43.6763 724.00
43.9806 870.00
44.2849 874.00
44.5891 1084.00
44.8934 1189.00
45.1976 1385.00
45.5019 2146.00
45.8062 1329.00
46.1104 1273.00
46.4147 1604.00
46.7189 1296.00
47.0232 911.00
47.3275 842.00
47.6317 1206.00
47.936 2164.00
48.2402 932.00
48.5445 1037.00
48.8488 2085.00
49.153 1868.00
49.4573 1816.00
49.7615 1828.00
50.0658 1615.00
50.3701 1321.00
50.6743 1066.00
50.9786 1280.00
51.2828 1553.00
51.5871 761.00
51.8914 765.00
52.1956 1113.00
52.4999 2927.00
52.8041 998.00
53.1084 1050.00
53.4127 2588.00
53.7169 1472.00
54.0212 1048.00
54.3254 1089.00
54.6297 1140.00
54.934 1396.00
55.2382 1378.00
55.5425 1117.00
55.8467 1058.00
56.151 1464.00
56.4553 2444.00
56.7595 1079.00
57.0638 872.00
57.368 767.00
57.6723 836.00
57.9766 1004.00
58.2808 1220.00
58.5851 1167.00
58.8893 1041.00
59.1936 1014.00
59.4979 1255.00
59.8021 1366.00
60.1064 1515.00
60.4106 1642.00
60.7149 2049.00
61.0192 1289.00
61.3234 985.00
61.6277 920.00
61.932 813.00
62.2362 661.00
62.5405 694.00
62.8447 743.00
63.149 1041.00
63.4533 1694.00
63.7575 915.00
64.0618 774.00
64.366 1002.00
64.6703 733.00
64.9745 708.00
65.2788 701.00
65.5831 633.00
65.8873 790.00
66.1916 1073.00
66.4959 1189.00
66.8001 1043.00
67.1044 819.00
67.4086 662.00
67.7129 607.00
68.0172 622.00
68.3214 660.00
68.6257 866.00
68.9299 763.00
69.2342 770.00
69.5385 634.00
69.8427 733.00
70.147 785.00
70.4512 670.00
70.7555 592.00
71.0598 600.00
71.364 730.00
71.6683 646.00
71.9725 778.00
72.2768 798.00
72.5811 811.00
72.8853 821.00
73.1896 859.00
73.4938 899.00
73.7981 1008.00
74.1024 951.00
74.4066 778.00
74.7109 783.00
75.0151 774.00
75.3194 869.00
75.6237 913.00
75.9279 873.00
76.2322 1022.00
76.5364 1006.00
76.8407 1065.00
77.145 774.00
77.4492 709.00
77.7535 701.00
78.0577 832.00
78.362 907.00
78.6663 867.00
78.9705 871.00
79.2748 751.00
79.579 802.00
79.8833 1009.00
80.1876 924.00
80.4918 708.00
80.7961 798.00
81.1003 936.00
81.4046 730.00
81.7089 729.00
82.0131 731.00
82.3174 1041.00
82.6217 865.00
82.9259 826.00
83.2302 887.00
83.5344 809.00
83.8387 840.00
84.143 822.00
84.4472 864.00
84.7515 972.00
85.0557 958.00
85.36 1047.00
85.6643 817.00
85.9685 812.00
86.2728 912.00
86.577 914.00
86.8813 760.00
87.1856 1011.00
87.4898 956.00
87.7941 871.00
88.0983 704.00
88.4026 736.00
88.7069 766.00
89.0111 966.00
89.3154 863.00
89.6196 835.00
89.9239 721.00
90.2282 822.00
90.5324 796.00
90.8367 752.00
91.1409 749.00
91.4452 898.00
91.7495 806.00
92.0537 772.00
92.358 701.00
92.6622 756.00
92.9665 741.00
93.2708 773.00
93.575 859.00
93.8793 775.00
94.1835 753.00
94.4878 746.00
94.7921 750.00
95.0963 608.00
95.4006 602.00
95.7048 621.00
96.0091 694.00
96.3134 681.00
96.6176 632.00
96.9219 643.00
97.2261 631.00
97.5304 694.00
97.8347 782.00
98.1389 903.00
98.4432 767.00
98.7474 693.00
99.0517 626.00
99.356 626.00
99.6602 661.00
99.9645 645.00
100.095 631.00