File: data/xrd_creation/results/PG_2740-1.xy
9.903433 2459.00
10.2077 2401.00
10.512 2296.00
10.8162 2201.00
11.1205 2171.00
11.4247 2145.00
11.729 2094.00
12.0333 1975.00
12.3375 1902.00
12.6418 1907.00
12.946 1817.00
13.2503 1719.00
13.5546 1743.00
13.8588 1677.00
14.1631 1749.00
14.4673 2358.00
14.7716 1663.00
15.0759 1647.00
15.3801 1581.00
15.6844 1622.00
15.9886 1492.00
16.2929 1506.00
16.5972 1468.00
16.9014 1509.00
17.2057 1414.00
17.5099 1492.00
17.8142 1403.00
18.1185 1492.00
18.4227 1522.00
18.727 1377.00
19.0312 1343.00
19.3355 1350.00
19.6398 1318.00
19.944 1333.00
20.2483 1278.00
20.5525 1312.00
20.8568 1350.00
21.1611 1260.00
21.4653 1248.00
21.7696 1305.00
22.0738 1245.00
22.3781 1214.00
22.6824 1313.00
22.9866 1140.00
23.2909 1222.00
23.5951 1227.00
23.8994 1178.00
24.2037 1222.00
24.5079 1311.00
24.8122 1185.00
25.1164 1202.00
25.4207 1194.00
25.725 1210.00
26.0292 1359.00
26.3335 2124.00
26.6378 10813.00
26.942 2416.00
27.2463 1445.00
27.5505 1690.00
27.8548 1327.00
28.1591 1337.00
28.4633 1454.00
28.7676 1695.00
29.0718 2014.00
29.3761 1676.00
29.6804 1314.00
29.9846 1222.00
30.2889 1327.00
30.5931 1416.00
30.8974 1923.00
31.2017 2870.00
31.5059 1394.00
31.8102 1461.00
32.1144 2436.00
32.4187 5195.00
32.723 2404.00
33.0272 1468.00
33.3315 1204.00
33.6357 1174.00
33.94 1234.00
34.2443 2984.00
34.5485 1708.00
34.8528 1140.00
35.157 1154.00
35.4613 1062.00
35.7656 1030.00
36.0698 1128.00
36.3741 2153.00
36.6783 1255.00
36.9826 1224.00
37.2869 1054.00
37.5911 999.00
37.8954 1051.00
38.1996 1142.00
38.5039 1047.00
38.8082 971.00
39.1124 1003.00
39.4167 1056.00
39.7209 1353.00
40.0252 1104.00
40.3295 1122.00
40.6337 959.00
40.938 1001.00
41.2422 994.00
41.5465 988.00
41.8508 945.00
42.155 1027.00
42.4593 1060.00
42.7635 1027.00
43.0678 987.00
43.3721 951.00
43.6763 1031.00
43.9806 1057.00
44.2849 1097.00
44.5891 1382.00
44.8934 1739.00
45.1976 1190.00
45.5019 1103.00
45.8062 1032.00
46.1104 1327.00
46.4147 1752.00
46.7189 1248.00
47.0232 1035.00
47.3275 1130.00
47.6317 1589.00
47.936 2214.00
48.2402 1105.00
48.5445 1083.00
48.8488 1090.00
49.153 1027.00
49.4573 1197.00
49.7615 1444.00
50.0658 2452.00
50.3701 1709.00
50.6743 1242.00
50.9786 1405.00
51.2828 1127.00
51.5871 1080.00
51.8914 1134.00
52.1956 1687.00
52.4999 3336.00
52.8041 1142.00
53.1084 1115.00
53.4127 1148.00
53.7169 1072.00
54.0212 1169.00
54.3254 1148.00
54.6297 1134.00
54.934 1086.00
55.2382 1060.00
55.5425 1068.00
55.8467 1047.00
56.151 1386.00
56.4553 1471.00
56.7595 1136.00
57.0638 949.00
57.368 1036.00
57.6723 1135.00
57.9766 1255.00
58.2808 1765.00
58.5851 1464.00
58.8893 1415.00
59.1936 1094.00
59.4979 1675.00
59.8021 1264.00
60.1064 1622.00
60.4106 1407.00
60.7149 1630.00
61.0192 1324.00
61.3234 1216.00
61.6277 1165.00
61.932 1020.00
62.2362 961.00
62.5405 980.00
62.8447 1033.00
63.149 1080.00
63.4533 1244.00
63.7575 1158.00
64.0618 1052.00
64.366 1299.00
64.6703 1014.00
64.9745 1153.00
65.2788 983.00
65.5831 1016.00
65.8873 1105.00
66.1916 1747.00
66.4959 1609.00
66.8001 1070.00
67.1044 949.00
67.4086 959.00
67.7129 966.00
68.0172 1002.00
68.3214 992.00
68.6257 1029.00
68.9299 976.00
69.2342 929.00
69.5385 938.00
69.8427 1102.00
70.147 1220.00
70.4512 988.00
70.7555 903.00
71.0598 920.00
71.364 964.00
71.6683 930.00
71.9725 1052.00
72.2768 1299.00
72.5811 1124.00
72.8853 997.00
73.1896 953.00
73.4938 985.00
73.7981 1038.00
74.1024 1132.00
74.4066 1086.00
74.7109 1000.00
75.0151 962.00
75.3194 1111.00
75.6237 1232.00
75.9279 1069.00
76.2322 997.00
76.5364 1210.00
76.8407 1282.00
77.145 961.00
77.4492 980.00
77.7535 957.00
78.0577 897.00
78.362 968.00
78.6663 925.00
78.9705 927.00
79.2748 960.00
79.579 902.00
79.8833 1007.00
80.1876 1008.00
80.4918 1014.00
80.7961 1084.00
81.1003 1016.00
81.4046 1034.00
81.7089 1000.00
82.0131 1009.00
82.3174 983.00
82.6217 1092.00
82.9259 1241.00
83.2302 1341.00
83.5344 1246.00
83.8387 1266.00
84.143 1065.00
84.4472 1197.00
84.7515 1397.00
85.0557 1257.00
85.36 1048.00
85.6643 1061.00
85.9685 1053.00
86.2728 1191.00
86.577 1032.00
86.8813 1086.00
87.1856 1066.00
87.4898 1001.00
87.7941 1067.00
88.0983 1127.00
88.4026 1037.00
88.7069 947.00
89.0111 1014.00
89.3154 1045.00
89.6196 1151.00
89.9239 1143.00
90.2282 1087.00
90.5324 1075.00
90.8367 1072.00
91.1409 1042.00
91.4452 1205.00
91.7495 1117.00
92.0537 1058.00
92.358 984.00
92.6622 999.00
92.9665 1060.00
93.2708 1107.00
93.575 1000.00
93.8793 982.00
94.1835 985.00
94.4878 918.00
94.7921 906.00
95.0963 937.00
95.4006 932.00
95.7048 920.00
96.0091 990.00
96.3134 980.00
96.6176 1037.00
96.9219 1000.00
97.2261 1067.00
97.5304 1066.00
97.8347 1097.00
98.1389 1049.00
98.4432 1041.00
98.7474 1107.00
99.0517 961.00
99.356 935.00
99.6602 945.00
99.9645 977.00
100.095 940.00