File: data/xrd_creation/results/PG_2544-1.xy
9.903433 2642.00
10.2077 2600.00
10.512 2592.00
10.8162 2446.00
11.1205 2240.00
11.4247 2221.00
11.729 2214.00
12.0333 2099.00
12.3375 2037.00
12.6418 2052.00
12.946 1837.00
13.2503 1813.00
13.5546 1826.00
13.8588 1765.00
14.1631 1727.00
14.4673 1757.00
14.7716 1730.00
15.0759 1732.00
15.3801 1714.00
15.6844 1625.00
15.9886 1593.00
16.2929 1608.00
16.5972 1552.00
16.9014 1485.00
17.2057 1559.00
17.5099 1566.00
17.8142 1553.00
18.1185 1678.00
18.4227 1428.00
18.727 1450.00
19.0312 1377.00
19.3355 1358.00
19.6398 1318.00
19.944 1316.00
20.2483 1251.00
20.5525 1220.00
20.8568 1228.00
21.1611 1203.00
21.4653 1215.00
21.7696 1179.00
22.0738 1160.00
22.3781 1122.00
22.6824 1117.00
22.9866 1120.00
23.2909 1080.00
23.5951 1065.00
23.8994 1027.00
24.2037 1030.00
24.5079 1060.00
24.8122 1014.00
25.1164 1006.00
25.4207 978.00
25.725 956.00
26.0292 1085.00
26.3335 1254.00
26.6378 2586.00
26.942 11643.00
27.2463 1382.00
27.5505 1001.00
27.8548 938.00
28.1591 905.00
28.4633 903.00
28.7676 824.00
29.0718 803.00
29.3761 790.00
29.6804 811.00
29.9846 769.00
30.2889 764.00
30.5931 744.00
30.8974 758.00
31.2017 727.00
31.5059 724.00
31.8102 734.00
32.1144 701.00
32.4187 711.00
32.723 702.00
33.0272 754.00
33.3315 800.00
33.6357 874.00
33.94 2116.00
34.2443 9202.00
34.5485 1218.00
34.8528 933.00
35.157 750.00
35.4613 684.00
35.7656 660.00
36.0698 617.00
36.3741 686.00
36.6783 625.00
36.9826 618.00
37.2869 708.00
37.5911 598.00
37.8954 721.00
38.1996 3160.00
38.5039 827.00
38.8082 591.00
39.1124 696.00
39.4167 818.00
39.7209 570.00
40.0252 542.00
40.3295 492.00
40.6337 515.00
40.938 546.00
41.2422 529.00
41.5465 529.00
41.8508 579.00
42.155 649.00
42.4593 523.00
42.7635 575.00
43.0678 1011.00
43.3721 891.00
43.6763 491.00
43.9806 488.00
44.2849 487.00
44.5891 453.00
44.8934 432.00
45.1976 453.00
45.5019 435.00
45.8062 429.00
46.1104 432.00
46.4147 465.00
46.7189 444.00
47.0232 428.00
47.3275 395.00
47.6317 411.00
47.936 423.00
48.2402 423.00
48.5445 422.00
48.8488 428.00
49.153 415.00
49.4573 408.00
49.7615 415.00
50.0658 456.00
50.3701 408.00
50.6743 479.00
50.9786 454.00
51.2828 486.00
51.5871 727.00
51.8914 2731.00
52.1956 6097.00
52.4999 823.00
52.8041 521.00
53.1084 454.00
53.4127 417.00
53.7169 409.00
54.0212 400.00
54.3254 405.00
54.6297 523.00
54.934 1578.00
55.2382 1130.00
55.5425 517.00
55.8467 448.00
56.151 422.00
56.4553 403.00
56.7595 380.00
57.0638 368.00
57.368 414.00
57.6723 409.00
57.9766 825.00
58.2808 930.00
58.5851 406.00
58.8893 396.00
59.1936 354.00
59.4979 347.00
59.8021 384.00
60.1064 357.00
60.4106 340.00
60.7149 428.00
61.0192 470.00
61.3234 378.00
61.6277 392.00
61.932 677.00
62.2362 1796.00
62.5405 1304.00
62.8447 479.00
63.149 378.00
63.4533 357.00
63.7575 405.00
64.0618 389.00
64.366 424.00
64.6703 564.00
64.9745 2270.00
65.2788 823.00
65.5831 492.00
65.8873 546.00
66.1916 2760.00
66.4959 976.00
66.8001 399.00
67.1044 383.00
67.4086 330.00
67.7129 308.00
68.0172 327.00
68.3214 316.00
68.6257 347.00
68.9299 352.00
69.2342 340.00
69.5385 348.00
69.8427 330.00
70.147 352.00
70.4512 340.00
70.7555 364.00
71.0598 323.00
71.364 636.00
71.6683 925.00
71.9725 430.00
72.2768 349.00
72.5811 349.00
72.8853 354.00
73.1896 338.00
73.4938 314.00
73.7981 292.00
74.1024 297.00
74.4066 283.00
74.7109 351.00
75.0151 363.00
75.3194 290.00
75.6237 301.00
75.9279 301.00
76.2322 337.00
76.5364 308.00
76.8407 304.00
77.145 306.00
77.4492 306.00
77.7535 301.00
78.0577 327.00
78.362 337.00
78.6663 510.00
78.9705 1917.00
79.2748 746.00
79.579 365.00
79.8833 327.00
80.1876 304.00
80.4918 335.00
80.7961 319.00
81.1003 379.00
81.4046 752.00
81.7089 429.00
82.0131 314.00
82.3174 293.00
82.6217 300.00
82.9259 282.00
83.2302 279.00
83.5344 353.00
83.8387 929.00
84.143 903.00
84.4472 362.00
84.7515 331.00
85.0557 318.00
85.36 279.00
85.6643 249.00
85.9685 311.00
86.2728 297.00
86.577 330.00
86.8813 318.00
87.1856 395.00
87.4898 762.00
87.7941 469.00
88.0983 326.00
88.4026 294.00
88.7069 308.00
89.0111 321.00
89.3154 340.00
89.6196 410.00
89.9239 1271.00
90.2282 1069.00
90.5324 501.00
90.8367 520.00
91.1409 1594.00
91.4452 953.00
91.7495 411.00
92.0537 272.00
92.358 323.00
92.6622 291.00
92.9665 374.00
93.2708 431.00
93.575 704.00
93.8793 505.00
94.1835 401.00
94.4878 390.00
94.7921 279.00
95.0963 310.00
95.4006 286.00
95.7048 291.00
96.0091 388.00
96.3134 647.00
96.6176 484.00
96.9219 295.00
97.2261 263.00
97.5304 303.00
97.8347 303.00
98.1389 273.00
98.4432 268.00
98.7474 306.00
99.0517 286.00
99.356 312.00
99.6602 268.00
99.9645 282.00
100.095 296.00