File: data/xrd_creation/results/PG_2543-1.xy
9.903433 3113.00
10.2077 3014.00
10.512 2896.00
10.8162 2860.00
11.1205 2772.00
11.4247 2707.00
11.729 2750.00
12.0333 2511.00
12.3375 2457.00
12.6418 2404.00
12.946 2454.00
13.2503 2291.00
13.5546 2356.00
13.8588 2401.00
14.1631 2229.00
14.4673 2305.00
14.7716 2162.00
15.0759 2267.00
15.3801 2279.00
15.6844 2407.00
15.9886 2236.00
16.2929 2353.00
16.5972 2419.00
16.9014 2332.00
17.2057 2368.00
17.5099 2493.00
17.8142 2626.00
18.1185 2593.00
18.4227 2663.00
18.727 2673.00
19.0312 2823.00
19.3355 2805.00
19.6398 2920.00
19.944 3039.00
20.2483 3116.00
20.5525 3098.00
20.8568 3250.00
21.1611 3249.00
21.4653 3170.00
21.7696 3255.00
22.0738 3130.00
22.3781 3201.00
22.6824 3090.00
22.9866 3157.00
23.2909 3020.00
23.5951 2827.00
23.8994 2842.00
24.2037 2776.00
24.5079 2534.00
24.8122 2444.00
25.1164 2354.00
25.4207 2428.00
25.725 2328.00
26.0292 2192.00
26.3335 2024.00
26.6378 1955.00
26.942 1883.00
27.2463 1801.00
27.5505 1800.00
27.8548 1777.00
28.1591 1853.00
28.4633 1669.00
28.7676 1630.00
29.0718 1550.00
29.3761 1542.00
29.6804 1508.00
29.9846 1562.00
30.2889 1564.00
30.5931 1457.00
30.8974 1463.00
31.2017 1439.00
31.5059 1441.00
31.8102 1237.00
32.1144 1296.00
32.4187 1349.00
32.723 1343.00
33.0272 1258.00
33.3315 1122.00
33.6357 1216.00
33.94 1182.00
34.2443 1139.00
34.5485 1130.00
34.8528 1109.00
35.157 1095.00
35.4613 1177.00
35.7656 1205.00
36.0698 1336.00
36.3741 1102.00
36.6783 1300.00
36.9826 1529.00
37.2869 2642.00
37.5911 1020.00
37.8954 1028.00
38.1996 954.00
38.5039 972.00
38.8082 1000.00
39.1124 878.00
39.4167 942.00
39.7209 953.00
40.0252 1002.00
40.3295 992.00
40.6337 837.00
40.938 821.00
41.2422 800.00
41.5465 875.00
41.8508 920.00
42.155 982.00
42.4593 1064.00
42.7635 1922.00
43.0678 15473.00
43.3721 5892.00
43.6763 1250.00
43.9806 902.00
44.2849 873.00
44.5891 873.00
44.8934 831.00
45.1976 849.00
45.5019 802.00
45.8062 781.00
46.1104 789.00
46.4147 750.00
46.7189 798.00
47.0232 775.00
47.3275 743.00
47.6317 730.00
47.936 779.00
48.2402 737.00
48.5445 703.00
48.8488 751.00
49.153 689.00
49.4573 712.00
49.7615 652.00
50.0658 702.00
50.3701 690.00
50.6743 681.00
50.9786 733.00
51.2828 729.00
51.5871 613.00
51.8914 632.00
52.1956 706.00
52.4999 780.00
52.8041 726.00
53.1084 674.00
53.4127 665.00
53.7169 618.00
54.0212 654.00
54.3254 638.00
54.6297 598.00
54.934 632.00
55.2382 626.00
55.5425 614.00
55.8467 629.00
56.151 612.00
56.4553 662.00
56.7595 637.00
57.0638 684.00
57.368 657.00
57.6723 672.00
57.9766 646.00
58.2808 603.00
58.5851 610.00
58.8893 621.00
59.1936 645.00
59.4979 636.00
59.8021 624.00
60.1064 661.00
60.4106 762.00
60.7149 641.00
61.0192 696.00
61.3234 613.00
61.6277 686.00
61.932 880.00
62.2362 2345.00
62.5405 12983.00
62.8447 1950.00
63.149 875.00
63.4533 710.00
63.7575 650.00
64.0618 642.00
64.366 649.00
64.6703 619.00
64.9745 638.00
65.2788 629.00
65.5831 600.00
65.8873 601.00
66.1916 633.00
66.4959 580.00
66.8001 596.00
67.1044 565.00
67.4086 630.00
67.7129 612.00
68.0172 628.00
68.3214 613.00
68.6257 632.00
68.9299 601.00
69.2342 558.00
69.5385 577.00
69.8427 638.00
70.147 597.00
70.4512 539.00
70.7555 560.00
71.0598 515.00
71.364 551.00
71.6683 541.00
71.9725 564.00
72.2768 584.00
72.5811 555.00
72.8853 526.00
73.1896 575.00
73.4938 571.00
73.7981 561.00
74.1024 579.00
74.4066 582.00
74.7109 1034.00
75.0151 1295.00
75.3194 601.00
75.6237 585.00
75.9279 578.00
76.2322 568.00
76.5364 596.00
76.8407 538.00
77.145 562.00
77.4492 514.00
77.7535 521.00
78.0577 578.00
78.362 672.00
78.6663 1695.00
78.9705 1968.00
79.2748 644.00
79.579 550.00
79.8833 528.00
80.1876 525.00
80.4918 553.00
80.7961 499.00
81.1003 507.00
81.4046 492.00
81.7089 441.00
82.0131 458.00
82.3174 449.00
82.6217 462.00
82.9259 481.00
83.2302 469.00
83.5344 453.00
83.8387 427.00
84.143 458.00
84.4472 436.00
84.7515 405.00
85.0557 388.00
85.36 410.00
85.6643 392.00
85.9685 417.00
86.2728 420.00
86.577 384.00
86.8813 386.00
87.1856 396.00
87.4898 371.00
87.7941 345.00
88.0983 359.00
88.4026 350.00
88.7069 362.00
89.0111 343.00
89.3154 367.00
89.6196 393.00
89.9239 330.00
90.2282 378.00
90.5324 365.00
90.8367 360.00
91.1409 348.00
91.4452 361.00
91.7495 323.00
92.0537 348.00
92.358 345.00
92.6622 327.00
92.9665 332.00
93.2708 374.00
93.575 395.00
93.8793 486.00
94.1835 1319.00
94.4878 924.00
94.7921 393.00
95.0963 373.00
95.4006 389.00
95.7048 371.00
96.0091 351.00
96.3134 375.00
96.6176 352.00
96.9219 339.00
97.2261 325.00
97.5304 373.00
97.8347 306.00
98.1389 320.00
98.4432 384.00
98.7474 369.00
99.0517 376.00
99.356 345.00
99.6602 357.00
99.9645 320.00
100.095 334.00