File: data/xrd_creation/results/PG_2548-1.xy
9.903433 2823.00
10.2077 2646.00
10.512 2526.00
10.8162 2445.00
11.1205 2268.00
11.4247 2242.00
11.729 2190.00
12.0333 2008.00
12.3375 1950.00
12.6418 1890.00
12.946 1863.00
13.2503 1786.00
13.5546 1744.00
13.8588 1644.00
14.1631 1682.00
14.4673 1703.00
14.7716 1615.00
15.0759 1635.00
15.3801 1811.00
15.6844 3143.00
15.9886 1587.00
16.2929 1542.00
16.5972 1457.00
16.9014 1456.00
17.2057 1354.00
17.5099 1407.00
17.8142 1401.00
18.1185 1309.00
18.4227 1351.00
18.727 1353.00
19.0312 1272.00
19.3355 1250.00
19.6398 1222.00
19.944 1364.00
20.2483 1739.00
20.5525 5930.00
20.8568 1387.00
21.1611 1276.00
21.4653 1246.00
21.7696 1589.00
22.0738 2283.00
22.3781 1155.00
22.6824 1095.00
22.9866 1035.00
23.2909 1134.00
23.5951 1022.00
23.8994 1014.00
24.2037 965.00
24.5079 959.00
24.8122 1000.00
25.1164 919.00
25.4207 1005.00
25.725 1045.00
26.0292 1095.00
26.3335 3487.00
26.6378 1073.00
26.942 895.00
27.2463 890.00
27.5505 887.00
27.8548 889.00
28.1591 885.00
28.4633 915.00
28.7676 879.00
29.0718 863.00
29.3761 981.00
29.6804 904.00
29.9846 790.00
30.2889 792.00
30.5931 728.00
30.8974 871.00
31.2017 3077.00
31.5059 1110.00
31.8102 751.00
32.1144 757.00
32.4187 960.00
32.723 1821.00
33.0272 831.00
33.3315 775.00
33.6357 1110.00
33.94 690.00
34.2443 712.00
34.5485 2226.00
34.8528 669.00
35.157 638.00
35.4613 590.00
35.7656 605.00
36.0698 672.00
36.3741 720.00
36.6783 639.00
36.9826 585.00
37.2869 873.00
37.5911 718.00
37.8954 562.00
38.1996 565.00
38.5039 570.00
38.8082 566.00
39.1124 645.00
39.4167 561.00
39.7209 541.00
40.0252 524.00
40.3295 522.00
40.6337 576.00
40.938 569.00
41.2422 665.00
41.5465 1342.00
41.8508 648.00
42.155 722.00
42.4593 745.00
42.7635 644.00
43.0678 2802.00
43.3721 1235.00
43.6763 610.00
43.9806 521.00
44.2849 516.00
44.5891 601.00
44.8934 495.00
45.1976 485.00
45.5019 644.00
45.8062 996.00
46.1104 503.00
46.4147 536.00
46.7189 510.00
47.0232 555.00
47.3275 573.00
47.6317 1523.00
47.936 756.00
48.2402 860.00
48.5445 524.00
48.8488 631.00
49.153 956.00
49.4573 546.00
49.7615 590.00
50.0658 529.00
50.3701 468.00
50.6743 488.00
50.9786 469.00
51.2828 658.00
51.5871 1166.00
51.8914 519.00
52.1956 929.00
52.4999 580.00
52.8041 560.00
53.1084 468.00
53.4127 437.00
53.7169 465.00
54.0212 562.00
54.3254 423.00
54.6297 465.00
54.934 434.00
55.2382 455.00
55.5425 487.00
55.8467 895.00
56.151 487.00
56.4553 574.00
56.7595 469.00
57.0638 419.00
57.368 448.00
57.6723 421.00
57.9766 441.00
58.2808 488.00
58.5851 533.00
58.8893 603.00
59.1936 750.00
59.4979 518.00
59.8021 457.00
60.1064 502.00
60.4106 572.00
60.7149 497.00
61.0192 537.00
61.3234 1108.00
61.6277 538.00
61.932 491.00
62.2362 1033.00
62.5405 3141.00
62.8447 635.00
63.149 387.00
63.4533 438.00
63.7575 412.00
64.0618 416.00
64.366 453.00
64.6703 579.00
64.9745 529.00
65.2788 497.00
65.5831 446.00
65.8873 399.00
66.1916 535.00
66.4959 581.00
66.8001 408.00
67.1044 411.00
67.4086 385.00
67.7129 430.00
68.0172 577.00
68.3214 453.00
68.6257 545.00
68.9299 519.00
69.2342 528.00
69.5385 460.00
69.8427 594.00
70.147 492.00
70.4512 582.00
70.7555 567.00
71.0598 422.00
71.364 425.00
71.6683 430.00
71.9725 555.00
72.2768 547.00
72.5811 686.00
72.8853 721.00
73.1896 520.00
73.4938 403.00
73.7981 389.00
74.1024 402.00
74.4066 447.00
74.7109 690.00
75.0151 627.00
75.3194 404.00
75.6237 385.00
75.9279 414.00
76.2322 594.00
76.5364 435.00
76.8407 423.00
77.145 346.00
77.4492 440.00
77.7535 452.00
78.0577 417.00
78.362 571.00
78.6663 593.00
78.9705 640.00
79.2748 412.00
79.579 369.00
79.8833 367.00
80.1876 349.00
80.4918 371.00
80.7961 325.00
81.1003 367.00
81.4046 432.00
81.7089 418.00
82.0131 383.00
82.3174 385.00
82.6217 366.00
82.9259 449.00
83.2302 432.00
83.5344 369.00
83.8387 355.00
84.143 407.00
84.4472 446.00
84.7515 409.00
85.0557 431.00
85.36 433.00
85.6643 446.00
85.9685 368.00
86.2728 417.00
86.577 388.00
86.8813 468.00
87.1856 467.00
87.4898 387.00
87.7941 369.00
88.0983 396.00
88.4026 419.00
88.7069 490.00
89.0111 432.00
89.3154 403.00
89.6196 374.00
89.9239 401.00
90.2282 402.00
90.5324 410.00
90.8367 446.00
91.1409 444.00
91.4452 418.00
91.7495 374.00
92.0537 342.00
92.358 361.00
92.6622 400.00
92.9665 423.00
93.2708 424.00
93.575 478.00
93.8793 439.00
94.1835 578.00
94.4878 550.00
94.7921 377.00
95.0963 405.00
95.4006 436.00
95.7048 447.00
96.0091 384.00
96.3134 374.00
96.6176 371.00
96.9219 387.00
97.2261 430.00
97.5304 385.00
97.8347 367.00
98.1389 384.00
98.4432 408.00
98.7474 387.00
99.0517 361.00
99.356 430.00
99.6602 429.00
99.9645 462.00
100.095 458.00