File: data/xrd_creation/results/PG_2149-1.xy
9.903433 2455.00
10.2077 2434.00
10.512 2362.00
10.8162 2265.00
11.1205 2139.00
11.4247 1990.00
11.729 1977.00
12.0333 1996.00
12.3375 1825.00
12.6418 1736.00
12.946 1751.00
13.2503 1658.00
13.5546 1659.00
13.8588 1532.00
14.1631 1569.00
14.4673 1523.00
14.7716 1522.00
15.0759 1481.00
15.3801 1511.00
15.6844 1962.00
15.9886 5682.00
16.2929 1937.00
16.5972 1417.00
16.9014 1294.00
17.2057 1327.00
17.5099 1242.00
17.8142 1309.00
18.1185 1243.00
18.4227 1183.00
18.727 1140.00
19.0312 1205.00
19.3355 1165.00
19.6398 1081.00
19.944 1052.00
20.2483 999.00
20.5525 1043.00
20.8568 1012.00
21.1611 1051.00
21.4653 982.00
21.7696 998.00
22.0738 951.00
22.3781 949.00
22.6824 1021.00
22.9866 1145.00
23.2909 2188.00
23.5951 5318.00
23.8994 5430.00
24.2037 2063.00
24.5079 2373.00
24.8122 6248.00
25.1164 1045.00
25.4207 918.00
25.725 930.00
26.0292 945.00
26.3335 912.00
26.6378 1016.00
26.942 2020.00
27.2463 1302.00
27.5505 3183.00
27.8548 2286.00
28.1591 2541.00
28.4633 4644.00
28.7676 1422.00
29.0718 1876.00
29.3761 1722.00
29.6804 771.00
29.9846 724.00
30.2889 746.00
30.5931 658.00
30.8974 614.00
31.2017 645.00
31.5059 685.00
31.8102 1037.00
32.1144 1226.00
32.4187 658.00
32.723 654.00
33.0272 637.00
33.3315 1212.00
33.6357 3368.00
33.94 3015.00
34.2443 2115.00
34.5485 4768.00
34.8528 1236.00
35.157 683.00
35.4613 623.00
35.7656 956.00
36.0698 1082.00
36.3741 971.00
36.6783 584.00
36.9826 471.00
37.2869 516.00
37.5911 520.00
37.8954 484.00
38.1996 472.00
38.5039 461.00
38.8082 494.00
39.1124 592.00
39.4167 735.00
39.7209 2628.00
40.0252 2260.00
40.3295 770.00
40.6337 574.00
40.938 541.00
41.2422 582.00
41.5465 606.00
41.8508 1143.00
42.155 1312.00
42.4593 1231.00
42.7635 799.00
43.0678 556.00
43.3721 501.00
43.6763 427.00
43.9806 431.00
44.2849 446.00
44.5891 641.00
44.8934 563.00
45.1976 721.00
45.5019 545.00
45.8062 695.00
46.1104 593.00
46.4147 659.00
46.7189 416.00
47.0232 467.00
47.3275 820.00
47.6317 1757.00
47.936 590.00
48.2402 723.00
48.5445 2260.00
48.8488 2697.00
49.153 2571.00
49.4573 894.00
49.7615 666.00
50.0658 983.00
50.3701 2540.00
50.6743 1539.00
50.9786 1306.00
51.2828 903.00
51.5871 425.00
51.8914 419.00
52.1956 364.00
52.4999 409.00
52.8041 374.00
53.1084 411.00
53.4127 486.00
53.7169 823.00
54.0212 913.00
54.3254 846.00
54.6297 1123.00
54.934 773.00
55.2382 1130.00
55.5425 1462.00
55.8467 1740.00
56.151 1684.00
56.4553 1654.00
56.7595 973.00
57.0638 466.00
57.368 427.00
57.6723 381.00
57.9766 472.00
58.2808 579.00
58.5851 480.00
58.8893 476.00
59.1936 562.00
59.4979 491.00
59.8021 474.00
60.1064 604.00
60.4106 825.00
60.7149 828.00
61.0192 610.00
61.3234 722.00
61.6277 749.00
61.932 882.00
62.2362 891.00
62.5405 990.00
62.8447 778.00
63.149 586.00
63.4533 555.00
63.7575 595.00
64.0618 582.00
64.366 937.00
64.6703 590.00
64.9745 402.00
65.2788 490.00
65.5831 493.00
65.8873 404.00
66.1916 435.00
66.4959 461.00
66.8001 435.00
67.1044 436.00
67.4086 452.00
67.7129 451.00
68.0172 508.00
68.3214 416.00
68.6257 340.00
68.9299 313.00
69.2342 408.00
69.5385 424.00
69.8427 651.00
70.147 872.00
70.4512 592.00
70.7555 494.00
71.0598 562.00
71.364 596.00
71.6683 554.00
71.9725 431.00
72.2768 664.00
72.5811 485.00
72.8853 460.00
73.1896 500.00
73.4938 383.00
73.7981 439.00
74.1024 456.00
74.4066 384.00
74.7109 357.00
75.0151 342.00
75.3194 399.00
75.6237 437.00
75.9279 603.00
76.2322 771.00
76.5364 1019.00
76.8407 1037.00
77.145 1087.00
77.4492 1113.00
77.7535 1026.00
78.0577 814.00
78.362 538.00
78.6663 507.00
78.9705 556.00
79.2748 407.00
79.579 336.00
79.8833 354.00
80.1876 361.00
80.4918 384.00
80.7961 385.00
81.1003 379.00
81.4046 428.00
81.7089 452.00
82.0131 545.00
82.3174 566.00
82.6217 625.00
82.9259 567.00
83.2302 516.00
83.5344 507.00
83.8387 611.00
84.143 482.00
84.4472 357.00
84.7515 399.00
85.0557 451.00
85.36 444.00
85.6643 420.00
85.9685 493.00
86.2728 596.00
86.577 589.00
86.8813 511.00
87.1856 488.00
87.4898 558.00
87.7941 642.00
88.0983 505.00
88.4026 498.00
88.7069 583.00
89.0111 687.00
89.3154 542.00
89.6196 420.00
89.9239 382.00
90.2282 429.00
90.5324 543.00
90.8367 477.00
91.1409 410.00
91.4452 421.00
91.7495 444.00
92.0537 460.00
92.358 486.00
92.6622 418.00
92.9665 346.00
93.2708 359.00
93.575 369.00
93.8793 342.00
94.1835 276.00
94.4878 355.00
94.7921 387.00
95.0963 376.00
95.4006 427.00
95.7048 646.00
96.0091 615.00
96.3134 542.00
96.6176 502.00
96.9219 552.00
97.2261 517.00
97.5304 470.00
97.8347 371.00
98.1389 373.00
98.4432 340.00
98.7474 309.00
99.0517 308.00
99.356 301.00
99.6602 316.00
99.9645 306.00
100.095 313.00