File: data/xrd_creation/results/PG_2138-1.xy
9.903433 2722.00
10.2077 2705.00
10.512 2551.00
10.8162 2524.00
11.1205 2307.00
11.4247 2261.00
11.729 2150.00
12.0333 2234.00
12.3375 2210.00
12.6418 2180.00
12.946 2045.00
13.2503 1955.00
13.5546 1978.00
13.8588 1914.00
14.1631 1773.00
14.4673 1900.00
14.7716 1873.00
15.0759 1836.00
15.3801 1963.00
15.6844 2827.00
15.9886 8419.00
16.2929 2838.00
16.5972 1930.00
16.9014 1805.00
17.2057 1758.00
17.5099 1835.00
17.8142 1650.00
18.1185 1649.00
18.4227 1585.00
18.727 1553.00
19.0312 1499.00
19.3355 1539.00
19.6398 1477.00
19.944 1497.00
20.2483 1524.00
20.5525 1521.00
20.8568 1465.00
21.1611 1420.00
21.4653 1450.00
21.7696 1471.00
22.0738 1445.00
22.3781 1352.00
22.6824 1608.00
22.9866 7657.00
23.2909 1563.00
23.5951 1391.00
23.8994 1336.00
24.2037 1344.00
24.5079 1381.00
24.8122 1321.00
25.1164 1390.00
25.4207 1370.00
25.725 1323.00
26.0292 1421.00
26.3335 1312.00
26.6378 1321.00
26.942 1363.00
27.2463 1764.00
27.5505 5199.00
27.8548 3702.00
28.1591 4099.00
28.4633 7675.00
28.7676 6847.00
29.0718 2140.00
29.3761 3122.00
29.6804 1510.00
29.9846 1217.00
30.2889 1261.00
30.5931 1210.00
30.8974 1185.00
31.2017 1210.00
31.5059 1190.00
31.8102 1740.00
32.1144 1965.00
32.4187 1199.00
32.723 1126.00
33.0272 1150.00
33.3315 1100.00
33.6357 1010.00
33.94 1010.00
34.2443 982.00
34.5485 1016.00
34.8528 1052.00
35.157 1000.00
35.4613 996.00
35.7656 967.00
36.0698 1059.00
36.3741 1674.00
36.6783 1246.00
36.9826 3002.00
37.2869 1466.00
37.5911 1159.00
37.8954 906.00
38.1996 982.00
38.5039 979.00
38.8082 1029.00
39.1124 1090.00
39.4167 1417.00
39.7209 4032.00
40.0252 3782.00
40.3295 1260.00
40.6337 1040.00
40.938 947.00
41.2422 955.00
41.5465 895.00
41.8508 927.00
42.155 1039.00
42.4593 1436.00
42.7635 1601.00
43.0678 1116.00
43.3721 953.00
43.6763 920.00
43.9806 956.00
44.2849 852.00
44.5891 894.00
44.8934 936.00
45.1976 987.00
45.5019 1168.00
45.8062 908.00
46.1104 899.00
46.4147 1444.00
46.7189 1194.00
47.0232 972.00
47.3275 1401.00
47.6317 1543.00
47.936 1108.00
48.2402 1358.00
48.5445 2960.00
48.8488 3914.00
49.153 4217.00
49.4573 1550.00
49.7615 1171.00
50.0658 1554.00
50.3701 1771.00
50.6743 1035.00
50.9786 1119.00
51.2828 1826.00
51.5871 1058.00
51.8914 948.00
52.1956 844.00
52.4999 822.00
52.8041 901.00
53.1084 883.00
53.4127 863.00
53.7169 924.00
54.0212 878.00
54.3254 980.00
54.6297 844.00
54.934 908.00
55.2382 1193.00
55.5425 2632.00
55.8467 2160.00
56.151 1115.00
56.4553 1319.00
56.7595 1906.00
57.0638 1016.00
57.368 907.00
57.6723 912.00
57.9766 941.00
58.2808 1126.00
58.5851 922.00
58.8893 1259.00
59.1936 1302.00
59.4979 945.00
59.8021 809.00
60.1064 865.00
60.4106 971.00
60.7149 812.00
61.0192 831.00
61.3234 836.00
61.6277 836.00
61.932 797.00
62.2362 831.00
62.5405 942.00
62.8447 789.00
63.149 753.00
63.4533 833.00
63.7575 971.00
64.0618 1368.00
64.366 1828.00
64.6703 1231.00
64.9745 905.00
65.2788 1161.00
65.5831 1051.00
65.8873 920.00
66.1916 907.00
66.4959 929.00
66.8001 779.00
67.1044 826.00
67.4086 839.00
67.7129 783.00
68.0172 745.00
68.3214 735.00
68.6257 741.00
68.9299 823.00
69.2342 825.00
69.5385 847.00
69.8427 1247.00
70.147 1431.00
70.4512 1119.00
70.7555 1045.00
71.0598 1009.00
71.364 1233.00
71.6683 1040.00
71.9725 751.00
72.2768 832.00
72.5811 816.00
72.8853 842.00
73.1896 869.00
73.4938 778.00
73.7981 821.00
74.1024 726.00
74.4066 762.00
74.7109 727.00
75.0151 757.00
75.3194 815.00
75.6237 811.00
75.9279 975.00
76.2322 1177.00
76.5364 1194.00
76.8407 1171.00
77.145 1133.00
77.4492 1443.00
77.7535 1749.00
78.0577 1600.00
78.362 1087.00
78.6663 1001.00
78.9705 952.00
79.2748 951.00
79.579 858.00
79.8833 849.00
80.1876 739.00
80.4918 870.00
80.7961 823.00
81.1003 673.00
81.4046 740.00
81.7089 759.00
82.0131 802.00
82.3174 858.00
82.6217 1051.00
82.9259 942.00
83.2302 797.00
83.5344 704.00
83.8387 701.00
84.143 746.00
84.4472 705.00
84.7515 772.00
85.0557 868.00
85.36 829.00
85.6643 788.00
85.9685 827.00
86.2728 818.00
86.577 742.00
86.8813 731.00
87.1856 825.00
87.4898 743.00
87.7941 721.00
88.0983 706.00
88.4026 778.00
88.7069 875.00
89.0111 1071.00
89.3154 1001.00
89.6196 890.00
89.9239 860.00
90.2282 894.00
90.5324 979.00
90.8367 981.00
91.1409 843.00
91.4452 835.00
91.7495 892.00
92.0537 853.00
92.358 780.00
92.6622 775.00
92.9665 688.00
93.2708 739.00
93.575 732.00
93.8793 796.00
94.1835 760.00
94.4878 755.00
94.7921 753.00
95.0963 813.00
95.4006 884.00
95.7048 1040.00
96.0091 1068.00
96.3134 995.00
96.6176 1000.00
96.9219 950.00
97.2261 1062.00
97.5304 849.00
97.8347 849.00
98.1389 782.00
98.4432 780.00
98.7474 775.00
99.0517 798.00
99.356 756.00
99.6602 774.00
99.9645 761.00
100.095 831.00