File: data/xrd_creation/results/PG_2550-1.xy
9.903433 3092.00
10.2077 2904.00
10.512 2741.00
10.8162 2712.00
11.1205 2632.00
11.4247 2536.00
11.729 2533.00
12.0333 2538.00
12.3375 2378.00
12.6418 2368.00
12.946 2343.00
13.2503 2211.00
13.5546 2214.00
13.8588 2196.00
14.1631 2294.00
14.4673 2301.00
14.7716 2259.00
15.0759 2185.00
15.3801 2238.00
15.6844 2159.00
15.9886 2153.00
16.2929 2119.00
16.5972 2152.00
16.9014 2078.00
17.2057 2044.00
17.5099 2030.00
17.8142 2037.00
18.1185 1972.00
18.4227 1955.00
18.727 1870.00
19.0312 1826.00
19.3355 1922.00
19.6398 1933.00
19.944 1884.00
20.2483 1902.00
20.5525 2423.00
20.8568 6689.00
21.1611 1937.00
21.4653 1799.00
21.7696 1833.00
22.0738 1769.00
22.3781 1770.00
22.6824 1772.00
22.9866 1882.00
23.2909 1768.00
23.5951 1699.00
23.8994 1724.00
24.2037 1750.00
24.5079 1647.00
24.8122 1678.00
25.1164 1561.00
25.4207 1682.00
25.725 1647.00
26.0292 1614.00
26.3335 1620.00
26.6378 1816.00
26.942 1634.00
27.2463 1745.00
27.5505 1607.00
27.8548 1697.00
28.1591 1702.00
28.4633 1892.00
28.7676 2161.00
29.0718 3152.00
29.3761 25248.00
29.6804 5301.00
29.9846 2157.00
30.2889 1890.00
30.5931 1890.00
30.8974 1801.00
31.2017 1692.00
31.5059 1748.00
31.8102 1857.00
32.1144 1668.00
32.4187 1566.00
32.723 1572.00
33.0272 1670.00
33.3315 1738.00
33.6357 1929.00
33.94 3951.00
34.2443 5014.00
34.5485 1774.00
34.8528 1595.00
35.157 1592.00
35.4613 1576.00
35.7656 1612.00
36.0698 2173.00
36.3741 2074.00
36.6783 1556.00
36.9826 1592.00
37.2869 2170.00
37.5911 1715.00
37.8954 1544.00
38.1996 2079.00
38.5039 1554.00
38.8082 1527.00
39.1124 1493.00
39.4167 1551.00
39.7209 1568.00
40.0252 2320.00
40.3295 2099.00
40.6337 1543.00
40.938 1466.00
41.2422 1524.00
41.5465 1430.00
41.8508 1616.00
42.155 1555.00
42.4593 1536.00
42.7635 1676.00
43.0678 2817.00
43.3721 4583.00
43.6763 3072.00
43.9806 2289.00
44.2849 1552.00
44.5891 1519.00
44.8934 1460.00
45.1976 1485.00
45.5019 1463.00
45.8062 1484.00
46.1104 1441.00
46.4147 1454.00
46.7189 1573.00
47.0232 1777.00
47.3275 2209.00
47.6317 1503.00
47.936 1618.00
48.2402 1728.00
48.5445 2748.00
48.8488 23884.00
49.153 2389.00
49.4573 1649.00
49.7615 1611.00
50.0658 1620.00
50.3701 2318.00
50.6743 1507.00
50.9786 1520.00
51.2828 1480.00
51.5871 1419.00
51.8914 1662.00
52.1956 1565.00
52.4999 1449.00
52.8041 1470.00
53.1084 1513.00
53.4127 2751.00
53.7169 1983.00
54.0212 1501.00
54.3254 1449.00
54.6297 1526.00
54.934 1851.00
55.2382 1494.00
55.5425 1416.00
55.8467 1450.00
56.151 1627.00
56.4553 3760.00
56.7595 1646.00
57.0638 1487.00
57.368 1640.00
57.6723 2675.00
57.9766 9850.00
58.2808 2062.00
58.5851 1608.00
58.8893 1580.00
59.1936 2344.00
59.4979 3002.00
59.8021 1468.00
60.1064 1462.00
60.4106 1544.00
60.7149 4166.00
61.0192 1636.00
61.3234 1501.00
61.6277 1450.00
61.932 1578.00
62.2362 2110.00
62.5405 4673.00
62.8447 2094.00
63.149 1498.00
63.4533 2146.00
63.7575 1498.00
64.0618 1383.00
64.366 1489.00
64.6703 1736.00
64.9745 2307.00
65.2788 1435.00
65.5831 1441.00
65.8873 1423.00
66.1916 1817.00
66.4959 1381.00
66.8001 1355.00
67.1044 1376.00
67.4086 1456.00
67.7129 1417.00
68.0172 1310.00
68.3214 1349.00
68.6257 1365.00
68.9299 1391.00
69.2342 1409.00
69.5385 1340.00
69.8427 1549.00
70.147 1801.00
70.4512 1371.00
70.7555 1378.00
71.0598 1519.00
71.364 3104.00
71.6683 1612.00
71.9725 1370.00
72.2768 1447.00
72.5811 3225.00
72.8853 1718.00
73.1896 1454.00
73.4938 1424.00
73.7981 1992.00
74.1024 1756.00
74.4066 1386.00
74.7109 1382.00
75.0151 2041.00
75.3194 1907.00
75.6237 1367.00
75.9279 1336.00
76.2322 1483.00
76.5364 1681.00
76.8407 1356.00
77.145 1404.00
77.4492 1684.00
77.7535 2057.00
78.0577 1484.00
78.362 1459.00
78.6663 2071.00
78.9705 2980.00
79.2748 1567.00
79.579 1310.00
79.8833 1393.00
80.1876 1358.00
80.4918 1373.00
80.7961 1293.00
81.1003 1693.00
81.4046 2000.00
81.7089 1475.00
82.0131 1373.00
82.3174 1372.00
82.6217 1432.00
82.9259 1324.00
83.2302 1336.00
83.5344 1368.00
83.8387 1513.00
84.143 1475.00
84.4472 1347.00
84.7515 1515.00
85.0557 1687.00
85.36 1436.00
85.6643 1376.00
85.9685 1363.00
86.2728 1278.00
86.577 1418.00
86.8813 1340.00
87.1856 1529.00
87.4898 1550.00
87.7941 1409.00
88.0983 1370.00
88.4026 1355.00
88.7069 1277.00
89.0111 1307.00
89.3154 1406.00
89.6196 1545.00
89.9239 1704.00
90.2282 1462.00
90.5324 1439.00
90.8367 1964.00
91.1409 2003.00
91.4452 1650.00
91.7495 1413.00
92.0537 1666.00
92.358 1646.00
92.6622 1407.00
92.9665 1338.00
93.2708 1595.00
93.575 1482.00
93.8793 1468.00
94.1835 1660.00
94.4878 1557.00
94.7921 1486.00
95.0963 1394.00
95.4006 1437.00
95.7048 1867.00
96.0091 1742.00
96.3134 1524.00
96.6176 1369.00
96.9219 1485.00
97.2261 1470.00
97.5304 1403.00
97.8347 1332.00
98.1389 2249.00
98.4432 1963.00
98.7474 1509.00
99.0517 1409.00
99.356 1917.00
99.6602 1720.00
99.9645 1404.00
100.095 1432.00