File: data/xrd_creation/results/PG_2634-1.xy
9.903433 3101.00
10.2077 2993.00
10.512 2941.00
10.8162 2986.00
11.1205 2896.00
11.4247 2810.00
11.729 2695.00
12.0333 2681.00
12.3375 2683.00
12.6418 2569.00
12.946 2596.00
13.2503 2553.00
13.5546 2504.00
13.8588 2411.00
14.1631 2344.00
14.4673 2316.00
14.7716 2307.00
15.0759 2319.00
15.3801 2290.00
15.6844 2313.00
15.9886 2335.00
16.2929 2429.00
16.5972 3497.00
16.9014 3742.00
17.2057 2264.00
17.5099 2243.00
17.8142 2235.00
18.1185 2280.00
18.4227 2190.00
18.727 2191.00
19.0312 2205.00
19.3355 2240.00
19.6398 2100.00
19.944 2122.00
20.2483 2067.00
20.5525 2096.00
20.8568 2118.00
21.1611 2064.00
21.4653 2048.00
21.7696 2048.00
22.0738 2050.00
22.3781 2069.00
22.6824 2073.00
22.9866 1997.00
23.2909 2014.00
23.5951 2559.00
23.8994 3319.00
24.2037 2098.00
24.5079 2028.00
24.8122 2077.00
25.1164 1982.00
25.4207 1968.00
25.725 1965.00
26.0292 1950.00
26.3335 1994.00
26.6378 2036.00
26.942 1888.00
27.2463 1994.00
27.5505 2028.00
27.8548 1966.00
28.1591 2011.00
28.4633 1915.00
28.7676 2043.00
29.0718 4018.00
29.3761 2934.00
29.6804 1942.00
29.9846 2006.00
30.2889 1914.00
30.5931 1911.00
30.8974 1840.00
31.2017 1916.00
31.5059 1798.00
31.8102 1933.00
32.1144 1886.00
32.4187 1923.00
32.723 1900.00
33.0272 1884.00
33.3315 1933.00
33.6357 1994.00
33.94 2177.00
34.2443 1904.00
34.5485 1936.00
34.8528 2773.00
35.157 3921.00
35.4613 1959.00
35.7656 1859.00
36.0698 1819.00
36.3741 1893.00
36.6783 1904.00
36.9826 1808.00
37.2869 1846.00
37.5911 1697.00
37.8954 1938.00
38.1996 1842.00
38.5039 1733.00
38.8082 1738.00
39.1124 1797.00
39.4167 1769.00
39.7209 1759.00
40.0252 1856.00
40.3295 2268.00
40.6337 5149.00
40.938 3148.00
41.2422 1891.00
41.5465 1853.00
41.8508 1783.00
42.155 1804.00
42.4593 1776.00
42.7635 1742.00
43.0678 1744.00
43.3721 1730.00
43.6763 1828.00
43.9806 1698.00
44.2849 1719.00
44.5891 1740.00
44.8934 1874.00
45.1976 2757.00
45.5019 2059.00
45.8062 1735.00
46.1104 1663.00
46.4147 1766.00
46.7189 1662.00
47.0232 1693.00
47.3275 1667.00
47.6317 1714.00
47.936 1728.00
48.2402 1738.00
48.5445 1737.00
48.8488 1720.00
49.153 1655.00
49.4573 1658.00
49.7615 1735.00
50.0658 1754.00
50.3701 1790.00
50.6743 1771.00
50.9786 1702.00
51.2828 1802.00
51.5871 1847.00
51.8914 1706.00
52.1956 1680.00
52.4999 1769.00
52.8041 1745.00
53.1084 1732.00
53.4127 1697.00
53.7169 1727.00
54.0212 1760.00
54.3254 1660.00
54.6297 1915.00
54.934 1764.00
55.2382 1693.00
55.5425 1646.00
55.8467 1665.00
56.151 1635.00
56.4553 1735.00
56.7595 1682.00
57.0638 1693.00
57.368 1817.00
57.6723 1949.00
57.9766 1785.00
58.2808 1789.00
58.5851 2566.00
58.8893 3615.00
59.1936 2146.00
59.4979 1743.00
59.8021 1630.00
60.1064 1756.00
60.4106 1749.00
60.7149 1677.00
61.0192 1702.00
61.3234 1653.00
61.6277 1755.00
61.932 1713.00
62.2362 1696.00
62.5405 1668.00
62.8447 1708.00
63.149 1857.00
63.4533 1732.00
63.7575 1721.00
64.0618 1660.00
64.366 1718.00
64.6703 1740.00
64.9745 1732.00
65.2788 1642.00
65.5831 1758.00
65.8873 1646.00
66.1916 1703.00
66.4959 1771.00
66.8001 1640.00
67.1044 1609.00
67.4086 1657.00
67.7129 1687.00
68.0172 1745.00
68.3214 1750.00
68.6257 1784.00
68.9299 1656.00
69.2342 1674.00
69.5385 1757.00
69.8427 1789.00
70.147 2263.00
70.4512 2269.00
70.7555 1875.00
71.0598 1839.00
71.364 1767.00
71.6683 1748.00
71.9725 1617.00
72.2768 1633.00
72.5811 1688.00
72.8853 1643.00
73.1896 1675.00
73.4938 1803.00
73.7981 2162.00
74.1024 2008.00
74.4066 1674.00
74.7109 1647.00
75.0151 1635.00
75.3194 1717.00
75.6237 1712.00
75.9279 1777.00
76.2322 1832.00
76.5364 1752.00
76.8407 1720.00
77.145 1699.00
77.4492 1617.00
77.7535 1684.00
78.0577 1665.00
78.362 1775.00
78.6663 1791.00
78.9705 1689.00
79.2748 1629.00
79.579 1693.00
79.8833 1662.00
80.1876 1673.00
80.4918 1691.00
80.7961 1638.00
81.1003 1650.00
81.4046 1630.00
81.7089 1680.00
82.0131 1677.00
82.3174 1657.00
82.6217 1629.00
82.9259 1640.00
83.2302 1749.00
83.5344 1685.00
83.8387 1701.00
84.143 1584.00
84.4472 1717.00
84.7515 1612.00
85.0557 1654.00
85.36 1625.00
85.6643 1643.00
85.9685 1637.00
86.2728 1633.00
86.577 1620.00
86.8813 1562.00
87.1856 1593.00
87.4898 1753.00
87.7941 1913.00
88.0983 1861.00
88.4026 1791.00
88.7069 1654.00
89.0111 1702.00
89.3154 1666.00
89.6196 1639.00
89.9239 1623.00
90.2282 1622.00
90.5324 1672.00
90.8367 1647.00
91.1409 1624.00
91.4452 1643.00
91.7495 1705.00
92.0537 1582.00
92.358 1611.00
92.6622 1651.00
92.9665 1713.00
93.2708 1771.00
93.575 1735.00
93.8793 1704.00
94.1835 1665.00
94.4878 1656.00
94.7921 1619.00
95.0963 1729.00
95.4006 1714.00
95.7048 1702.00
96.0091 1621.00
96.3134 1652.00
96.6176 1602.00
96.9219 1679.00
97.2261 1701.00
97.5304 1721.00
97.8347 1755.00
98.1389 1922.00
98.4432 1843.00
98.7474 1798.00
99.0517 1737.00
99.356 1741.00
99.6602 1629.00
99.9645 1690.00
100.095 1706.00