File: data/xrd_creation/results/PG_2046-1.xy
9.903433 2588.00
10.2077 2643.00
10.512 2449.00
10.8162 2427.00
11.1205 2413.00
11.4247 2259.00
11.729 2144.00
12.0333 2127.00
12.3375 2064.00
12.6418 1900.00
12.946 1908.00
13.2503 1856.00
13.5546 1878.00
13.8588 1692.00
14.1631 1715.00
14.4673 1785.00
14.7716 1649.00
15.0759 1616.00
15.3801 1600.00
15.6844 1541.00
15.9886 1591.00
16.2929 1559.00
16.5972 1454.00
16.9014 1435.00
17.2057 1495.00
17.5099 1798.00
17.8142 1987.00
18.1185 1214.00
18.4227 1270.00
18.727 1238.00
19.0312 1274.00
19.3355 1217.00
19.6398 1174.00
19.944 1146.00
20.2483 1143.00
20.5525 1154.00
20.8568 1076.00
21.1611 1071.00
21.4653 1070.00
21.7696 1008.00
22.0738 1062.00
22.3781 983.00
22.6824 979.00
22.9866 960.00
23.2909 990.00
23.5951 1089.00
23.8994 1533.00
24.2037 16816.00
24.5079 1161.00
24.8122 1077.00
25.1164 1288.00
25.4207 3113.00
25.725 6933.00
26.0292 1035.00
26.3335 952.00
26.6378 878.00
26.942 795.00
27.2463 785.00
27.5505 762.00
27.8548 790.00
28.1591 743.00
28.4633 710.00
28.7676 680.00
29.0718 671.00
29.3761 697.00
29.6804 770.00
29.9846 2717.00
30.2889 709.00
30.5931 831.00
30.8974 3466.00
31.2017 1337.00
31.5059 618.00
31.8102 639.00
32.1144 639.00
32.4187 621.00
32.723 584.00
33.0272 559.00
33.3315 571.00
33.6357 568.00
33.94 564.00
34.2443 2915.00
34.5485 655.00
34.8528 569.00
35.157 559.00
35.4613 1175.00
35.7656 523.00
36.0698 525.00
36.3741 527.00
36.6783 442.00
36.9826 528.00
37.2869 1380.00
37.5911 600.00
37.8954 864.00
38.1996 2340.00
38.5039 1053.00
38.8082 2332.00
39.1124 536.00
39.4167 421.00
39.7209 457.00
40.0252 414.00
40.3295 404.00
40.6337 456.00
40.938 1189.00
41.2422 413.00
41.5465 426.00
41.8508 379.00
42.155 388.00
42.4593 371.00
42.7635 361.00
43.0678 367.00
43.3721 368.00
43.6763 340.00
43.9806 341.00
44.2849 371.00
44.5891 376.00
44.8934 372.00
45.1976 357.00
45.5019 416.00
45.8062 442.00
46.1104 1313.00
46.4147 520.00
46.7189 6205.00
47.0232 598.00
47.3275 363.00
47.6317 382.00
47.936 1086.00
48.2402 2238.00
48.5445 1001.00
48.8488 438.00
49.153 561.00
49.4573 314.00
49.7615 326.00
50.0658 303.00
50.3701 360.00
50.6743 269.00
50.9786 310.00
51.2828 336.00
51.5871 318.00
51.8914 341.00
52.1956 295.00
52.4999 495.00
52.8041 330.00
53.1084 325.00
53.4127 329.00
53.7169 379.00
54.0212 791.00
54.3254 1862.00
54.6297 428.00
54.934 391.00
55.2382 1451.00
55.5425 1399.00
55.8467 358.00
56.151 335.00
56.4553 267.00
56.7595 298.00
57.0638 275.00
57.368 257.00
57.6723 284.00
57.9766 301.00
58.2808 276.00
58.5851 675.00
58.8893 448.00
59.1936 854.00
59.4979 303.00
59.8021 292.00
60.1064 677.00
60.4106 274.00
60.7149 290.00
61.0192 282.00
61.3234 258.00
61.6277 226.00
61.932 336.00
62.2362 349.00
62.5405 553.00
62.8447 857.00
63.149 1241.00
63.4533 281.00
63.7575 297.00
64.0618 557.00
64.366 678.00
64.6703 265.00
64.9745 261.00
65.2788 235.00
65.5831 286.00
65.8873 237.00
66.1916 249.00
66.4959 250.00
66.8001 256.00
67.1044 280.00
67.4086 241.00
67.7129 240.00
68.0172 215.00
68.3214 224.00
68.6257 305.00
68.9299 608.00
69.2342 641.00
69.5385 262.00
69.8427 465.00
70.147 1010.00
70.4512 655.00
70.7555 717.00
71.0598 275.00
71.364 237.00
71.6683 281.00
71.9725 404.00
72.2768 234.00
72.5811 231.00
72.8853 217.00
73.1896 218.00
73.4938 198.00
73.7981 264.00
74.1024 237.00
74.4066 314.00
74.7109 1518.00
75.0151 406.00
75.3194 1535.00
75.6237 447.00
75.9279 311.00
76.2322 549.00
76.5364 361.00
76.8407 366.00
77.145 319.00
77.4492 223.00
77.7535 215.00
78.0577 246.00
78.362 206.00
78.6663 232.00
78.9705 233.00
79.2748 211.00
79.579 383.00
79.8833 466.00
80.1876 421.00
80.4918 271.00
80.7961 227.00
81.1003 229.00
81.4046 218.00
81.7089 248.00
82.0131 307.00
82.3174 311.00
82.6217 373.00
82.9259 931.00
83.2302 452.00
83.5344 338.00
83.8387 262.00
84.143 216.00
84.4472 209.00
84.7515 186.00
85.0557 191.00
85.36 168.00
85.6643 501.00
85.9685 367.00
86.2728 186.00
86.577 209.00
86.8813 202.00
87.1856 214.00
87.4898 205.00
87.7941 186.00
88.0983 179.00
88.4026 177.00
88.7069 196.00
89.0111 162.00
89.3154 226.00
89.6196 172.00
89.9239 202.00
90.2282 176.00
90.5324 200.00
90.8367 186.00
91.1409 203.00
91.4452 187.00
91.7495 184.00
92.0537 167.00
92.358 187.00
92.6622 163.00
92.9665 173.00
93.2708 211.00
93.575 212.00
93.8793 226.00
94.1835 241.00
94.4878 514.00
94.7921 361.00
95.0963 230.00
95.4006 736.00
95.7048 530.00
96.0091 226.00
96.3134 211.00
96.6176 329.00
96.9219 389.00
97.2261 207.00
97.5304 214.00
97.8347 194.00
98.1389 207.00
98.4432 331.00
98.7474 257.00
99.0517 239.00
99.356 411.00
99.6602 568.00
99.9645 423.00
100.095 558.00