File: data/xrd_creation/results/PG_2241-1.xy
9.903433 2713.00
10.2077 2519.00
10.512 2435.00
10.8162 2403.00
11.1205 2333.00
11.4247 2230.00
11.729 2114.00
12.0333 2057.00
12.3375 2103.00
12.6418 1976.00
12.946 1975.00
13.2503 1923.00
13.5546 1895.00
13.8588 2708.00
14.1631 3005.00
14.4673 1776.00
14.7716 1763.00
15.0759 1707.00
15.3801 1689.00
15.6844 1565.00
15.9886 1568.00
16.2929 1623.00
16.5972 1530.00
16.9014 1603.00
17.2057 1517.00
17.5099 1515.00
17.8142 1504.00
18.1185 1433.00
18.4227 1422.00
18.727 1376.00
19.0312 1343.00
19.3355 1371.00
19.6398 1554.00
19.944 1325.00
20.2483 1299.00
20.5525 1275.00
20.8568 1243.00
21.1611 1192.00
21.4653 1259.00
21.7696 1377.00
22.0738 1148.00
22.3781 1131.00
22.6824 1076.00
22.9866 1093.00
23.2909 1074.00
23.5951 1113.00
23.8994 1065.00
24.2037 1101.00
24.5079 1092.00
24.8122 945.00
25.1164 1010.00
25.4207 1049.00
25.725 1219.00
26.0292 1063.00
26.3335 1008.00
26.6378 947.00
26.942 1072.00
27.2463 1244.00
27.5505 1656.00
27.8548 9652.00
28.1591 6337.00
28.4633 1627.00
28.7676 1980.00
29.0718 1130.00
29.3761 992.00
29.6804 1013.00
29.9846 960.00
30.2889 921.00
30.5931 971.00
30.8974 1282.00
31.2017 938.00
31.5059 951.00
31.8102 1092.00
32.1144 2180.00
32.4187 17898.00
32.723 1234.00
33.0272 966.00
33.3315 877.00
33.6357 786.00
33.94 739.00
34.2443 893.00
34.5485 819.00
34.8528 746.00
35.157 1019.00
35.4613 2947.00
35.7656 746.00
36.0698 652.00
36.3741 1247.00
36.6783 653.00
36.9826 656.00
37.2869 907.00
37.5911 580.00
37.8954 593.00
38.1996 598.00
38.5039 615.00
38.8082 591.00
39.1124 552.00
39.4167 630.00
39.7209 665.00
40.0252 835.00
40.3295 620.00
40.6337 572.00
40.938 508.00
41.2422 565.00
41.5465 565.00
41.8508 515.00
42.155 577.00
42.4593 1213.00
42.7635 523.00
43.0678 513.00
43.3721 471.00
43.6763 548.00
43.9806 475.00
44.2849 534.00
44.5891 625.00
44.8934 536.00
45.1976 532.00
45.5019 579.00
45.8062 750.00
46.1104 1756.00
46.4147 10642.00
46.7189 888.00
47.0232 595.00
47.3275 774.00
47.6317 524.00
47.936 513.00
48.2402 521.00
48.5445 1306.00
48.8488 492.00
49.153 644.00
49.4573 471.00
49.7615 436.00
50.0658 536.00
50.3701 571.00
50.6743 567.00
50.9786 637.00
51.2828 490.00
51.5871 415.00
51.8914 458.00
52.1956 434.00
52.4999 431.00
52.8041 460.00
53.1084 441.00
53.4127 495.00
53.7169 499.00
54.0212 579.00
54.3254 708.00
54.6297 1555.00
54.934 8252.00
55.2382 957.00
55.5425 560.00
55.8467 525.00
56.151 481.00
56.4553 461.00
56.7595 542.00
57.0638 653.00
57.368 1565.00
57.6723 1735.00
57.9766 609.00
58.2808 485.00
58.5851 475.00
58.8893 517.00
59.1936 760.00
59.4979 1619.00
59.8021 560.00
60.1064 491.00
60.4106 413.00
60.7149 425.00
61.0192 427.00
61.3234 469.00
61.6277 453.00
61.932 396.00
62.2362 412.00
62.5405 458.00
62.8447 389.00
63.149 382.00
63.4533 423.00
63.7575 434.00
64.0618 419.00
64.366 2009.00
64.6703 505.00
64.9745 389.00
65.2788 355.00
65.5831 329.00
65.8873 405.00
66.1916 406.00
66.4959 369.00
66.8001 366.00
67.1044 502.00
67.4086 1386.00
67.7129 478.00
68.0172 348.00
68.3214 398.00
68.6257 383.00
68.9299 481.00
69.2342 926.00
69.5385 416.00
69.8427 335.00
70.147 346.00
70.4512 345.00
70.7555 369.00
71.0598 363.00
71.364 329.00
71.6683 356.00
71.9725 563.00
72.2768 501.00
72.5811 348.00
72.8853 363.00
73.1896 341.00
73.4938 393.00
73.7981 638.00
74.1024 736.00
74.4066 1724.00
74.7109 601.00
75.0151 427.00
75.3194 375.00
75.6237 360.00
75.9279 414.00
76.2322 513.00
76.5364 3635.00
76.8407 1617.00
77.145 465.00
77.4492 356.00
77.7535 410.00
78.0577 482.00
78.362 576.00
78.6663 438.00
78.9705 369.00
79.2748 362.00
79.579 361.00
79.8833 344.00
80.1876 374.00
80.4918 334.00
80.7961 345.00
81.1003 353.00
81.4046 362.00
81.7089 395.00
82.0131 350.00
82.3174 356.00
82.6217 575.00
82.9259 593.00
83.2302 347.00
83.5344 310.00
83.8387 286.00
84.143 314.00
84.4472 324.00
84.7515 341.00
85.0557 429.00
85.36 1445.00
85.6643 1342.00
85.9685 379.00
86.2728 358.00
86.577 339.00
86.8813 379.00
87.1856 445.00
87.4898 348.00
87.7941 325.00
88.0983 328.00
88.4026 338.00
88.7069 315.00
89.0111 318.00
89.3154 310.00
89.6196 334.00
89.9239 365.00
90.2282 352.00
90.5324 334.00
90.8367 385.00
91.1409 446.00
91.4452 1912.00
91.7495 1229.00
92.0537 1364.00
92.358 805.00
92.6622 388.00
92.9665 344.00
93.2708 341.00
93.575 303.00
93.8793 322.00
94.1835 306.00
94.4878 315.00
94.7921 329.00
95.0963 350.00
95.4006 345.00
95.7048 469.00
96.0091 432.00
96.3134 414.00
96.6176 344.00
96.9219 308.00
97.2261 324.00
97.5304 304.00
97.8347 311.00
98.1389 291.00
98.4432 271.00
98.7474 295.00
99.0517 320.00
99.356 318.00
99.6602 317.00
99.9645 318.00
100.095 480.00