File: data/xrd_creation/results/PG_2452-1.xy
9.903433 2429.00
10.2077 2498.00
10.512 2345.00
10.8162 2259.00
11.1205 2186.00
11.4247 2050.00
11.729 2002.00
12.0333 1913.00
12.3375 1769.00
12.6418 1639.00
12.946 1647.00
13.2503 1667.00
13.5546 1536.00
13.8588 1468.00
14.1631 1333.00
14.4673 1391.00
14.7716 1336.00
15.0759 1352.00
15.3801 1337.00
15.6844 1317.00
15.9886 1220.00
16.2929 1205.00
16.5972 1229.00
16.9014 1158.00
17.2057 1098.00
17.5099 1105.00
17.8142 1084.00
18.1185 1031.00
18.4227 1024.00
18.727 1035.00
19.0312 1023.00
19.3355 963.00
19.6398 1020.00
19.944 967.00
20.2483 936.00
20.5525 921.00
20.8568 912.00
21.1611 882.00
21.4653 847.00
21.7696 871.00
22.0738 832.00
22.3781 849.00
22.6824 798.00
22.9866 800.00
23.2909 748.00
23.5951 753.00
23.8994 745.00
24.2037 729.00
24.5079 705.00
24.8122 683.00
25.1164 742.00
25.4207 666.00
25.725 685.00
26.0292 710.00
26.3335 758.00
26.6378 711.00
26.942 654.00
27.2463 712.00
27.5505 699.00
27.8548 682.00
28.1591 648.00
28.4633 647.00
28.7676 595.00
29.0718 664.00
29.3761 580.00
29.6804 605.00
29.9846 604.00
30.2889 576.00
30.5931 546.00
30.8974 522.00
31.2017 533.00
31.5059 600.00
31.8102 547.00
32.1144 499.00
32.4187 505.00
32.723 482.00
33.0272 526.00
33.3315 523.00
33.6357 547.00
33.94 476.00
34.2443 453.00
34.5485 508.00
34.8528 447.00
35.157 470.00
35.4613 411.00
35.7656 456.00
36.0698 421.00
36.3741 423.00
36.6783 415.00
36.9826 415.00
37.2869 419.00
37.5911 447.00
37.8954 401.00
38.1996 406.00
38.5039 374.00
38.8082 401.00
39.1124 331.00
39.4167 358.00
39.7209 350.00
40.0252 373.00
40.3295 419.00
40.6337 368.00
40.938 344.00
41.2422 340.00
41.5465 360.00
41.8508 354.00
42.155 339.00
42.4593 329.00
42.7635 339.00
43.0678 362.00
43.3721 313.00
43.6763 303.00
43.9806 320.00
44.2849 324.00
44.5891 315.00
44.8934 341.00
45.1976 327.00
45.5019 303.00
45.8062 340.00
46.1104 301.00
46.4147 301.00
46.7189 282.00
47.0232 312.00
47.3275 290.00
47.6317 287.00
47.936 307.00
48.2402 294.00
48.5445 321.00
48.8488 292.00
49.153 295.00
49.4573 289.00
49.7615 312.00
50.0658 302.00
50.3701 270.00
50.6743 291.00
50.9786 274.00
51.2828 279.00
51.5871 323.00
51.8914 282.00
52.1956 293.00
52.4999 260.00
52.8041 273.00
53.1084 256.00
53.4127 249.00
53.7169 281.00
54.0212 256.00
54.3254 249.00
54.6297 258.00
54.934 276.00
55.2382 243.00
55.5425 271.00
55.8467 264.00
56.151 249.00
56.4553 241.00
56.7595 217.00
57.0638 207.00
57.368 239.00
57.6723 244.00
57.9766 196.00
58.2808 235.00
58.5851 225.00
58.8893 234.00
59.1936 236.00
59.4979 210.00
59.8021 223.00
60.1064 230.00
60.4106 210.00
60.7149 204.00
61.0192 217.00
61.3234 200.00
61.6277 221.00
61.932 230.00
62.2362 182.00
62.5405 216.00
62.8447 208.00
63.149 205.00
63.4533 167.00
63.7575 246.00
64.0618 223.00
64.366 164.00
64.6703 230.00
64.9745 218.00
65.2788 237.00
65.5831 198.00
65.8873 218.00
66.1916 169.00
66.4959 212.00
66.8001 200.00
67.1044 165.00
67.4086 216.00
67.7129 221.00
68.0172 195.00
68.3214 212.00
68.6257 211.00
68.9299 192.00
69.2342 211.00
69.5385 197.00
69.8427 195.00
70.147 193.00
70.4512 188.00
70.7555 185.00
71.0598 173.00
71.364 227.00
71.6683 221.00
71.9725 230.00
72.2768 217.00
72.5811 199.00
72.8853 215.00
73.1896 185.00
73.4938 234.00
73.7981 207.00
74.1024 199.00
74.4066 207.00
74.7109 219.00
75.0151 196.00
75.3194 204.00
75.6237 231.00
75.9279 220.00
76.2322 216.00
76.5364 210.00
76.8407 200.00
77.145 203.00
77.4492 189.00
77.7535 209.00
78.0577 231.00
78.362 194.00
78.6663 235.00
78.9705 238.00
79.2748 201.00
79.579 213.00
79.8833 222.00
80.1876 279.00
80.4918 234.00
80.7961 236.00
81.1003 242.00
81.4046 223.00
81.7089 200.00
82.0131 216.00
82.3174 222.00
82.6217 236.00
82.9259 247.00
83.2302 236.00
83.5344 210.00
83.8387 215.00
84.143 228.00
84.4472 234.00
84.7515 243.00
85.0557 215.00
85.36 203.00
85.6643 221.00
85.9685 217.00
86.2728 197.00
86.577 212.00
86.8813 201.00
87.1856 188.00
87.4898 221.00
87.7941 186.00
88.0983 190.00
88.4026 220.00
88.7069 201.00
89.0111 234.00
89.3154 208.00
89.6196 174.00
89.9239 199.00
90.2282 179.00
90.5324 206.00
90.8367 198.00
91.1409 220.00
91.4452 202.00
91.7495 197.00
92.0537 187.00
92.358 195.00
92.6622 174.00
92.9665 195.00
93.2708 208.00
93.575 225.00
93.8793 205.00
94.1835 187.00
94.4878 180.00
94.7921 185.00
95.0963 187.00
95.4006 200.00
95.7048 205.00
96.0091 220.00
96.3134 186.00
96.6176 197.00
96.9219 199.00
97.2261 185.00
97.5304 153.00
97.8347 181.00
98.1389 187.00
98.4432 187.00
98.7474 195.00
99.0517 208.00
99.356 188.00
99.6602 187.00
99.9645 179.00
100.095 188.00