File: data/xrd_creation/results/PG_2534-1.xy
9.903433 3149.00
10.2077 3025.00
10.512 2877.00
10.8162 2743.00
11.1205 2688.00
11.4247 2634.00
11.729 2542.00
12.0333 2559.00
12.3375 2450.00
12.6418 2405.00
12.946 2348.00
13.2503 2290.00
13.5546 2226.00
13.8588 2362.00
14.1631 2438.00
14.4673 2375.00
14.7716 2114.00
15.0759 2121.00
15.3801 2205.00
15.6844 1996.00
15.9886 2050.00
16.2929 2276.00
16.5972 3955.00
16.9014 24481.00
17.2057 3413.00
17.5099 2136.00
17.8142 1941.00
18.1185 1963.00
18.4227 1713.00
18.727 1899.00
19.0312 1905.00
19.3355 1761.00
19.6398 1662.00
19.944 1645.00
20.2483 1616.00
20.5525 1621.00
20.8568 1552.00
21.1611 1547.00
21.4653 1573.00
21.7696 1563.00
22.0738 1489.00
22.3781 1509.00
22.6824 1380.00
22.9866 1401.00
23.2909 1495.00
23.5951 1872.00
23.8994 9536.00
24.2037 3569.00
24.5079 1433.00
24.8122 1379.00
25.1164 1338.00
25.4207 1358.00
25.725 1297.00
26.0292 1239.00
26.3335 1258.00
26.6378 1305.00
26.942 1241.00
27.2463 1204.00
27.5505 1255.00
27.8548 1168.00
28.1591 1279.00
28.4633 1384.00
28.7676 1679.00
29.0718 5260.00
29.3761 30615.00
29.6804 1908.00
29.9846 1270.00
30.2889 1174.00
30.5931 1140.00
30.8974 1130.00
31.2017 1055.00
31.5059 1092.00
31.8102 1042.00
32.1144 1021.00
32.4187 970.00
32.723 986.00
33.0272 953.00
33.3315 1019.00
33.6357 1234.00
33.94 4391.00
34.2443 1796.00
34.5485 893.00
34.8528 848.00
35.157 856.00
35.4613 838.00
35.7656 797.00
36.0698 789.00
36.3741 825.00
36.6783 815.00
36.9826 1066.00
37.2869 2184.00
37.5911 789.00
37.8954 1087.00
38.1996 2877.00
38.5039 841.00
38.8082 761.00
39.1124 769.00
39.4167 716.00
39.7209 683.00
40.0252 698.00
40.3295 754.00
40.6337 647.00
40.938 693.00
41.2422 703.00
41.5465 681.00
41.8508 747.00
42.155 743.00
42.4593 785.00
42.7635 1514.00
43.0678 7648.00
43.3721 7439.00
43.6763 940.00
43.9806 796.00
44.2849 709.00
44.5891 681.00
44.8934 956.00
45.1976 3742.00
45.5019 7941.00
45.8062 860.00
46.1104 628.00
46.4147 673.00
46.7189 669.00
47.0232 621.00
47.3275 619.00
47.6317 647.00
47.936 595.00
48.2402 587.00
48.5445 619.00
48.8488 560.00
49.153 528.00
49.4573 533.00
49.7615 538.00
50.0658 523.00
50.3701 501.00
50.6743 563.00
50.9786 546.00
51.2828 549.00
51.5871 927.00
51.8914 1205.00
52.1956 554.00
52.4999 503.00
52.8041 517.00
53.1084 519.00
53.4127 518.00
53.7169 511.00
54.0212 481.00
54.3254 631.00
54.6297 1344.00
54.934 1303.00
55.2382 603.00
55.5425 506.00
55.8467 580.00
56.151 476.00
56.4553 535.00
56.7595 464.00
57.0638 513.00
57.368 735.00
57.6723 2369.00
57.9766 1223.00
58.2808 509.00
58.5851 511.00
58.8893 447.00
59.1936 457.00
59.4979 432.00
59.8021 486.00
60.1064 699.00
60.4106 1557.00
60.7149 688.00
61.0192 492.00
61.3234 536.00
61.6277 474.00
61.932 576.00
62.2362 1625.00
62.5405 6176.00
62.8447 2090.00
63.149 1187.00
63.4533 1625.00
63.7575 525.00
64.0618 472.00
64.366 409.00
64.6703 418.00
64.9745 429.00
65.2788 458.00
65.5831 428.00
65.8873 409.00
66.1916 388.00
66.4959 416.00
66.8001 420.00
67.1044 426.00
67.4086 409.00
67.7129 439.00
68.0172 454.00
68.3214 663.00
68.6257 1251.00
68.9299 707.00
69.2342 439.00
69.5385 393.00
69.8427 433.00
70.147 451.00
70.4512 461.00
70.7555 698.00
71.0598 1681.00
71.364 801.00
71.6683 414.00
71.9725 394.00
72.2768 410.00
72.5811 412.00
72.8853 447.00
73.1896 474.00
73.4938 619.00
73.7981 580.00
74.1024 452.00
74.4066 415.00
74.7109 681.00
75.0151 971.00
75.3194 512.00
75.6237 447.00
75.9279 755.00
76.2322 766.00
76.5364 497.00
76.8407 411.00
77.145 422.00
77.4492 382.00
77.7535 369.00
78.0577 551.00
78.362 883.00
78.6663 1812.00
78.9705 1764.00
79.2748 600.00
79.579 408.00
79.8833 365.00
80.1876 395.00
80.4918 384.00
80.7961 395.00
81.1003 629.00
81.4046 599.00
81.7089 398.00
82.0131 363.00
82.3174 369.00
82.6217 364.00
82.9259 376.00
83.2302 526.00
83.5344 521.00
83.8387 411.00
84.143 319.00
84.4472 352.00
84.7515 333.00
85.0557 346.00
85.36 318.00
85.6643 363.00
85.9685 333.00
86.2728 345.00
86.577 326.00
86.8813 344.00
87.1856 354.00
87.4898 378.00
87.7941 588.00
88.0983 596.00
88.4026 815.00
88.7069 562.00
89.0111 363.00
89.3154 325.00
89.6196 317.00
89.9239 321.00
90.2282 350.00
90.5324 366.00
90.8367 359.00
91.1409 324.00
91.4452 338.00
91.7495 319.00
92.0537 369.00
92.358 333.00
92.6622 390.00
92.9665 534.00
93.2708 573.00
93.575 442.00
93.8793 479.00
94.1835 873.00
94.4878 682.00
94.7921 421.00
95.0963 343.00
95.4006 446.00
95.7048 511.00
96.0091 431.00
96.3134 346.00
96.6176 364.00
96.9219 331.00
97.2261 392.00
97.5304 517.00
97.8347 583.00
98.1389 883.00
98.4432 546.00
98.7474 356.00
99.0517 314.00
99.356 327.00
99.6602 320.00
99.9645 341.00
100.095 356.00