File: data/xrd_creation/results/PG_2039-1.xy
9.903433 3797.00
10.2077 3668.00
10.512 3648.00
10.8162 3561.00
11.1205 3572.00
11.4247 3533.00
11.729 3545.00
12.0333 3423.00
12.3375 3387.00
12.6418 3344.00
12.946 3432.00
13.2503 3269.00
13.5546 3348.00
13.8588 3284.00
14.1631 3307.00
14.4673 3381.00
14.7716 3381.00
15.0759 3307.00
15.3801 3343.00
15.6844 3271.00
15.9886 3418.00
16.2929 3259.00
16.5972 3318.00
16.9014 3334.00
17.2057 3453.00
17.5099 4226.00
17.8142 3908.00
18.1185 3193.00
18.4227 3310.00
18.727 3162.00
19.0312 3310.00
19.3355 3342.00
19.6398 3162.00
19.944 3196.00
20.2483 3167.00
20.5525 3198.00
20.8568 3222.00
21.1611 3117.00
21.4653 3106.00
21.7696 3060.00
22.0738 3159.00
22.3781 3225.00
22.6824 3096.00
22.9866 3136.00
23.2909 3079.00
23.5951 3245.00
23.8994 4550.00
24.2037 23839.00
24.5079 3453.00
24.8122 3128.00
25.1164 3099.00
25.4207 3177.00
25.725 3005.00
26.0292 3019.00
26.3335 2935.00
26.6378 3031.00
26.942 3003.00
27.2463 2974.00
27.5505 2911.00
27.8548 2934.00
28.1591 3058.00
28.4633 2878.00
28.7676 2891.00
29.0718 3020.00
29.3761 2935.00
29.6804 2917.00
29.9846 6244.00
30.2889 3056.00
30.5931 3284.00
30.8974 9809.00
31.2017 4032.00
31.5059 2979.00
31.8102 2962.00
32.1144 2916.00
32.4187 2847.00
32.723 2861.00
33.0272 2878.00
33.3315 2863.00
33.6357 2886.00
33.94 3009.00
34.2443 7381.00
34.5485 3021.00
34.8528 2848.00
35.157 2825.00
35.4613 4307.00
35.7656 2863.00
36.0698 2846.00
36.3741 2889.00
36.6783 2805.00
36.9826 2893.00
37.2869 4120.00
37.5911 12050.00
37.8954 3394.00
38.1996 2910.00
38.5039 3613.00
38.8082 4618.00
39.1124 2779.00
39.4167 2852.00
39.7209 2789.00
40.0252 2807.00
40.3295 2735.00
40.6337 2783.00
40.938 3806.00
41.2422 2833.00
41.5465 2699.00
41.8508 2830.00
42.155 2788.00
42.4593 2798.00
42.7635 2861.00
43.0678 3154.00
43.3721 5571.00
43.6763 14911.00
43.9806 3380.00
44.2849 2862.00
44.5891 2818.00
44.8934 2758.00
45.1976 2772.00
45.5019 2804.00
45.8062 2975.00
46.1104 4410.00
46.4147 3042.00
46.7189 13741.00
47.0232 3271.00
47.3275 2826.00
47.6317 2763.00
47.936 3632.00
48.2402 2753.00
48.5445 2778.00
48.8488 2641.00
49.153 3003.00
49.4573 2767.00
49.7615 2694.00
50.0658 2668.00
50.3701 2637.00
50.6743 2715.00
50.9786 2599.00
51.2828 2649.00
51.5871 2668.00
51.8914 2616.00
52.1956 2687.00
52.4999 2967.00
52.8041 2657.00
53.1084 2685.00
53.4127 2668.00
53.7169 2642.00
54.0212 2617.00
54.3254 2714.00
54.6297 2646.00
54.934 2659.00
55.2382 3609.00
55.5425 2908.00
55.8467 2630.00
56.151 2722.00
56.4553 2637.00
56.7595 2602.00
57.0638 2596.00
57.368 2642.00
57.6723 2660.00
57.9766 2684.00
58.2808 2580.00
58.5851 3750.00
58.8893 2954.00
59.1936 3666.00
59.4979 2770.00
59.8021 2700.00
60.1064 3059.00
60.4106 2654.00
60.7149 2604.00
61.0192 2712.00
61.3234 2624.00
61.6277 2615.00
61.932 2720.00
62.2362 2691.00
62.5405 2935.00
62.8447 3751.00
63.149 8396.00
63.4533 4311.00
63.7575 3102.00
64.0618 3251.00
64.366 3626.00
64.6703 2715.00
64.9745 2609.00
65.2788 2662.00
65.5831 2717.00
65.8873 2650.00
66.1916 2630.00
66.4959 2734.00
66.8001 2640.00
67.1044 2745.00
67.4086 2629.00
67.7129 2569.00
68.0172 2690.00
68.3214 2514.00
68.6257 2731.00
68.9299 2660.00
69.2342 2704.00
69.5385 2661.00
69.8427 3281.00
70.147 3616.00
70.4512 2607.00
70.7555 2616.00
71.0598 2655.00
71.364 2646.00
71.6683 2961.00
71.9725 3032.00
72.2768 2699.00
72.5811 2650.00
72.8853 2637.00
73.1896 2630.00
73.4938 2673.00
73.7981 2715.00
74.1024 2799.00
74.4066 2796.00
74.7109 4161.00
75.0151 2888.00
75.3194 2973.00
75.6237 4602.00
75.9279 3642.00
76.2322 2892.00
76.5364 2681.00
76.8407 2844.00
77.145 2764.00
77.4492 2718.00
77.7535 2541.00
78.0577 2679.00
78.362 2736.00
78.6663 2746.00
78.9705 2719.00
79.2748 2994.00
79.579 4366.00
79.8833 4160.00
80.1876 3211.00
80.4918 2768.00
80.7961 2716.00
81.1003 2649.00
81.4046 2658.00
81.7089 2701.00
82.0131 2862.00
82.3174 2643.00
82.6217 2689.00
82.9259 2779.00
83.2302 2633.00
83.5344 2649.00
83.8387 2687.00
84.143 2695.00
84.4472 2716.00
84.7515 2641.00
85.0557 2654.00
85.36 2666.00
85.6643 3070.00
85.9685 2821.00
86.2728 2629.00
86.577 2599.00
86.8813 2653.00
87.1856 2598.00
87.4898 2656.00
87.7941 2613.00
88.0983 2726.00
88.4026 2528.00
88.7069 2545.00
89.0111 2709.00
89.3154 2652.00
89.6196 2717.00
89.9239 2555.00
90.2282 2638.00
90.5324 2633.00
90.8367 2619.00
91.1409 2551.00
91.4452 2485.00
91.7495 2616.00
92.0537 2633.00
92.358 2698.00
92.6622 2638.00
92.9665 2604.00
93.2708 2558.00
93.575 2705.00
93.8793 2706.00
94.1835 2647.00
94.4878 2680.00
94.7921 2688.00
95.0963 2969.00
95.4006 3386.00
95.7048 3085.00
96.0091 2864.00
96.3134 2670.00
96.6176 2810.00
96.9219 2835.00
97.2261 2678.00
97.5304 2681.00
97.8347 2610.00
98.1389 2543.00
98.4432 2616.00
98.7474 2648.00
99.0517 2754.00
99.356 3022.00
99.6602 3325.00
99.9645 2882.00
100.095 2997.00