File: data/xrd_creation/results/PG_2148-1.xy
9.903433 2770.00
10.2077 2532.00
10.512 2401.00
10.8162 2461.00
11.1205 2293.00
11.4247 2292.00
11.729 2242.00
12.0333 2197.00
12.3375 2019.00
12.6418 1970.00
12.946 1846.00
13.2503 1821.00
13.5546 1820.00
13.8588 1747.00
14.1631 1750.00
14.4673 1627.00
14.7716 1723.00
15.0759 1682.00
15.3801 1887.00
15.6844 3317.00
15.9886 9799.00
16.2929 2471.00
16.5972 1708.00
16.9014 1554.00
17.2057 1651.00
17.5099 1484.00
17.8142 1444.00
18.1185 1454.00
18.4227 1424.00
18.727 1373.00
19.0312 1348.00
19.3355 1332.00
19.6398 1320.00
19.944 1348.00
20.2483 1318.00
20.5525 2562.00
20.8568 1484.00
21.1611 1218.00
21.4653 1170.00
21.7696 1223.00
22.0738 1920.00
22.3781 1113.00
22.6824 1036.00
22.9866 1014.00
23.2909 1045.00
23.5951 1084.00
23.8994 1018.00
24.2037 1012.00
24.5079 980.00
24.8122 983.00
25.1164 994.00
25.4207 998.00
25.725 1010.00
26.0292 1009.00
26.3335 1124.00
26.6378 1386.00
26.942 1045.00
27.2463 1446.00
27.5505 5916.00
27.8548 3191.00
28.1591 4184.00
28.4633 6365.00
28.7676 1396.00
29.0718 1042.00
29.3761 961.00
29.6804 832.00
29.9846 843.00
30.2889 784.00
30.5931 871.00
30.8974 846.00
31.2017 1055.00
31.5059 1525.00
31.8102 1487.00
32.1144 1587.00
32.4187 845.00
32.723 1220.00
33.0272 749.00
33.3315 713.00
33.6357 829.00
33.94 713.00
34.2443 673.00
34.5485 811.00
34.8528 692.00
35.157 654.00
35.4613 653.00
35.7656 644.00
36.0698 709.00
36.3741 1243.00
36.6783 654.00
36.9826 568.00
37.2869 617.00
37.5911 600.00
37.8954 566.00
38.1996 578.00
38.5039 624.00
38.8082 688.00
39.1124 735.00
39.4167 1130.00
39.7209 4418.00
40.0252 3362.00
40.3295 971.00
40.6337 694.00
40.938 617.00
41.2422 659.00
41.5465 828.00
41.8508 646.00
42.155 644.00
42.4593 1396.00
42.7635 1110.00
43.0678 640.00
43.3721 552.00
43.6763 569.00
43.9806 533.00
44.2849 556.00
44.5891 532.00
44.8934 604.00
45.1976 487.00
45.5019 515.00
45.8062 766.00
46.1104 492.00
46.4147 515.00
46.7189 504.00
47.0232 591.00
47.3275 1124.00
47.6317 1310.00
47.936 800.00
48.2402 1358.00
48.5445 2806.00
48.8488 3691.00
49.153 4009.00
49.4573 1095.00
49.7615 755.00
50.0658 746.00
50.3701 1035.00
50.6743 594.00
50.9786 515.00
51.2828 482.00
51.5871 849.00
51.8914 517.00
52.1956 420.00
52.4999 559.00
52.8041 471.00
53.1084 422.00
53.4127 440.00
53.7169 416.00
54.0212 461.00
54.3254 446.00
54.6297 487.00
54.934 468.00
55.2382 619.00
55.5425 1510.00
55.8467 1144.00
56.151 702.00
56.4553 849.00
56.7595 993.00
57.0638 520.00
57.368 440.00
57.6723 444.00
57.9766 570.00
58.2808 638.00
58.5851 495.00
58.8893 651.00
59.1936 782.00
59.4979 563.00
59.8021 427.00
60.1064 425.00
60.4106 444.00
60.7149 399.00
61.0192 402.00
61.3234 458.00
61.6277 483.00
61.932 383.00
62.2362 406.00
62.5405 529.00
62.8447 385.00
63.149 369.00
63.4533 372.00
63.7575 494.00
64.0618 787.00
64.366 1420.00
64.6703 850.00
64.9745 631.00
65.2788 696.00
65.5831 684.00
65.8873 465.00
66.1916 508.00
66.4959 564.00
66.8001 360.00
67.1044 353.00
67.4086 389.00
67.7129 349.00
68.0172 385.00
68.3214 405.00
68.6257 407.00
68.9299 369.00
69.2342 469.00
69.5385 468.00
69.8427 953.00
70.147 1109.00
70.4512 650.00
70.7555 512.00
71.0598 578.00
71.364 583.00
71.6683 450.00
71.9725 410.00
72.2768 413.00
72.5811 487.00
72.8853 495.00
73.1896 546.00
73.4938 422.00
73.7981 363.00
74.1024 381.00
74.4066 373.00
74.7109 404.00
75.0151 454.00
75.3194 402.00
75.6237 379.00
75.9279 518.00
76.2322 741.00
76.5364 909.00
76.8407 771.00
77.145 739.00
77.4492 1023.00
77.7535 1380.00
78.0577 1093.00
78.362 610.00
78.6663 596.00
78.9705 597.00
79.2748 450.00
79.579 384.00
79.8833 357.00
80.1876 398.00
80.4918 368.00
80.7961 363.00
81.1003 382.00
81.4046 354.00
81.7089 335.00
82.0131 375.00
82.3174 473.00
82.6217 585.00
82.9259 517.00
83.2302 375.00
83.5344 352.00
83.8387 346.00
84.143 339.00
84.4472 317.00
84.7515 325.00
85.0557 410.00
85.36 382.00
85.6643 410.00
85.9685 364.00
86.2728 357.00
86.577 364.00
86.8813 382.00
87.1856 355.00
87.4898 367.00
87.7941 324.00
88.0983 344.00
88.4026 374.00
88.7069 570.00
89.0111 725.00
89.3154 592.00
89.6196 454.00
89.9239 420.00
90.2282 524.00
90.5324 621.00
90.8367 550.00
91.1409 489.00
91.4452 429.00
91.7495 466.00
92.0537 392.00
92.358 373.00
92.6622 340.00
92.9665 353.00
93.2708 378.00
93.575 364.00
93.8793 326.00
94.1835 352.00
94.4878 357.00
94.7921 349.00
95.0963 411.00
95.4006 488.00
95.7048 649.00
96.0091 703.00
96.3134 562.00
96.6176 514.00
96.9219 615.00
97.2261 600.00
97.5304 482.00
97.8347 376.00
98.1389 382.00
98.4432 365.00
98.7474 344.00
99.0517 392.00
99.356 338.00
99.6602 368.00
99.9645 389.00
100.095 357.00