File: data/xrd_creation/results/PG_2034-1.xy
9.903433 2628.00
10.2077 2429.00
10.512 2284.00
10.8162 2348.00
11.1205 2228.00
11.4247 1999.00
11.729 1996.00
12.0333 1942.00
12.3375 1840.00
12.6418 1688.00
12.946 1665.00
13.2503 1646.00
13.5546 1557.00
13.8588 1518.00
14.1631 1427.00
14.4673 1455.00
14.7716 1366.00
15.0759 1445.00
15.3801 1313.00
15.6844 1312.00
15.9886 1236.00
16.2929 1362.00
16.5972 1354.00
16.9014 1927.00
17.2057 1254.00
17.5099 1193.00
17.8142 1110.00
18.1185 1066.00
18.4227 1024.00
18.727 1062.00
19.0312 1022.00
19.3355 1067.00
19.6398 1032.00
19.944 1005.00
20.2483 998.00
20.5525 952.00
20.8568 894.00
21.1611 956.00
21.4653 946.00
21.7696 857.00
22.0738 860.00
22.3781 868.00
22.6824 849.00
22.9866 819.00
23.2909 886.00
23.5951 1968.00
23.8994 967.00
24.2037 772.00
24.5079 769.00
24.8122 790.00
25.1164 767.00
25.4207 718.00
25.725 739.00
26.0292 697.00
26.3335 721.00
26.6378 701.00
26.942 662.00
27.2463 671.00
27.5505 683.00
27.8548 711.00
28.1591 647.00
28.4633 659.00
28.7676 591.00
29.0718 699.00
29.3761 977.00
29.6804 1011.00
29.9846 1282.00
30.2889 658.00
30.5931 648.00
30.8974 583.00
31.2017 607.00
31.5059 545.00
31.8102 526.00
32.1144 526.00
32.4187 515.00
32.723 539.00
33.0272 504.00
33.3315 510.00
33.6357 578.00
33.94 635.00
34.2443 545.00
34.5485 580.00
34.8528 452.00
35.157 499.00
35.4613 496.00
35.7656 415.00
36.0698 440.00
36.3741 424.00
36.6783 408.00
36.9826 396.00
37.2869 429.00
37.5911 413.00
37.8954 506.00
38.1996 463.00
38.5039 399.00
38.8082 354.00
39.1124 391.00
39.4167 379.00
39.7209 397.00
40.0252 334.00
40.3295 372.00
40.6337 346.00
40.938 354.00
41.2422 366.00
41.5465 337.00
41.8508 328.00
42.155 330.00
42.4593 335.00
42.7635 329.00
43.0678 325.00
43.3721 344.00
43.6763 317.00
43.9806 309.00
44.2849 309.00
44.5891 326.00
44.8934 349.00
45.1976 387.00
45.5019 456.00
45.8062 612.00
46.1104 357.00
46.4147 366.00
46.7189 322.00
47.0232 295.00
47.3275 287.00
47.6317 268.00
47.936 281.00
48.2402 295.00
48.5445 290.00
48.8488 321.00
49.153 276.00
49.4573 271.00
49.7615 256.00
50.0658 271.00
50.3701 279.00
50.6743 249.00
50.9786 260.00
51.2828 270.00
51.5871 260.00
51.8914 281.00
52.1956 247.00
52.4999 258.00
52.8041 224.00
53.1084 264.00
53.4127 281.00
53.7169 245.00
54.0212 291.00
54.3254 290.00
54.6297 274.00
54.934 275.00
55.2382 241.00
55.5425 266.00
55.8467 214.00
56.151 245.00
56.4553 267.00
56.7595 219.00
57.0638 258.00
57.368 210.00
57.6723 262.00
57.9766 274.00
58.2808 241.00
58.5851 211.00
58.8893 231.00
59.1936 218.00
59.4979 202.00
59.8021 202.00
60.1064 204.00
60.4106 211.00
60.7149 211.00
61.0192 214.00
61.3234 210.00
61.6277 205.00
61.932 223.00
62.2362 195.00
62.5405 187.00
62.8447 209.00
63.149 228.00
63.4533 218.00
63.7575 195.00
64.0618 206.00
64.366 226.00
64.6703 212.00
64.9745 214.00
65.2788 172.00
65.5831 199.00
65.8873 183.00
66.1916 207.00
66.4959 202.00
66.8001 199.00
67.1044 195.00
67.4086 178.00
67.7129 198.00
68.0172 200.00
68.3214 212.00
68.6257 200.00
68.9299 234.00
69.2342 242.00
69.5385 221.00
69.8427 189.00
70.147 178.00
70.4512 198.00
70.7555 199.00
71.0598 196.00
71.364 197.00
71.6683 205.00
71.9725 196.00
72.2768 187.00
72.5811 231.00
72.8853 231.00
73.1896 212.00
73.4938 178.00
73.7981 198.00
74.1024 230.00
74.4066 195.00
74.7109 180.00
75.0151 206.00
75.3194 223.00
75.6237 190.00
75.9279 204.00
76.2322 191.00
76.5364 233.00
76.8407 225.00
77.145 231.00
77.4492 235.00
77.7535 203.00
78.0577 197.00
78.362 220.00
78.6663 234.00
78.9705 224.00
79.2748 191.00
79.579 212.00
79.8833 232.00
80.1876 206.00
80.4918 262.00
80.7961 225.00
81.1003 270.00
81.4046 263.00
81.7089 232.00
82.0131 247.00
82.3174 236.00
82.6217 217.00
82.9259 226.00
83.2302 222.00
83.5344 193.00
83.8387 205.00
84.143 234.00
84.4472 214.00
84.7515 237.00
85.0557 237.00
85.36 233.00
85.6643 206.00
85.9685 212.00
86.2728 207.00
86.577 212.00
86.8813 190.00
87.1856 217.00
87.4898 174.00
87.7941 187.00
88.0983 193.00
88.4026 206.00
88.7069 207.00
89.0111 190.00
89.3154 171.00
89.6196 195.00
89.9239 201.00
90.2282 189.00
90.5324 201.00
90.8367 198.00
91.1409 205.00
91.4452 172.00
91.7495 174.00
92.0537 197.00
92.358 193.00
92.6622 189.00
92.9665 165.00
93.2708 171.00
93.575 207.00
93.8793 180.00
94.1835 202.00
94.4878 191.00
94.7921 180.00
95.0963 193.00
95.4006 173.00
95.7048 195.00
96.0091 180.00
96.3134 208.00
96.6176 198.00
96.9219 179.00
97.2261 173.00
97.5304 171.00
97.8347 185.00
98.1389 202.00
98.4432 201.00
98.7474 190.00
99.0517 200.00
99.356 176.00
99.6602 195.00
99.9645 159.00
100.095 191.00