File: data/xrd_creation/results/PG_2451-1.xy
9.903433 2522.00
10.2077 2428.00
10.512 2390.00
10.8162 2218.00
11.1205 2198.00
11.4247 2039.00
11.729 1954.00
12.0333 1953.00
12.3375 1892.00
12.6418 1850.00
12.946 1839.00
13.2503 1746.00
13.5546 1684.00
13.8588 1743.00
14.1631 1568.00
14.4673 1665.00
14.7716 1577.00
15.0759 1587.00
15.3801 1585.00
15.6844 1511.00
15.9886 1569.00
16.2929 1458.00
16.5972 1461.00
16.9014 1414.00
17.2057 1364.00
17.5099 1323.00
17.8142 1352.00
18.1185 1278.00
18.4227 1217.00
18.727 1263.00
19.0312 1254.00
19.3355 1205.00
19.6398 1233.00
19.944 1186.00
20.2483 1131.00
20.5525 1114.00
20.8568 1146.00
21.1611 1232.00
21.4653 1892.00
21.7696 2570.00
22.0738 1178.00
22.3781 1067.00
22.6824 992.00
22.9866 1040.00
23.2909 1029.00
23.5951 1307.00
23.8994 1168.00
24.2037 975.00
24.5079 955.00
24.8122 861.00
25.1164 910.00
25.4207 898.00
25.725 910.00
26.0292 866.00
26.3335 881.00
26.6378 874.00
26.942 830.00
27.2463 869.00
27.5505 805.00
27.8548 857.00
28.1591 806.00
28.4633 797.00
28.7676 849.00
29.0718 886.00
29.3761 921.00
29.6804 1215.00
29.9846 1097.00
30.2889 1154.00
30.5931 1557.00
30.8974 2524.00
31.2017 1756.00
31.5059 1911.00
31.8102 4664.00
32.1144 47403.00
32.4187 2807.00
32.723 1376.00
33.0272 1271.00
33.3315 1067.00
33.6357 1177.00
33.94 1510.00
34.2443 1877.00
34.5485 5484.00
34.8528 20005.00
35.157 1673.00
35.4613 1504.00
35.7656 1450.00
36.0698 2347.00
36.3741 11297.00
36.6783 47532.00
36.9826 2935.00
37.2869 2197.00
37.5911 1281.00
37.8954 1108.00
38.1996 998.00
38.5039 917.00
38.8082 921.00
39.1124 849.00
39.4167 874.00
39.7209 1003.00
40.0252 1251.00
40.3295 1114.00
40.6337 828.00
40.938 733.00
41.2422 724.00
41.5465 673.00
41.8508 672.00
42.155 617.00
42.4593 644.00
42.7635 579.00
43.0678 750.00
43.3721 613.00
43.6763 724.00
43.9806 715.00
44.2849 607.00
44.5891 567.00
44.8934 579.00
45.1976 595.00
45.5019 621.00
45.8062 607.00
46.1104 622.00
46.4147 588.00
46.7189 594.00
47.0232 665.00
47.3275 862.00
47.6317 2607.00
47.936 11616.00
48.2402 1116.00
48.5445 731.00
48.8488 800.00
49.153 858.00
49.4573 629.00
49.7615 605.00
50.0658 609.00
50.3701 599.00
50.6743 647.00
50.9786 588.00
51.2828 529.00
51.5871 539.00
51.8914 524.00
52.1956 541.00
52.4999 526.00
52.8041 560.00
53.1084 534.00
53.4127 510.00
53.7169 527.00
54.0212 518.00
54.3254 559.00
54.6297 488.00
54.934 591.00
55.2382 597.00
55.5425 634.00
55.8467 615.00
56.151 770.00
56.4553 1305.00
56.7595 7669.00
57.0638 12736.00
57.368 1056.00
57.6723 731.00
57.9766 828.00
58.2808 747.00
58.5851 793.00
58.8893 754.00
59.1936 771.00
59.4979 803.00
59.8021 714.00
60.1064 739.00
60.4106 640.00
60.7149 631.00
61.0192 725.00
61.3234 707.00
61.6277 753.00
61.932 765.00
62.2362 710.00
62.5405 850.00
62.8447 2167.00
63.149 20107.00
63.4533 2773.00
63.7575 896.00
64.0618 743.00
64.366 671.00
64.6703 650.00
64.9745 634.00
65.2788 593.00
65.5831 704.00
65.8873 730.00
66.1916 763.00
66.4959 1374.00
66.8001 2041.00
67.1044 724.00
67.4086 745.00
67.7129 989.00
68.0172 3345.00
68.3214 9565.00
68.6257 1437.00
68.9299 1012.00
69.2342 3480.00
69.5385 4397.00
69.8427 865.00
70.147 649.00
70.4512 566.00
70.7555 508.00
71.0598 499.00
71.364 537.00
71.6683 516.00
71.9725 527.00
72.2768 565.00
72.5811 632.00
72.8853 1721.00
73.1896 629.00
73.4938 506.00
73.7981 514.00
74.1024 539.00
74.4066 536.00
74.7109 528.00
75.0151 545.00
75.3194 533.00
75.6237 486.00
75.9279 470.00
76.2322 435.00
76.5364 491.00
76.8407 643.00
77.145 1878.00
77.4492 1660.00
77.7535 495.00
78.0577 430.00
78.362 417.00
78.6663 414.00
78.9705 418.00
79.2748 406.00
79.579 416.00
79.8833 459.00
80.1876 381.00
80.4918 387.00
80.7961 432.00
81.1003 480.00
81.4046 639.00
81.7089 1309.00
82.0131 581.00
82.3174 452.00
82.6217 446.00
82.9259 440.00
83.2302 448.00
83.5344 405.00
83.8387 415.00
84.143 480.00
84.4472 404.00
84.7515 430.00
85.0557 446.00
85.36 415.00
85.6643 394.00
85.9685 458.00
86.2728 473.00
86.577 442.00
86.8813 482.00
87.1856 425.00
87.4898 443.00
87.7941 424.00
88.0983 467.00
88.4026 428.00
88.7069 432.00
89.0111 470.00
89.3154 594.00
89.6196 1268.00
89.9239 3655.00
90.2282 1593.00
90.5324 546.00
90.8367 488.00
91.1409 482.00
91.4452 470.00
91.7495 453.00
92.0537 477.00
92.358 522.00
92.6622 592.00
92.9665 1747.00
93.2708 1172.00
93.575 604.00
93.8793 497.00
94.1835 491.00
94.4878 508.00
94.7921 545.00
95.0963 716.00
95.4006 2616.00
95.7048 2096.00
96.0091 994.00
96.3134 533.00
96.6176 496.00
96.9219 494.00
97.2261 519.00
97.5304 468.00
97.8347 500.00
98.1389 488.00
98.4432 619.00
98.7474 1983.00
99.0517 1458.00
99.356 767.00
99.6602 525.00
99.9645 487.00
100.095 480.00