File: data/xrd_creation/results/PG_2541-1.xy
9.903433 2615.00
10.2077 2498.00
10.512 2516.00
10.8162 2380.00
11.1205 2286.00
11.4247 2155.00
11.729 2160.00
12.0333 2139.00
12.3375 2113.00
12.6418 2044.00
12.946 1902.00
13.2503 1916.00
13.5546 1938.00
13.8588 2787.00
14.1631 3089.00
14.4673 1800.00
14.7716 1790.00
15.0759 1730.00
15.3801 1728.00
15.6844 1722.00
15.9886 1569.00
16.2929 1575.00
16.5972 1588.00
16.9014 1587.00
17.2057 1485.00
17.5099 1526.00
17.8142 1428.00
18.1185 1415.00
18.4227 1398.00
18.727 1392.00
19.0312 1356.00
19.3355 1301.00
19.6398 1519.00
19.944 1322.00
20.2483 1305.00
20.5525 1230.00
20.8568 1177.00
21.1611 1209.00
21.4653 1177.00
21.7696 1176.00
22.0738 1209.00
22.3781 1088.00
22.6824 1073.00
22.9866 1198.00
23.2909 1080.00
23.5951 1012.00
23.8994 1058.00
24.2037 985.00
24.5079 1008.00
24.8122 1015.00
25.1164 1030.00
25.4207 953.00
25.725 1247.00
26.0292 1017.00
26.3335 974.00
26.6378 982.00
26.942 994.00
27.2463 1207.00
27.5505 1653.00
27.8548 9510.00
28.1591 6243.00
28.4633 1544.00
28.7676 2100.00
29.0718 1095.00
29.3761 1029.00
29.6804 900.00
29.9846 947.00
30.2889 871.00
30.5931 933.00
30.8974 900.00
31.2017 884.00
31.5059 873.00
31.8102 1006.00
32.1144 1378.00
32.4187 17083.00
32.723 1229.00
33.0272 917.00
33.3315 959.00
33.6357 762.00
33.94 750.00
34.2443 867.00
34.5485 760.00
34.8528 738.00
35.157 900.00
35.4613 2840.00
35.7656 731.00
36.0698 687.00
36.3741 633.00
36.6783 630.00
36.9826 717.00
37.2869 914.00
37.5911 627.00
37.8954 616.00
38.1996 570.00
38.5039 626.00
38.8082 551.00
39.1124 573.00
39.4167 574.00
39.7209 659.00
40.0252 772.00
40.3295 599.00
40.6337 451.00
40.938 566.00
41.2422 507.00
41.5465 519.00
41.8508 511.00
42.155 598.00
42.4593 1225.00
42.7635 536.00
43.0678 1000.00
43.3721 1665.00
43.6763 524.00
43.9806 475.00
44.2849 530.00
44.5891 600.00
44.8934 545.00
45.1976 520.00
45.5019 578.00
45.8062 742.00
46.1104 1745.00
46.4147 10271.00
46.7189 808.00
47.0232 612.00
47.3275 756.00
47.6317 562.00
47.936 517.00
48.2402 540.00
48.5445 1194.00
48.8488 461.00
49.153 491.00
49.4573 513.00
49.7615 475.00
50.0658 493.00
50.3701 491.00
50.6743 522.00
50.9786 632.00
51.2828 501.00
51.5871 450.00
51.8914 494.00
52.1956 432.00
52.4999 438.00
52.8041 467.00
53.1084 499.00
53.4127 463.00
53.7169 514.00
54.0212 503.00
54.3254 648.00
54.6297 1572.00
54.934 7943.00
55.2382 926.00
55.5425 597.00
55.8467 558.00
56.151 502.00
56.4553 480.00
56.7595 472.00
57.0638 505.00
57.368 1484.00
57.6723 1625.00
57.9766 567.00
58.2808 455.00
58.5851 459.00
58.8893 479.00
59.1936 687.00
59.4979 1511.00
59.8021 505.00
60.1064 415.00
60.4106 384.00
60.7149 449.00
61.0192 430.00
61.3234 440.00
61.6277 391.00
61.932 391.00
62.2362 444.00
62.5405 1668.00
62.8447 691.00
63.149 388.00
63.4533 418.00
63.7575 367.00
64.0618 439.00
64.366 1919.00
64.6703 511.00
64.9745 376.00
65.2788 372.00
65.5831 375.00
65.8873 361.00
66.1916 352.00
66.4959 386.00
66.8001 383.00
67.1044 521.00
67.4086 1460.00
67.7129 472.00
68.0172 399.00
68.3214 399.00
68.6257 400.00
68.9299 494.00
69.2342 885.00
69.5385 390.00
69.8427 346.00
70.147 299.00
70.4512 334.00
70.7555 350.00
71.0598 312.00
71.364 324.00
71.6683 328.00
71.9725 508.00
72.2768 480.00
72.5811 331.00
72.8853 348.00
73.1896 362.00
73.4938 372.00
73.7981 604.00
74.1024 764.00
74.4066 1725.00
74.7109 589.00
75.0151 506.00
75.3194 418.00
75.6237 311.00
75.9279 403.00
76.2322 516.00
76.5364 3478.00
76.8407 1544.00
77.145 432.00
77.4492 372.00
77.7535 405.00
78.0577 425.00
78.362 570.00
78.6663 460.00
78.9705 594.00
79.2748 368.00
79.579 358.00
79.8833 302.00
80.1876 360.00
80.4918 305.00
80.7961 343.00
81.1003 335.00
81.4046 386.00
81.7089 362.00
82.0131 338.00
82.3174 294.00
82.6217 595.00
82.9259 572.00
83.2302 318.00
83.5344 316.00
83.8387 297.00
84.143 369.00
84.4472 306.00
84.7515 366.00
85.0557 434.00
85.36 1365.00
85.6643 1444.00
85.9685 388.00
86.2728 345.00
86.577 347.00
86.8813 385.00
87.1856 456.00
87.4898 396.00
87.7941 315.00
88.0983 345.00
88.4026 318.00
88.7069 296.00
89.0111 361.00
89.3154 308.00
89.6196 323.00
89.9239 345.00
90.2282 343.00
90.5324 322.00
90.8367 360.00
91.1409 417.00
91.4452 1838.00
91.7495 1207.00
92.0537 1303.00
92.358 794.00
92.6622 404.00
92.9665 364.00
93.2708 374.00
93.575 342.00
93.8793 377.00
94.1835 402.00
94.4878 398.00
94.7921 307.00
95.0963 314.00
95.4006 363.00
95.7048 497.00
96.0091 426.00
96.3134 376.00
96.6176 348.00
96.9219 311.00
97.2261 298.00
97.5304 308.00
97.8347 275.00
98.1389 275.00
98.4432 334.00
98.7474 298.00
99.0517 289.00
99.356 283.00
99.6602 323.00
99.9645 306.00
100.095 429.00