File: data/xrd_creation/results/PG_2247-1.xy
9.903433 2784.00
10.2077 2683.00
10.512 2598.00
10.8162 2582.00
11.1205 2447.00
11.4247 2360.00
11.729 2265.00
12.0333 2181.00
12.3375 2454.00
12.6418 3078.00
12.946 2208.00
13.2503 1919.00
13.5546 1984.00
13.8588 2241.00
14.1631 4119.00
14.4673 2141.00
14.7716 1810.00
15.0759 1818.00
15.3801 1791.00
15.6844 1865.00
15.9886 1694.00
16.2929 1651.00
16.5972 1644.00
16.9014 1597.00
17.2057 1626.00
17.5099 1580.00
17.8142 1615.00
18.1185 1492.00
18.4227 1412.00
18.727 1593.00
19.0312 1823.00
19.3355 1498.00
19.6398 1297.00
19.944 1327.00
20.2483 1383.00
20.5525 1314.00
20.8568 1282.00
21.1611 1278.00
21.4653 1460.00
21.7696 2310.00
22.0738 1284.00
22.3781 1253.00
22.6824 1229.00
22.9866 1317.00
23.2909 1204.00
23.5951 1998.00
23.8994 1356.00
24.2037 1218.00
24.5079 1420.00
24.8122 1542.00
25.1164 1213.00
25.4207 1139.00
25.725 1113.00
26.0292 1178.00
26.3335 1268.00
26.6378 1947.00
26.942 1504.00
27.2463 1257.00
27.5505 1209.00
27.8548 1656.00
28.1591 2458.00
28.4633 1949.00
28.7676 4111.00
29.0718 1371.00
29.3761 1397.00
29.6804 1690.00
29.9846 1194.00
30.2889 1193.00
30.5931 1497.00
30.8974 2609.00
31.2017 2022.00
31.5059 1189.00
31.8102 1036.00
32.1144 3062.00
32.4187 1041.00
32.723 981.00
33.0272 1212.00
33.3315 2578.00
33.6357 1076.00
33.94 874.00
34.2443 902.00
34.5485 1531.00
34.8528 872.00
35.157 870.00
35.4613 822.00
35.7656 906.00
36.0698 917.00
36.3741 1375.00
36.6783 1727.00
36.9826 1049.00
37.2869 1736.00
37.5911 1106.00
37.8954 884.00
38.1996 847.00
38.5039 804.00
38.8082 726.00
39.1124 826.00
39.4167 815.00
39.7209 982.00
40.0252 1143.00
40.3295 1014.00
40.6337 804.00
40.938 891.00
41.2422 1451.00
41.5465 1517.00
41.8508 909.00
42.155 999.00
42.4593 1702.00
42.7635 924.00
43.0678 796.00
43.3721 672.00
43.6763 723.00
43.9806 707.00
44.2849 794.00
44.5891 918.00
44.8934 755.00
45.1976 731.00
45.5019 725.00
45.8062 723.00
46.1104 882.00
46.4147 766.00
46.7189 675.00
47.0232 665.00
47.3275 703.00
47.6317 692.00
47.936 725.00
48.2402 682.00
48.5445 699.00
48.8488 753.00
49.153 1112.00
49.4573 765.00
49.7615 720.00
50.0658 1018.00
50.3701 837.00
50.6743 788.00
50.9786 1727.00
51.2828 699.00
51.5871 646.00
51.8914 669.00
52.1956 711.00
52.4999 686.00
52.8041 644.00
53.1084 787.00
53.4127 645.00
53.7169 658.00
54.0212 817.00
54.3254 1912.00
54.6297 906.00
54.934 775.00
55.2382 801.00
55.5425 949.00
55.8467 942.00
56.151 866.00
56.4553 713.00
56.7595 791.00
57.0638 997.00
57.368 756.00
57.6723 784.00
57.9766 801.00
58.2808 717.00
58.5851 773.00
58.8893 806.00
59.1936 745.00
59.4979 730.00
59.8021 664.00
60.1064 939.00
60.4106 858.00
60.7149 1163.00
61.0192 826.00
61.3234 820.00
61.6277 752.00
61.932 786.00
62.2362 951.00
62.5405 722.00
62.8447 759.00
63.149 642.00
63.4533 1008.00
63.7575 733.00
64.0618 685.00
64.366 674.00
64.6703 625.00
64.9745 777.00
65.2788 935.00
65.5831 1020.00
65.8873 764.00
66.1916 672.00
66.4959 635.00
66.8001 586.00
67.1044 746.00
67.4086 797.00
67.7129 667.00
68.0172 793.00
68.3214 735.00
68.6257 659.00
68.9299 631.00
69.2342 543.00
69.5385 585.00
69.8427 684.00
70.147 654.00
70.4512 690.00
70.7555 692.00
71.0598 854.00
71.364 678.00
71.6683 577.00
71.9725 731.00
72.2768 633.00
72.5811 605.00
72.8853 576.00
73.1896 624.00
73.4938 609.00
73.7981 604.00
74.1024 617.00
74.4066 610.00
74.7109 605.00
75.0151 576.00
75.3194 575.00
75.6237 583.00
75.9279 592.00
76.2322 564.00
76.5364 627.00
76.8407 596.00
77.145 616.00
77.4492 591.00
77.7535 577.00
78.0577 606.00
78.362 612.00
78.6663 600.00
78.9705 540.00
79.2748 568.00
79.579 517.00
79.8833 487.00
80.1876 509.00
80.4918 611.00
80.7961 574.00
81.1003 548.00
81.4046 563.00
81.7089 574.00
82.0131 581.00
82.3174 609.00
82.6217 658.00
82.9259 601.00
83.2302 572.00
83.5344 585.00
83.8387 614.00
84.143 617.00
84.4472 585.00
84.7515 600.00
85.0557 603.00
85.36 600.00
85.6643 533.00
85.9685 613.00
86.2728 611.00
86.577 643.00
86.8813 618.00
87.1856 560.00
87.4898 547.00
87.7941 588.00
88.0983 570.00
88.4026 560.00
88.7069 518.00
89.0111 564.00
89.3154 600.00
89.6196 597.00
89.9239 637.00
90.2282 608.00
90.5324 544.00
90.8367 548.00
91.1409 521.00
91.4452 541.00
91.7495 548.00
92.0537 558.00
92.358 564.00
92.6622 584.00
92.9665 557.00
93.2708 586.00
93.575 618.00
93.8793 640.00
94.1835 607.00
94.4878 545.00
94.7921 503.00
95.0963 541.00
95.4006 563.00
95.7048 556.00
96.0091 575.00
96.3134 529.00
96.6176 543.00
96.9219 570.00
97.2261 636.00
97.5304 559.00
97.8347 564.00
98.1389 589.00
98.4432 512.00
98.7474 531.00
99.0517 585.00
99.356 564.00
99.6602 553.00
99.9645 572.00
100.095 504.00