File: data/xrd_creation/results/PG_2734-1.xy
9.903433 4203.00
10.2077 4160.00
10.512 4011.00
10.8162 4015.00
11.1205 3983.00
11.4247 3893.00
11.729 3893.00
12.0333 3903.00
12.3375 3868.00
12.6418 3749.00
12.946 3894.00
13.2503 3814.00
13.5546 3766.00
13.8588 3657.00
14.1631 3839.00
14.4673 3788.00
14.7716 3787.00
15.0759 3725.00
15.3801 3782.00
15.6844 3743.00
15.9886 3660.00
16.2929 3741.00
16.5972 3924.00
16.9014 5440.00
17.2057 3802.00
17.5099 3684.00
17.8142 3803.00
18.1185 4042.00
18.4227 4500.00
18.727 3797.00
19.0312 3709.00
19.3355 3595.00
19.6398 3622.00
19.944 3630.00
20.2483 3637.00
20.5525 3496.00
20.8568 3544.00
21.1611 3589.00
21.4653 3530.00
21.7696 3585.00
22.0738 3632.00
22.3781 3512.00
22.6824 3635.00
22.9866 3567.00
23.2909 3441.00
23.5951 3437.00
23.8994 4097.00
24.2037 3566.00
24.5079 3511.00
24.8122 3450.00
25.1164 3547.00
25.4207 3403.00
25.725 3361.00
26.0292 3507.00
26.3335 3481.00
26.6378 3422.00
26.942 3465.00
27.2463 3405.00
27.5505 3474.00
27.8548 3443.00
28.1591 3443.00
28.4633 3540.00
28.7676 3512.00
29.0718 4623.00
29.3761 6513.00
29.6804 3414.00
29.9846 3439.00
30.2889 3450.00
30.5931 3391.00
30.8974 3412.00
31.2017 3729.00
31.5059 3569.00
31.8102 3448.00
32.1144 3459.00
32.4187 4320.00
32.723 7033.00
33.0272 3591.00
33.3315 3261.00
33.6357 3400.00
33.94 3620.00
34.2443 3302.00
34.5485 3295.00
34.8528 3357.00
35.157 3283.00
35.4613 3194.00
35.7656 3371.00
36.0698 3541.00
36.3741 10006.00
36.6783 4203.00
36.9826 3490.00
37.2869 3325.00
37.5911 3235.00
37.8954 3411.00
38.1996 4315.00
38.5039 3424.00
38.8082 3256.00
39.1124 3153.00
39.4167 3129.00
39.7209 3240.00
40.0252 3294.00
40.3295 3206.00
40.6337 3175.00
40.938 3079.00
41.2422 3203.00
41.5465 3148.00
41.8508 3164.00
42.155 3225.00
42.4593 3134.00
42.7635 3120.00
43.0678 3140.00
43.3721 3024.00
43.6763 3097.00
43.9806 3163.00
44.2849 3185.00
44.5891 3578.00
44.8934 3927.00
45.1976 3300.00
45.5019 4026.00
45.8062 3146.00
46.1104 3201.00
46.4147 3103.00
46.7189 3138.00
47.0232 3233.00
47.3275 3067.00
47.6317 3124.00
47.936 3212.00
48.2402 3117.00
48.5445 3038.00
48.8488 3089.00
49.153 3103.00
49.4573 3215.00
49.7615 3149.00
50.0658 3525.00
50.3701 3162.00
50.6743 3283.00
50.9786 4389.00
51.2828 3362.00
51.5871 3079.00
51.8914 3161.00
52.1956 3121.00
52.4999 3085.00
52.8041 3067.00
53.1084 2975.00
53.4127 3148.00
53.7169 3131.00
54.0212 3263.00
54.3254 3478.00
54.6297 3288.00
54.934 3184.00
55.2382 3144.00
55.5425 3079.00
55.8467 3110.00
56.151 3310.00
56.4553 3340.00
56.7595 3094.00
57.0638 3043.00
57.368 3104.00
57.6723 3230.00
57.9766 3283.00
58.2808 3134.00
58.5851 3465.00
58.8893 4522.00
59.1936 3328.00
59.4979 3209.00
59.8021 3355.00
60.1064 6040.00
60.4106 4136.00
60.7149 3276.00
61.0192 3157.00
61.3234 3135.00
61.6277 3044.00
61.932 2988.00
62.2362 3113.00
62.5405 3103.00
62.8447 3108.00
63.149 3091.00
63.4533 3401.00
63.7575 3126.00
64.0618 3033.00
64.366 3061.00
64.6703 3179.00
64.9745 4196.00
65.2788 3190.00
65.5831 3113.00
65.8873 3151.00
66.1916 3060.00
66.4959 3142.00
66.8001 3005.00
67.1044 2997.00
67.4086 3005.00
67.7129 3113.00
68.0172 3231.00
68.3214 3093.00
68.6257 3103.00
68.9299 3089.00
69.2342 2947.00
69.5385 3095.00
69.8427 3217.00
70.147 3187.00
70.4512 3185.00
70.7555 3019.00
71.0598 3225.00
71.364 2992.00
71.6683 3051.00
71.9725 3061.00
72.2768 3147.00
72.5811 3196.00
72.8853 3122.00
73.1896 3089.00
73.4938 3082.00
73.7981 3112.00
74.1024 3126.00
74.4066 3489.00
74.7109 3175.00
75.0151 3090.00
75.3194 3112.00
75.6237 3103.00
75.9279 3023.00
76.2322 3146.00
76.5364 3131.00
76.8407 3259.00
77.145 3173.00
77.4492 2971.00
77.7535 3290.00
78.0577 3232.00
78.362 3154.00
78.6663 3071.00
78.9705 3038.00
79.2748 2987.00
79.579 3080.00
79.8833 3125.00
80.1876 3139.00
80.4918 3141.00
80.7961 3125.00
81.1003 3192.00
81.4046 3221.00
81.7089 3157.00
82.0131 3048.00
82.3174 3028.00
82.6217 3086.00
82.9259 3066.00
83.2302 3028.00
83.5344 2976.00
83.8387 3020.00
84.143 3019.00
84.4472 2975.00
84.7515 3007.00
85.0557 3022.00
85.36 3050.00
85.6643 3059.00
85.9685 3151.00
86.2728 3131.00
86.577 3214.00
86.8813 3233.00
87.1856 3144.00
87.4898 3018.00
87.7941 3002.00
88.0983 3118.00
88.4026 3052.00
88.7069 3019.00
89.0111 3073.00
89.3154 3052.00
89.6196 3088.00
89.9239 3072.00
90.2282 3086.00
90.5324 3055.00
90.8367 3358.00
91.1409 3216.00
91.4452 3074.00
91.7495 3076.00
92.0537 3079.00
92.358 3185.00
92.6622 2999.00
92.9665 3145.00
93.2708 3098.00
93.575 3083.00
93.8793 3023.00
94.1835 3039.00
94.4878 3139.00
94.7921 3074.00
95.0963 3046.00
95.4006 3099.00
95.7048 3082.00
96.0091 3014.00
96.3134 3113.00
96.6176 3200.00
96.9219 3102.00
97.2261 3129.00
97.5304 3093.00
97.8347 3228.00
98.1389 3255.00
98.4432 3297.00
98.7474 3123.00
99.0517 3001.00
99.356 3002.00
99.6602 3059.00
99.9645 2958.00
100.095 2984.00