File: data/xrd_creation/results/PG_2441-1.xy
9.903433 2604.00
10.2077 2427.00
10.512 2296.00
10.8162 2132.00
11.1205 2076.00
11.4247 2014.00
11.729 1897.00
12.0333 1824.00
12.3375 1720.00
12.6418 1719.00
12.946 1711.00
13.2503 1521.00
13.5546 1802.00
13.8588 1442.00
14.1631 1402.00
14.4673 1294.00
14.7716 1281.00
15.0759 1291.00
15.3801 1183.00
15.6844 1218.00
15.9886 1149.00
16.2929 1178.00
16.5972 1114.00
16.9014 1105.00
17.2057 1056.00
17.5099 1077.00
17.8142 1021.00
18.1185 1039.00
18.4227 988.00
18.727 1019.00
19.0312 897.00
19.3355 893.00
19.6398 931.00
19.944 922.00
20.2483 845.00
20.5525 867.00
20.8568 856.00
21.1611 864.00
21.4653 861.00
21.7696 781.00
22.0738 827.00
22.3781 750.00
22.6824 777.00
22.9866 723.00
23.2909 665.00
23.5951 728.00
23.8994 648.00
24.2037 672.00
24.5079 655.00
24.8122 631.00
25.1164 645.00
25.4207 625.00
25.725 631.00
26.0292 559.00
26.3335 590.00
26.6378 638.00
26.942 569.00
27.2463 656.00
27.5505 2682.00
27.8548 634.00
28.1591 617.00
28.4633 554.00
28.7676 574.00
29.0718 519.00
29.3761 523.00
29.6804 502.00
29.9846 520.00
30.2889 512.00
30.5931 559.00
30.8974 506.00
31.2017 506.00
31.5059 472.00
31.8102 610.00
32.1144 542.00
32.4187 449.00
32.723 451.00
33.0272 419.00
33.3315 436.00
33.6357 422.00
33.94 383.00
34.2443 442.00
34.5485 406.00
34.8528 494.00
35.157 428.00
35.4613 358.00
35.7656 392.00
36.0698 372.00
36.3741 386.00
36.6783 361.00
36.9826 383.00
37.2869 372.00
37.5911 337.00
37.8954 319.00
38.1996 365.00
38.5039 352.00
38.8082 346.00
39.1124 321.00
39.4167 336.00
39.7209 311.00
40.0252 338.00
40.3295 279.00
40.6337 289.00
40.938 283.00
41.2422 301.00
41.5465 275.00
41.8508 330.00
42.155 290.00
42.4593 282.00
42.7635 295.00
43.0678 308.00
43.3721 294.00
43.6763 271.00
43.9806 266.00
44.2849 313.00
44.5891 282.00
44.8934 281.00
45.1976 245.00
45.5019 268.00
45.8062 458.00
46.1104 287.00
46.4147 280.00
46.7189 237.00
47.0232 266.00
47.3275 235.00
47.6317 235.00
47.936 240.00
48.2402 258.00
48.5445 245.00
48.8488 273.00
49.153 238.00
49.4573 247.00
49.7615 231.00
50.0658 265.00
50.3701 237.00
50.6743 205.00
50.9786 220.00
51.2828 231.00
51.5871 228.00
51.8914 217.00
52.1956 256.00
52.4999 220.00
52.8041 236.00
53.1084 242.00
53.4127 196.00
53.7169 262.00
54.0212 191.00
54.3254 292.00
54.6297 310.00
54.934 224.00
55.2382 204.00
55.5425 185.00
55.8467 217.00
56.151 190.00
56.4553 187.00
56.7595 190.00
57.0638 328.00
57.368 200.00
57.6723 190.00
57.9766 200.00
58.2808 192.00
58.5851 201.00
58.8893 201.00
59.1936 201.00
59.4979 196.00
59.8021 181.00
60.1064 198.00
60.4106 149.00
60.7149 198.00
61.0192 203.00
61.3234 168.00
61.6277 176.00
61.932 153.00
62.2362 162.00
62.5405 167.00
62.8447 178.00
63.149 190.00
63.4533 173.00
63.7575 176.00
64.0618 175.00
64.366 164.00
64.6703 213.00
64.9745 167.00
65.2788 179.00
65.5831 165.00
65.8873 169.00
66.1916 182.00
66.4959 196.00
66.8001 162.00
67.1044 172.00
67.4086 169.00
67.7129 135.00
68.0172 162.00
68.3214 155.00
68.6257 157.00
68.9299 197.00
69.2342 156.00
69.5385 146.00
69.8427 182.00
70.147 165.00
70.4512 171.00
70.7555 161.00
71.0598 159.00
71.364 197.00
71.6683 181.00
71.9725 154.00
72.2768 181.00
72.5811 179.00
72.8853 160.00
73.1896 188.00
73.4938 177.00
73.7981 182.00
74.1024 189.00
74.4066 207.00
74.7109 205.00
75.0151 188.00
75.3194 180.00
75.6237 199.00
75.9279 175.00
76.2322 235.00
76.5364 185.00
76.8407 199.00
77.145 159.00
77.4492 167.00
77.7535 194.00
78.0577 225.00
78.362 195.00
78.6663 201.00
78.9705 204.00
79.2748 204.00
79.579 218.00
79.8833 211.00
80.1876 195.00
80.4918 210.00
80.7961 208.00
81.1003 207.00
81.4046 229.00
81.7089 187.00
82.0131 194.00
82.3174 228.00
82.6217 211.00
82.9259 194.00
83.2302 220.00
83.5344 202.00
83.8387 206.00
84.143 214.00
84.4472 193.00
84.7515 212.00
85.0557 209.00
85.36 202.00
85.6643 187.00
85.9685 187.00
86.2728 172.00
86.577 164.00
86.8813 193.00
87.1856 153.00
87.4898 199.00
87.7941 191.00
88.0983 156.00
88.4026 196.00
88.7069 184.00
89.0111 187.00
89.3154 168.00
89.6196 179.00
89.9239 189.00
90.2282 181.00
90.5324 191.00
90.8367 161.00
91.1409 190.00
91.4452 194.00
91.7495 204.00
92.0537 184.00
92.358 178.00
92.6622 159.00
92.9665 170.00
93.2708 160.00
93.575 169.00
93.8793 155.00
94.1835 164.00
94.4878 181.00
94.7921 162.00
95.0963 181.00
95.4006 176.00
95.7048 149.00
96.0091 166.00
96.3134 157.00
96.6176 143.00
96.9219 189.00
97.2261 156.00
97.5304 173.00
97.8347 150.00
98.1389 156.00
98.4432 158.00
98.7474 159.00
99.0517 157.00
99.356 163.00
99.6602 157.00
99.9645 183.00
100.095 150.00