File: data/xrd_creation/results/PG_2246-1.xy
9.903433 2513.00
10.2077 2291.00
10.512 2425.00
10.8162 2218.00
11.1205 2106.00
11.4247 2126.00
11.729 1965.00
12.0333 1981.00
12.3375 1899.00
12.6418 1820.00
12.946 1829.00
13.2503 1732.00
13.5546 1711.00
13.8588 1678.00
14.1631 1605.00
14.4673 1578.00
14.7716 1584.00
15.0759 1429.00
15.3801 1501.00
15.6844 1450.00
15.9886 1441.00
16.2929 1384.00
16.5972 1434.00
16.9014 1415.00
17.2057 1348.00
17.5099 1374.00
17.8142 1237.00
18.1185 1276.00
18.4227 1252.00
18.727 1227.00
19.0312 1173.00
19.3355 1156.00
19.6398 1128.00
19.944 1100.00
20.2483 1051.00
20.5525 1109.00
20.8568 1047.00
21.1611 1066.00
21.4653 1219.00
21.7696 1612.00
22.0738 1024.00
22.3781 1005.00
22.6824 926.00
22.9866 987.00
23.2909 915.00
23.5951 1001.00
23.8994 1035.00
24.2037 919.00
24.5079 866.00
24.8122 1084.00
25.1164 1261.00
25.4207 4011.00
25.725 15489.00
26.0292 1300.00
26.3335 938.00
26.6378 885.00
26.942 773.00
27.2463 787.00
27.5505 830.00
27.8548 838.00
28.1591 783.00
28.4633 714.00
28.7676 681.00
29.0718 705.00
29.3761 706.00
29.6804 830.00
29.9846 753.00
30.2889 650.00
30.5931 640.00
30.8974 1793.00
31.2017 727.00
31.5059 626.00
31.8102 733.00
32.1144 3409.00
32.4187 682.00
32.723 567.00
33.0272 545.00
33.3315 530.00
33.6357 531.00
33.94 532.00
34.2443 635.00
34.5485 856.00
34.8528 521.00
35.157 561.00
35.4613 508.00
35.7656 470.00
36.0698 507.00
36.3741 1395.00
36.6783 577.00
36.9826 619.00
37.2869 2804.00
37.5911 630.00
37.8954 894.00
38.1996 4197.00
38.5039 638.00
38.8082 1359.00
39.1124 679.00
39.4167 509.00
39.7209 477.00
40.0252 631.00
40.3295 615.00
40.6337 437.00
40.938 402.00
41.2422 424.00
41.5465 409.00
41.8508 403.00
42.155 416.00
42.4593 400.00
42.7635 395.00
43.0678 457.00
43.3721 400.00
43.6763 418.00
43.9806 428.00
44.2849 387.00
44.5891 379.00
44.8934 404.00
45.1976 330.00
45.5019 370.00
45.8062 356.00
46.1104 355.00
46.4147 343.00
46.7189 353.00
47.0232 347.00
47.3275 395.00
47.6317 401.00
47.936 553.00
48.2402 2645.00
48.5445 2142.00
48.8488 458.00
49.153 598.00
49.4573 363.00
49.7615 337.00
50.0658 406.00
50.3701 329.00
50.6743 433.00
50.9786 370.00
51.2828 333.00
51.5871 307.00
51.8914 297.00
52.1956 323.00
52.4999 349.00
52.8041 364.00
53.1084 319.00
53.4127 331.00
53.7169 436.00
54.0212 941.00
54.3254 2929.00
54.6297 540.00
54.934 453.00
55.2382 1394.00
55.5425 2391.00
55.8467 360.00
56.151 335.00
56.4553 348.00
56.7595 349.00
57.0638 506.00
57.368 320.00
57.6723 332.00
57.9766 453.00
58.2808 313.00
58.5851 378.00
58.8893 345.00
59.1936 372.00
59.4979 330.00
59.8021 301.00
60.1064 465.00
60.4106 310.00
60.7149 303.00
61.0192 294.00
61.3234 369.00
61.6277 408.00
61.932 329.00
62.2362 430.00
62.5405 757.00
62.8447 1139.00
63.149 2227.00
63.4533 402.00
63.7575 315.00
64.0618 295.00
64.366 265.00
64.6703 279.00
64.9745 250.00
65.2788 306.00
65.5831 316.00
65.8873 323.00
66.1916 260.00
66.4959 284.00
66.8001 231.00
67.1044 267.00
67.4086 324.00
67.7129 284.00
68.0172 257.00
68.3214 265.00
68.6257 312.00
68.9299 819.00
69.2342 1043.00
69.5385 314.00
69.8427 316.00
70.147 298.00
70.4512 804.00
70.7555 1194.00
71.0598 304.00
71.364 212.00
71.6683 221.00
71.9725 207.00
72.2768 320.00
72.5811 304.00
72.8853 239.00
73.1896 229.00
73.4938 258.00
73.7981 245.00
74.1024 320.00
74.4066 352.00
74.7109 283.00
75.0151 337.00
75.3194 2652.00
75.6237 717.00
75.9279 323.00
76.2322 706.00
76.5364 551.00
76.8407 237.00
77.145 211.00
77.4492 248.00
77.7535 247.00
78.0577 214.00
78.362 232.00
78.6663 220.00
78.9705 222.00
79.2748 194.00
79.579 236.00
79.8833 220.00
80.1876 225.00
80.4918 249.00
80.7961 199.00
81.1003 267.00
81.4046 257.00
81.7089 201.00
82.0131 273.00
82.3174 326.00
82.6217 400.00
82.9259 1335.00
83.2302 722.00
83.5344 404.00
83.8387 237.00
84.143 222.00
84.4472 215.00
84.7515 209.00
85.0557 221.00
85.36 234.00
85.6643 217.00
85.9685 210.00
86.2728 210.00
86.577 224.00
86.8813 204.00
87.1856 189.00
87.4898 218.00
87.7941 187.00
88.0983 214.00
88.4026 211.00
88.7069 222.00
89.0111 197.00
89.3154 189.00
89.6196 212.00
89.9239 202.00
90.2282 208.00
90.5324 191.00
90.8367 198.00
91.1409 179.00
91.4452 209.00
91.7495 191.00
92.0537 221.00
92.358 216.00
92.6622 281.00
92.9665 237.00
93.2708 248.00
93.575 297.00
93.8793 261.00
94.1835 267.00
94.4878 648.00
94.7921 414.00
95.0963 267.00
95.4006 799.00
95.7048 599.00
96.0091 267.00
96.3134 219.00
96.6176 215.00
96.9219 218.00
97.2261 213.00
97.5304 211.00
97.8347 213.00
98.1389 204.00
98.4432 391.00
98.7474 344.00
99.0517 308.00
99.356 265.00
99.6602 242.00
99.9645 358.00
100.095 439.00