File: data/xrd_creation/results/PG_2144-1.xy
9.903433 2543.00
10.2077 2404.00
10.512 2420.00
10.8162 2241.00
11.1205 2144.00
11.4247 2079.00
11.729 2029.00
12.0333 1897.00
12.3375 1860.00
12.6418 1886.00
12.946 1797.00
13.2503 1754.00
13.5546 1744.00
13.8588 1638.00
14.1631 1604.00
14.4673 1628.00
14.7716 1637.00
15.0759 1643.00
15.3801 1720.00
15.6844 2383.00
15.9886 5188.00
16.2929 1800.00
16.5972 1550.00
16.9014 1487.00
17.2057 1337.00
17.5099 1372.00
17.8142 1331.00
18.1185 1335.00
18.4227 1346.00
18.727 1339.00
19.0312 1273.00
19.3355 1211.00
19.6398 1169.00
19.944 1144.00
20.2483 1192.00
20.5525 1127.00
20.8568 1129.00
21.1611 1098.00
21.4653 1065.00
21.7696 1010.00
22.0738 995.00
22.3781 1095.00
22.6824 1019.00
22.9866 978.00
23.2909 967.00
23.5951 990.00
23.8994 956.00
24.2037 961.00
24.5079 927.00
24.8122 982.00
25.1164 952.00
25.4207 910.00
25.725 880.00
26.0292 967.00
26.3335 1215.00
26.6378 1911.00
26.942 8323.00
27.2463 1716.00
27.5505 4310.00
27.8548 1797.00
28.1591 3675.00
28.4633 2646.00
28.7676 1059.00
29.0718 831.00
29.3761 819.00
29.6804 839.00
29.9846 725.00
30.2889 784.00
30.5931 733.00
30.8974 717.00
31.2017 797.00
31.5059 828.00
31.8102 1317.00
32.1144 956.00
32.4187 671.00
32.723 681.00
33.0272 684.00
33.3315 656.00
33.6357 802.00
33.94 1516.00
34.2443 6220.00
34.5485 935.00
34.8528 712.00
35.157 667.00
35.4613 591.00
35.7656 635.00
36.0698 686.00
36.3741 879.00
36.6783 615.00
36.9826 589.00
37.2869 581.00
37.5911 610.00
37.8954 690.00
38.1996 1904.00
38.5039 857.00
38.8082 647.00
39.1124 750.00
39.4167 1192.00
39.7209 3594.00
40.0252 1584.00
40.3295 675.00
40.6337 527.00
40.938 517.00
41.2422 486.00
41.5465 527.00
41.8508 489.00
42.155 597.00
42.4593 1044.00
42.7635 712.00
43.0678 618.00
43.3721 462.00
43.6763 469.00
43.9806 506.00
44.2849 462.00
44.5891 457.00
44.8934 425.00
45.1976 413.00
45.5019 462.00
45.8062 459.00
46.1104 464.00
46.4147 464.00
46.7189 463.00
47.0232 477.00
47.3275 966.00
47.6317 689.00
47.936 578.00
48.2402 936.00
48.5445 1958.00
48.8488 2801.00
49.153 1848.00
49.4573 684.00
49.7615 586.00
50.0658 663.00
50.3701 761.00
50.6743 480.00
50.9786 511.00
51.2828 455.00
51.5871 607.00
51.8914 1547.00
52.1956 4089.00
52.4999 713.00
52.8041 498.00
53.1084 459.00
53.4127 415.00
53.7169 398.00
54.0212 456.00
54.3254 433.00
54.6297 498.00
54.934 915.00
55.2382 1124.00
55.5425 1270.00
55.8467 731.00
56.151 532.00
56.4553 690.00
56.7595 658.00
57.0638 432.00
57.368 402.00
57.6723 441.00
57.9766 734.00
58.2808 880.00
58.5851 439.00
58.8893 470.00
59.1936 522.00
59.4979 373.00
59.8021 354.00
60.1064 335.00
60.4106 346.00
60.7149 334.00
61.0192 350.00
61.3234 359.00
61.6277 370.00
61.932 515.00
62.2362 1165.00
62.5405 466.00
62.8447 409.00
63.149 371.00
63.4533 398.00
63.7575 416.00
64.0618 688.00
64.366 912.00
64.6703 631.00
64.9745 1486.00
65.2788 872.00
65.5831 573.00
65.8873 550.00
66.1916 1594.00
66.4959 876.00
66.8001 387.00
67.1044 360.00
67.4086 338.00
67.7129 349.00
68.0172 314.00
68.3214 346.00
68.6257 322.00
68.9299 350.00
69.2342 360.00
69.5385 420.00
69.8427 736.00
70.147 699.00
70.4512 432.00
70.7555 384.00
71.0598 471.00
71.364 610.00
71.6683 673.00
71.9725 380.00
72.2768 333.00
72.5811 321.00
72.8853 401.00
73.1896 394.00
73.4938 348.00
73.7981 308.00
74.1024 302.00
74.4066 312.00
74.7109 307.00
75.0151 313.00
75.3194 325.00
75.6237 329.00
75.9279 480.00
76.2322 564.00
76.5364 637.00
76.8407 557.00
77.145 582.00
77.4492 744.00
77.7535 930.00
78.0577 662.00
78.362 515.00
78.6663 544.00
78.9705 1395.00
79.2748 579.00
79.579 380.00
79.8833 321.00
80.1876 301.00
80.4918 327.00
80.7961 346.00
81.1003 365.00
81.4046 584.00
81.7089 457.00
82.0131 324.00
82.3174 380.00
82.6217 470.00
82.9259 414.00
83.2302 312.00
83.5344 336.00
83.8387 551.00
84.143 587.00
84.4472 363.00
84.7515 313.00
85.0557 332.00
85.36 328.00
85.6643 313.00
85.9685 330.00
86.2728 296.00
86.577 313.00
86.8813 333.00
87.1856 349.00
87.4898 604.00
87.7941 461.00
88.0983 349.00
88.4026 363.00
88.7069 460.00
89.0111 575.00
89.3154 471.00
89.6196 466.00
89.9239 765.00
90.2282 767.00
90.5324 575.00
90.8367 576.00
91.1409 1087.00
91.4452 750.00
91.7495 424.00
92.0537 361.00
92.358 342.00
92.6622 317.00
92.9665 356.00
93.2708 346.00
93.575 557.00
93.8793 444.00
94.1835 336.00
94.4878 288.00
94.7921 309.00
95.0963 330.00
95.4006 419.00
95.7048 489.00
96.0091 575.00
96.3134 645.00
96.6176 577.00
96.9219 512.00
97.2261 472.00
97.5304 389.00
97.8347 352.00
98.1389 331.00
98.4432 327.00
98.7474 312.00
99.0517 306.00
99.356 260.00
99.6602 275.00
99.9645 308.00
100.095 281.00