File: data/xrd_creation/results/PG_2035-1.xy
9.903433 2727.00
10.2077 2608.00
10.512 2560.00
10.8162 2390.00
11.1205 2374.00
11.4247 2197.00
11.729 2193.00
12.0333 2170.00
12.3375 2080.00
12.6418 1978.00
12.946 1950.00
13.2503 1892.00
13.5546 1897.00
13.8588 1776.00
14.1631 1739.00
14.4673 1771.00
14.7716 1753.00
15.0759 1664.00
15.3801 1673.00
15.6844 1590.00
15.9886 1588.00
16.2929 1530.00
16.5972 1542.00
16.9014 1510.00
17.2057 1549.00
17.5099 1572.00
17.8142 1729.00
18.1185 1845.00
18.4227 1714.00
18.727 1499.00
19.0312 1551.00
19.3355 2186.00
19.6398 1707.00
19.944 1376.00
20.2483 1382.00
20.5525 1329.00
20.8568 1714.00
21.1611 3304.00
21.4653 1642.00
21.7696 1241.00
22.0738 1232.00
22.3781 1277.00
22.6824 1387.00
22.9866 2927.00
23.2909 1236.00
23.5951 1161.00
23.8994 1149.00
24.2037 1062.00
24.5079 1172.00
24.8122 1013.00
25.1164 1378.00
25.4207 1342.00
25.725 1249.00
26.0292 1053.00
26.3335 1044.00
26.6378 1123.00
26.942 1166.00
27.2463 1085.00
27.5505 1299.00
27.8548 3138.00
28.1591 1154.00
28.4633 1018.00
28.7676 1085.00
29.0718 1186.00
29.3761 1144.00
29.6804 1052.00
29.9846 993.00
30.2889 1022.00
30.5931 1006.00
30.8974 1110.00
31.2017 3053.00
31.5059 4793.00
31.8102 6618.00
32.1144 3437.00
32.4187 4654.00
32.723 1494.00
33.0272 1388.00
33.3315 1294.00
33.6357 940.00
33.94 970.00
34.2443 1098.00
34.5485 5690.00
34.8528 1243.00
35.157 1927.00
35.4613 991.00
35.7656 864.00
36.0698 1016.00
36.3741 871.00
36.6783 820.00
36.9826 934.00
37.2869 820.00
37.5911 1022.00
37.8954 1256.00
38.1996 1129.00
38.5039 785.00
38.8082 1181.00
39.1124 1548.00
39.4167 784.00
39.7209 778.00
40.0252 721.00
40.3295 636.00
40.6337 750.00
40.938 1667.00
41.2422 1915.00
41.5465 902.00
41.8508 700.00
42.155 815.00
42.4593 790.00
42.7635 668.00
43.0678 665.00
43.3721 672.00
43.6763 627.00
43.9806 946.00
44.2849 593.00
44.5891 623.00
44.8934 628.00
45.1976 764.00
45.5019 693.00
45.8062 862.00
46.1104 1101.00
46.4147 759.00
46.7189 1573.00
47.0232 815.00
47.3275 555.00
47.6317 501.00
47.936 576.00
48.2402 526.00
48.5445 527.00
48.8488 680.00
49.153 999.00
49.4573 1375.00
49.7615 602.00
50.0658 515.00
50.3701 499.00
50.6743 928.00
50.9786 744.00
51.2828 507.00
51.5871 602.00
51.8914 999.00
52.1956 613.00
52.4999 561.00
52.8041 499.00
53.1084 619.00
53.4127 1010.00
53.7169 1297.00
54.0212 588.00
54.3254 468.00
54.6297 443.00
54.934 616.00
55.2382 1066.00
55.5425 655.00
55.8467 462.00
56.151 527.00
56.4553 780.00
56.7595 671.00
57.0638 564.00
57.368 699.00
57.6723 486.00
57.9766 487.00
58.2808 854.00
58.5851 439.00
58.8893 390.00
59.1936 409.00
59.4979 405.00
59.8021 411.00
60.1064 750.00
60.4106 589.00
60.7149 800.00
61.0192 712.00
61.3234 710.00
61.6277 536.00
61.932 430.00
62.2362 620.00
62.5405 628.00
62.8447 429.00
63.149 447.00
63.4533 353.00
63.7575 417.00
64.0618 947.00
64.366 434.00
64.6703 469.00
64.9745 486.00
65.2788 479.00
65.5831 510.00
65.8873 398.00
66.1916 929.00
66.4959 687.00
66.8001 433.00
67.1044 416.00
67.4086 575.00
67.7129 514.00
68.0172 414.00
68.3214 698.00
68.6257 524.00
68.9299 602.00
69.2342 666.00
69.5385 368.00
69.8427 368.00
70.147 350.00
70.4512 370.00
70.7555 386.00
71.0598 381.00
71.364 438.00
71.6683 345.00
71.9725 436.00
72.2768 419.00
72.5811 351.00
72.8853 338.00
73.1896 362.00
73.4938 407.00
73.7981 404.00
74.1024 344.00
74.4066 348.00
74.7109 485.00
75.0151 344.00
75.3194 329.00
75.6237 318.00
75.9279 395.00
76.2322 423.00
76.5364 562.00
76.8407 490.00
77.145 419.00
77.4492 460.00
77.7535 355.00
78.0577 524.00
78.362 597.00
78.6663 435.00
78.9705 353.00
79.2748 339.00
79.579 341.00
79.8833 328.00
80.1876 355.00
80.4918 428.00
80.7961 352.00
81.1003 373.00
81.4046 383.00
81.7089 339.00
82.0131 329.00
82.3174 356.00
82.6217 677.00
82.9259 469.00
83.2302 351.00
83.5344 362.00
83.8387 374.00
84.143 345.00
84.4472 540.00
84.7515 568.00
85.0557 426.00
85.36 297.00
85.6643 329.00
85.9685 312.00
86.2728 325.00
86.577 317.00
86.8813 337.00
87.1856 323.00
87.4898 277.00
87.7941 309.00
88.0983 305.00
88.4026 393.00
88.7069 375.00
89.0111 286.00
89.3154 290.00
89.6196 341.00
89.9239 438.00
90.2282 368.00
90.5324 487.00
90.8367 481.00
91.1409 379.00
91.4452 349.00
91.7495 360.00
92.0537 303.00
92.358 304.00
92.6622 368.00
92.9665 349.00
93.2708 314.00
93.575 440.00
93.8793 382.00
94.1835 315.00
94.4878 354.00
94.7921 417.00
95.0963 338.00
95.4006 306.00
95.7048 333.00
96.0091 291.00
96.3134 340.00
96.6176 282.00
96.9219 320.00
97.2261 361.00
97.5304 356.00
97.8347 349.00
98.1389 280.00
98.4432 315.00
98.7474 302.00
99.0517 298.00
99.356 296.00
99.6602 288.00
99.9645 284.00
100.095 257.00