File: data/xrd_creation/results/PG_2645-1.xy
9.903433 3387.00
10.2077 3311.00
10.512 3190.00
10.8162 3124.00
11.1205 3076.00
11.4247 3018.00
11.729 2941.00
12.0333 3026.00
12.3375 2952.00
12.6418 2910.00
12.946 2861.00
13.2503 2924.00
13.5546 2845.00
13.8588 2815.00
14.1631 2798.00
14.4673 2679.00
14.7716 2771.00
15.0759 2794.00
15.3801 2829.00
15.6844 2715.00
15.9886 2684.00
16.2929 2761.00
16.5972 2741.00
16.9014 2791.00
17.2057 2700.00
17.5099 2720.00
17.8142 2840.00
18.1185 2649.00
18.4227 2709.00
18.727 2653.00
19.0312 2929.00
19.3355 2745.00
19.6398 2586.00
19.944 2707.00
20.2483 2598.00
20.5525 2889.00
20.8568 2603.00
21.1611 2563.00
21.4653 2725.00
21.7696 2695.00
22.0738 2621.00
22.3781 2572.00
22.6824 2620.00
22.9866 2665.00
23.2909 2675.00
23.5951 2600.00
23.8994 2489.00
24.2037 2571.00
24.5079 2641.00
24.8122 2668.00
25.1164 2729.00
25.4207 8181.00
25.725 3066.00
26.0292 4946.00
26.3335 2896.00
26.6378 2653.00
26.942 2625.00
27.2463 2751.00
27.5505 5637.00
27.8548 2947.00
28.1591 2692.00
28.4633 2605.00
28.7676 2771.00
29.0718 2616.00
29.3761 2533.00
29.6804 2636.00
29.9846 3778.00
30.2889 2663.00
30.5931 3018.00
30.8974 2612.00
31.2017 2549.00
31.5059 2894.00
31.8102 3494.00
32.1144 2743.00
32.4187 3186.00
32.723 2955.00
33.0272 5187.00
33.3315 6543.00
33.6357 2545.00
33.94 2488.00
34.2443 2574.00
34.5485 2633.00
34.8528 3258.00
35.157 2826.00
35.4613 6070.00
35.7656 2939.00
36.0698 2696.00
36.3741 3153.00
36.6783 3357.00
36.9826 4289.00
37.2869 2780.00
37.5911 2376.00
37.8954 2390.00
38.1996 2363.00
38.5039 3256.00
38.8082 2389.00
39.1124 2348.00
39.4167 2391.00
39.7209 2796.00
40.0252 3191.00
40.3295 2401.00
40.6337 2551.00
40.938 2463.00
41.2422 2292.00
41.5465 2637.00
41.8508 2465.00
42.155 2265.00
42.4593 2583.00
42.7635 2453.00
43.0678 2614.00
43.3721 3911.00
43.6763 3426.00
43.9806 2651.00
44.2849 3962.00
44.5891 3607.00
44.8934 2569.00
45.1976 2406.00
45.5019 2665.00
45.8062 2713.00
46.1104 3050.00
46.4147 2314.00
46.7189 2683.00
47.0232 2993.00
47.3275 2347.00
47.6317 2468.00
47.936 3645.00
48.2402 2731.00
48.5445 2415.00
48.8488 2506.00
49.153 3927.00
49.4573 2799.00
49.7615 2848.00
50.0658 2869.00
50.3701 3259.00
50.6743 2815.00
50.9786 2491.00
51.2828 2252.00
51.5871 2278.00
51.8914 2501.00
52.1956 2320.00
52.4999 2239.00
52.8041 2297.00
53.1084 2329.00
53.4127 2311.00
53.7169 2260.00
54.0212 2488.00
54.3254 2399.00
54.6297 2358.00
54.934 2326.00
55.2382 2537.00
55.5425 3786.00
55.8467 2553.00
56.151 2332.00
56.4553 2455.00
56.7595 2352.00
57.0638 2400.00
57.368 2506.00
57.6723 2682.00
57.9766 2387.00
58.2808 2348.00
58.5851 2320.00
58.8893 3416.00
59.1936 3030.00
59.4979 2359.00
59.8021 2379.00
60.1064 2899.00
60.4106 3341.00
60.7149 2623.00
61.0192 2416.00
61.3234 2310.00
61.6277 2245.00
61.932 2311.00
62.2362 2301.00
62.5405 2350.00
62.8447 2452.00
63.149 2391.00
63.4533 2355.00
63.7575 2250.00
64.0618 2444.00
64.366 2699.00
64.6703 2394.00
64.9745 2764.00
65.2788 2555.00
65.5831 2560.00
65.8873 2584.00
66.1916 2755.00
66.4959 2423.00
66.8001 2536.00
67.1044 2430.00
67.4086 2262.00
67.7129 2456.00
68.0172 2191.00
68.3214 2232.00
68.6257 2201.00
68.9299 2411.00
69.2342 3044.00
69.5385 2359.00
69.8427 2132.00
70.147 2253.00
70.4512 2199.00
70.7555 2219.00
71.0598 2229.00
71.364 2258.00
71.6683 2186.00
71.9725 2191.00
72.2768 2740.00
72.5811 2329.00
72.8853 2237.00
73.1896 2286.00
73.4938 2266.00
73.7981 2511.00
74.1024 2878.00
74.4066 2596.00
74.7109 2964.00
75.0151 2693.00
75.3194 2410.00
75.6237 2542.00
75.9279 2422.00
76.2322 2516.00
76.5364 2380.00
76.8407 2349.00
77.145 2204.00
77.4492 2294.00
77.7535 2255.00
78.0577 2400.00
78.362 2234.00
78.6663 2389.00
78.9705 2134.00
79.2748 2203.00
79.579 2146.00
79.8833 2371.00
80.1876 2438.00
80.4918 2423.00
80.7961 2247.00
81.1003 2305.00
81.4046 2255.00
81.7089 2178.00
82.0131 2311.00
82.3174 2426.00
82.6217 2395.00
82.9259 2304.00
83.2302 2373.00
83.5344 2496.00
83.8387 2391.00
84.143 2307.00
84.4472 2422.00
84.7515 2378.00
85.0557 2464.00
85.36 2413.00
85.6643 2405.00
85.9685 2281.00
86.2728 2292.00
86.577 2277.00
86.8813 2232.00
87.1856 2236.00
87.4898 2220.00
87.7941 2265.00
88.0983 2218.00
88.4026 2265.00
88.7069 2325.00
89.0111 2272.00
89.3154 2352.00
89.6196 2291.00
89.9239 2303.00
90.2282 2251.00
90.5324 2222.00
90.8367 2209.00
91.1409 2359.00
91.4452 2282.00
91.7495 2192.00
92.0537 2285.00
92.358 2126.00
92.6622 2228.00
92.9665 2204.00
93.2708 2306.00
93.575 2340.00
93.8793 2227.00
94.1835 2430.00
94.4878 2386.00
94.7921 2441.00
95.0963 2613.00
95.4006 2490.00
95.7048 2280.00
96.0091 2280.00
96.3134 2241.00
96.6176 2184.00
96.9219 2363.00
97.2261 2416.00
97.5304 2314.00
97.8347 2251.00
98.1389 2236.00
98.4432 2402.00
98.7474 2214.00
99.0517 2299.00
99.356 2264.00
99.6602 2255.00
99.9645 2222.00
100.095 2130.00