File: data/xrd_creation/results/PG_2650-1.xy
9.903433 2963.00
10.2077 2882.00
10.512 2763.00
10.8162 2689.00
11.1205 2618.00
11.4247 2626.00
11.729 2485.00
12.0333 2538.00
12.3375 2410.00
12.6418 2342.00
12.946 2348.00
13.2503 2282.00
13.5546 2210.00
13.8588 2286.00
14.1631 2371.00
14.4673 2313.00
14.7716 2234.00
15.0759 2331.00
15.3801 2217.00
15.6844 2354.00
15.9886 2620.00
16.2929 2189.00
16.5972 2252.00
16.9014 2329.00
17.2057 2255.00
17.5099 2230.00
17.8142 2230.00
18.1185 2264.00
18.4227 2281.00
18.727 2164.00
19.0312 2182.00
19.3355 2215.00
19.6398 2105.00
19.944 2111.00
20.2483 2163.00
20.5525 2436.00
20.8568 3842.00
21.1611 2226.00
21.4653 2190.00
21.7696 2158.00
22.0738 2091.00
22.3781 2073.00
22.6824 2047.00
22.9866 2142.00
23.2909 2252.00
23.5951 2092.00
23.8994 2036.00
24.2037 1999.00
24.5079 2023.00
24.8122 2141.00
25.1164 2072.00
25.4207 1980.00
25.725 2027.00
26.0292 2045.00
26.3335 1982.00
26.6378 2034.00
26.942 1965.00
27.2463 1945.00
27.5505 2048.00
27.8548 2029.00
28.1591 2099.00
28.4633 2129.00
28.7676 2383.00
29.0718 3146.00
29.3761 14159.00
29.6804 3675.00
29.9846 2369.00
30.2889 5101.00
30.5931 2557.00
30.8974 2087.00
31.2017 2121.00
31.5059 2366.00
31.8102 4186.00
32.1144 2217.00
32.4187 2116.00
32.723 2476.00
33.0272 2385.00
33.3315 7253.00
33.6357 2702.00
33.94 3016.00
34.2443 3366.00
34.5485 1996.00
34.8528 1868.00
35.157 1859.00
35.4613 1927.00
35.7656 2024.00
36.0698 2315.00
36.3741 2926.00
36.6783 2005.00
36.9826 1926.00
37.2869 1955.00
37.5911 2087.00
37.8954 2046.00
38.1996 2157.00
38.5039 2003.00
38.8082 1807.00
39.1124 1895.00
39.4167 1913.00
39.7209 1880.00
40.0252 2228.00
40.3295 2143.00
40.6337 1874.00
40.938 1832.00
41.2422 1892.00
41.5465 1838.00
41.8508 1873.00
42.155 1977.00
42.4593 1877.00
42.7635 1891.00
43.0678 1847.00
43.3721 2123.00
43.6763 4062.00
43.9806 2383.00
44.2849 1829.00
44.5891 1876.00
44.8934 1891.00
45.1976 1782.00
45.5019 1767.00
45.8062 1842.00
46.1104 1883.00
46.4147 1897.00
46.7189 1824.00
47.0232 2125.00
47.3275 2248.00
47.6317 1902.00
47.936 1909.00
48.2402 2091.00
48.5445 2365.00
48.8488 10273.00
49.153 2363.00
49.4573 1912.00
49.7615 1938.00
50.0658 2515.00
50.3701 2397.00
50.6743 1957.00
50.9786 2150.00
51.2828 2487.00
51.5871 4005.00
51.8914 3117.00
52.1956 1997.00
52.4999 1882.00
52.8041 1889.00
53.1084 1896.00
53.4127 2392.00
53.7169 2014.00
54.0212 1919.00
54.3254 2078.00
54.6297 1796.00
54.934 2073.00
55.2382 1936.00
55.5425 1850.00
55.8467 1916.00
56.151 2065.00
56.4553 2815.00
56.7595 1995.00
57.0638 2055.00
57.368 2945.00
57.6723 2813.00
57.9766 5339.00
58.2808 2117.00
58.5851 1931.00
58.8893 1981.00
59.1936 2181.00
59.4979 2398.00
59.8021 1951.00
60.1064 2634.00
60.4106 2258.00
60.7149 3016.00
61.0192 2114.00
61.3234 1944.00
61.6277 2618.00
61.932 2946.00
62.2362 2233.00
62.5405 2202.00
62.8447 2326.00
63.149 1961.00
63.4533 1967.00
63.7575 1830.00
64.0618 1799.00
64.366 1802.00
64.6703 1950.00
64.9745 2388.00
65.2788 2039.00
65.5831 1997.00
65.8873 2004.00
66.1916 2117.00
66.4959 1923.00
66.8001 1760.00
67.1044 1730.00
67.4086 1749.00
67.7129 1871.00
68.0172 2035.00
68.3214 2070.00
68.6257 1876.00
68.9299 1824.00
69.2342 1901.00
69.5385 1986.00
69.8427 2041.00
70.147 1999.00
70.4512 1859.00
70.7555 1733.00
71.0598 1797.00
71.364 2403.00
71.6683 1894.00
71.9725 1814.00
72.2768 1951.00
72.5811 2503.00
72.8853 2012.00
73.1896 1765.00
73.4938 1773.00
73.7981 2099.00
74.1024 1981.00
74.4066 1915.00
74.7109 1867.00
75.0151 1914.00
75.3194 1997.00
75.6237 1813.00
75.9279 1780.00
76.2322 1899.00
76.5364 1979.00
76.8407 1814.00
77.145 1743.00
77.4492 1881.00
77.7535 2075.00
78.0577 1720.00
78.362 1817.00
78.6663 2016.00
78.9705 2260.00
79.2748 1862.00
79.579 1734.00
79.8833 1787.00
80.1876 1870.00
80.4918 1969.00
80.7961 2087.00
81.1003 2036.00
81.4046 2325.00
81.7089 1931.00
82.0131 1834.00
82.3174 1817.00
82.6217 1959.00
82.9259 1986.00
83.2302 2065.00
83.5344 2059.00
83.8387 2018.00
84.143 1821.00
84.4472 1920.00
84.7515 1919.00
85.0557 2228.00
85.36 2220.00
85.6643 1981.00
85.9685 1888.00
86.2728 1847.00
86.577 1782.00
86.8813 1857.00
87.1856 1954.00
87.4898 2154.00
87.7941 1900.00
88.0983 2084.00
88.4026 1990.00
88.7069 1893.00
89.0111 1808.00
89.3154 1784.00
89.6196 1919.00
89.9239 1941.00
90.2282 1827.00
90.5324 1805.00
90.8367 2144.00
91.1409 2203.00
91.4452 2055.00
91.7495 1912.00
92.0537 1988.00
92.358 2009.00
92.6622 1758.00
92.9665 1889.00
93.2708 1787.00
93.575 1946.00
93.8793 1832.00
94.1835 1749.00
94.4878 1819.00
94.7921 1988.00
95.0963 1844.00
95.4006 1954.00
95.7048 2126.00
96.0091 2050.00
96.3134 1951.00
96.6176 1908.00
96.9219 1942.00
97.2261 2030.00
97.5304 1989.00
97.8347 2097.00
98.1389 2243.00
98.4432 2055.00
98.7474 1930.00
99.0517 1809.00
99.356 2103.00
99.6602 1933.00
99.9645 1968.00
100.095 1734.00