File: data/xrd_creation/results/PG_2434-1.xy
9.903433 2746.00
10.2077 2625.00
10.512 2530.00
10.8162 2489.00
11.1205 2313.00
11.4247 2245.00
11.729 2298.00
12.0333 2152.00
12.3375 2115.00
12.6418 2035.00
12.946 2006.00
13.2503 1997.00
13.5546 2055.00
13.8588 1996.00
14.1631 2036.00
14.4673 1980.00
14.7716 2057.00
15.0759 1891.00
15.3801 1963.00
15.6844 2039.00
15.9886 2088.00
16.2929 2261.00
16.5972 4248.00
16.9014 3002.00
17.2057 2289.00
17.5099 2060.00
17.8142 2010.00
18.1185 2078.00
18.4227 2162.00
18.727 1935.00
19.0312 1792.00
19.3355 1873.00
19.6398 1857.00
19.944 1900.00
20.2483 1893.00
20.5525 1838.00
20.8568 1793.00
21.1611 1958.00
21.4653 1823.00
21.7696 2012.00
22.0738 2682.00
22.3781 3283.00
22.6824 1953.00
22.9866 2139.00
23.2909 3783.00
23.5951 2773.00
23.8994 1837.00
24.2037 1813.00
24.5079 2028.00
24.8122 2741.00
25.1164 2096.00
25.4207 1771.00
25.725 1662.00
26.0292 1767.00
26.3335 1698.00
26.6378 1737.00
26.942 1760.00
27.2463 1647.00
27.5505 1711.00
27.8548 1521.00
28.1591 1510.00
28.4633 1583.00
28.7676 2504.00
29.0718 3064.00
29.3761 1616.00
29.6804 1481.00
29.9846 1398.00
30.2889 1368.00
30.5931 1348.00
30.8974 1238.00
31.2017 1217.00
31.5059 1247.00
31.8102 1177.00
32.1144 1142.00
32.4187 1109.00
32.723 1077.00
33.0272 1089.00
33.3315 1172.00
33.6357 1913.00
33.94 2736.00
34.2443 1700.00
34.5485 1139.00
34.8528 988.00
35.157 1003.00
35.4613 970.00
35.7656 952.00
36.0698 964.00
36.3741 894.00
36.6783 1611.00
36.9826 1657.00
37.2869 1044.00
37.5911 970.00
37.8954 982.00
38.1996 835.00
38.5039 936.00
38.8082 977.00
39.1124 891.00
39.4167 817.00
39.7209 842.00
40.0252 784.00
40.3295 742.00
40.6337 767.00
40.938 726.00
41.2422 702.00
41.5465 744.00
41.8508 714.00
42.155 721.00
42.4593 745.00
42.7635 671.00
43.0678 685.00
43.3721 700.00
43.6763 741.00
43.9806 691.00
44.2849 643.00
44.5891 627.00
44.8934 1007.00
45.1976 874.00
45.5019 655.00
45.8062 636.00
46.1104 641.00
46.4147 589.00
46.7189 581.00
47.0232 588.00
47.3275 605.00
47.6317 546.00
47.936 600.00
48.2402 587.00
48.5445 565.00
48.8488 518.00
49.153 573.00
49.4573 610.00
49.7615 534.00
50.0658 546.00
50.3701 544.00
50.6743 614.00
50.9786 886.00
51.2828 708.00
51.5871 716.00
51.8914 540.00
52.1956 546.00
52.4999 508.00
52.8041 498.00
53.1084 492.00
53.4127 492.00
53.7169 497.00
54.0212 492.00
54.3254 581.00
54.6297 582.00
54.934 477.00
55.2382 474.00
55.5425 483.00
55.8467 478.00
56.151 443.00
56.4553 463.00
56.7595 484.00
57.0638 540.00
57.368 677.00
57.6723 526.00
57.9766 518.00
58.2808 444.00
58.5851 511.00
58.8893 523.00
59.1936 506.00
59.4979 473.00
59.8021 510.00
60.1064 538.00
60.4106 660.00
60.7149 642.00
61.0192 818.00
61.3234 569.00
61.6277 481.00
61.932 451.00
62.2362 429.00
62.5405 439.00
62.8447 475.00
63.149 475.00
63.4533 438.00
63.7575 433.00
64.0618 427.00
64.366 416.00
64.6703 437.00
64.9745 437.00
65.2788 425.00
65.5831 428.00
65.8873 427.00
66.1916 396.00
66.4959 456.00
66.8001 399.00
67.1044 423.00
67.4086 459.00
67.7129 436.00
68.0172 458.00
68.3214 548.00
68.6257 428.00
68.9299 416.00
69.2342 407.00
69.5385 396.00
69.8427 403.00
70.147 416.00
70.4512 443.00
70.7555 490.00
71.0598 411.00
71.364 457.00
71.6683 432.00
71.9725 387.00
72.2768 396.00
72.5811 394.00
72.8853 458.00
73.1896 475.00
73.4938 501.00
73.7981 519.00
74.1024 454.00
74.4066 432.00
74.7109 361.00
75.0151 381.00
75.3194 400.00
75.6237 388.00
75.9279 351.00
76.2322 335.00
76.5364 366.00
76.8407 380.00
77.145 369.00
77.4492 386.00
77.7535 402.00
78.0577 398.00
78.362 421.00
78.6663 410.00
78.9705 340.00
79.2748 363.00
79.579 395.00
79.8833 380.00
80.1876 397.00
80.4918 389.00
80.7961 440.00
81.1003 389.00
81.4046 372.00
81.7089 334.00
82.0131 393.00
82.3174 367.00
82.6217 405.00
82.9259 415.00
83.2302 346.00
83.5344 326.00
83.8387 344.00
84.143 329.00
84.4472 337.00
84.7515 309.00
85.0557 315.00
85.36 310.00
85.6643 307.00
85.9685 328.00
86.2728 363.00
86.577 348.00
86.8813 344.00
87.1856 309.00
87.4898 348.00
87.7941 340.00
88.0983 336.00
88.4026 346.00
88.7069 345.00
89.0111 316.00
89.3154 332.00
89.6196 309.00
89.9239 339.00
90.2282 319.00
90.5324 341.00
90.8367 353.00
91.1409 291.00
91.4452 326.00
91.7495 313.00
92.0537 335.00
92.358 276.00
92.6622 350.00
92.9665 305.00
93.2708 293.00
93.575 322.00
93.8793 291.00
94.1835 267.00
94.4878 276.00
94.7921 264.00
95.0963 271.00
95.4006 324.00
95.7048 312.00
96.0091 285.00
96.3134 273.00
96.6176 322.00
96.9219 333.00
97.2261 335.00
97.5304 325.00
97.8347 332.00
98.1389 333.00
98.4432 276.00
98.7474 261.00
99.0517 261.00
99.356 279.00
99.6602 299.00
99.9645 292.00
100.095 333.00