File: data/xrd_creation/results/PG_2150-1.xy
9.903433 2792.00
10.2077 2708.00
10.512 2675.00
10.8162 2527.00
11.1205 2392.00
11.4247 2336.00
11.729 2266.00
12.0333 2120.00
12.3375 2255.00
12.6418 2077.00
12.946 2026.00
13.2503 2043.00
13.5546 2063.00
13.8588 1959.00
14.1631 1915.00
14.4673 2002.00
14.7716 1891.00
15.0759 2031.00
15.3801 2167.00
15.6844 3704.00
15.9886 9937.00
16.2929 2423.00
16.5972 2008.00
16.9014 1817.00
17.2057 1796.00
17.5099 1631.00
17.8142 1691.00
18.1185 1644.00
18.4227 1573.00
18.727 1616.00
19.0312 1527.00
19.3355 1573.00
19.6398 1596.00
19.944 1605.00
20.2483 1500.00
20.5525 1775.00
20.8568 2662.00
21.1611 1520.00
21.4653 1477.00
21.7696 1376.00
22.0738 1364.00
22.3781 1420.00
22.6824 1371.00
22.9866 1376.00
23.2909 1370.00
23.5951 1297.00
23.8994 1390.00
24.2037 1288.00
24.5079 1285.00
24.8122 1303.00
25.1164 1269.00
25.4207 1308.00
25.725 1314.00
26.0292 1183.00
26.3335 1262.00
26.6378 1359.00
26.942 1376.00
27.2463 2054.00
27.5505 7803.00
27.8548 2981.00
28.1591 6599.00
28.4633 4410.00
28.7676 1705.00
29.0718 1781.00
29.3761 8833.00
29.6804 2244.00
29.9846 1364.00
30.2889 1166.00
30.5931 1192.00
30.8974 1188.00
31.2017 1162.00
31.5059 1265.00
31.8102 2217.00
32.1144 1622.00
32.4187 1124.00
32.723 1123.00
33.0272 1134.00
33.3315 1077.00
33.6357 1038.00
33.94 1679.00
34.2443 1771.00
34.5485 1036.00
34.8528 925.00
35.157 983.00
35.4613 964.00
35.7656 1089.00
36.0698 1263.00
36.3741 1627.00
36.6783 1003.00
36.9826 886.00
37.2869 942.00
37.5911 904.00
37.8954 902.00
38.1996 1105.00
38.5039 978.00
38.8082 1046.00
39.1124 1088.00
39.4167 1674.00
39.7209 6328.00
40.0252 2870.00
40.3295 1278.00
40.6337 999.00
40.938 912.00
41.2422 938.00
41.5465 904.00
41.8508 970.00
42.155 1103.00
42.4593 1830.00
42.7635 1258.00
43.0678 950.00
43.3721 929.00
43.6763 1160.00
43.9806 1051.00
44.2849 841.00
44.5891 791.00
44.8934 872.00
45.1976 813.00
45.5019 842.00
45.8062 872.00
46.1104 820.00
46.4147 873.00
46.7189 898.00
47.0232 1021.00
47.3275 1978.00
47.6317 1279.00
47.936 1150.00
48.2402 1639.00
48.5445 3627.00
48.8488 9851.00
49.153 3448.00
49.4573 1395.00
49.7615 1087.00
50.0658 1220.00
50.3701 1621.00
50.6743 925.00
50.9786 807.00
51.2828 879.00
51.5871 772.00
51.8914 841.00
52.1956 776.00
52.4999 819.00
52.8041 851.00
53.1084 822.00
53.4127 1090.00
53.7169 901.00
54.0212 825.00
54.3254 833.00
54.6297 848.00
54.934 981.00
55.2382 1063.00
55.5425 2017.00
55.8467 1209.00
56.151 978.00
56.4553 1776.00
56.7595 1225.00
57.0638 881.00
57.368 811.00
57.6723 1109.00
57.9766 2847.00
58.2808 1175.00
58.5851 815.00
58.8893 1039.00
59.1936 1272.00
59.4979 1193.00
59.8021 779.00
60.1064 714.00
60.4106 784.00
60.7149 1389.00
61.0192 792.00
61.3234 841.00
61.6277 729.00
61.932 750.00
62.2362 886.00
62.5405 756.00
62.8447 726.00
63.149 794.00
63.4533 924.00
63.7575 851.00
64.0618 1186.00
64.366 1740.00
64.6703 1169.00
64.9745 1180.00
65.2788 1112.00
65.5831 1011.00
65.8873 841.00
66.1916 1001.00
66.4959 872.00
66.8001 748.00
67.1044 724.00
67.4086 703.00
67.7129 684.00
68.0172 754.00
68.3214 713.00
68.6257 727.00
68.9299 720.00
69.2342 752.00
69.5385 911.00
69.8427 1408.00
70.147 1379.00
70.4512 971.00
70.7555 869.00
71.0598 944.00
71.364 1220.00
71.6683 822.00
71.9725 765.00
72.2768 725.00
72.5811 1199.00
72.8853 851.00
73.1896 837.00
73.4938 771.00
73.7981 875.00
74.1024 757.00
74.4066 728.00
74.7109 670.00
75.0151 816.00
75.3194 812.00
75.6237 777.00
75.9279 931.00
76.2322 1169.00
76.5364 1259.00
76.8407 1137.00
77.145 1089.00
77.4492 1576.00
77.7535 1832.00
78.0577 1371.00
78.362 1010.00
78.6663 1119.00
78.9705 1251.00
79.2748 821.00
79.579 725.00
79.8833 715.00
80.1876 718.00
80.4918 655.00
80.7961 667.00
81.1003 803.00
81.4046 889.00
81.7089 745.00
82.0131 707.00
82.3174 841.00
82.6217 997.00
82.9259 836.00
83.2302 712.00
83.5344 705.00
83.8387 717.00
84.143 711.00
84.4472 709.00
84.7515 693.00
85.0557 847.00
85.36 821.00
85.6643 684.00
85.9685 696.00
86.2728 670.00
86.577 704.00
86.8813 689.00
87.1856 724.00
87.4898 735.00
87.7941 721.00
88.0983 769.00
88.4026 771.00
88.7069 926.00
89.0111 1057.00
89.3154 914.00
89.6196 846.00
89.9239 914.00
90.2282 865.00
90.5324 974.00
90.8367 1014.00
91.1409 1013.00
91.4452 900.00
91.7495 830.00
92.0537 866.00
92.358 800.00
92.6622 776.00
92.9665 728.00
93.2708 737.00
93.575 757.00
93.8793 734.00
94.1835 670.00
94.4878 711.00
94.7921 786.00
95.0963 791.00
95.4006 802.00
95.7048 1156.00
96.0091 1159.00
96.3134 939.00
96.6176 940.00
96.9219 1034.00
97.2261 990.00
97.5304 825.00
97.8347 792.00
98.1389 868.00
98.4432 825.00
98.7474 774.00
99.0517 828.00
99.356 832.00
99.6602 805.00
99.9645 746.00
100.095 698.00