File: data/xrd_creation/results/PG_2640-1.xy
9.903433 2561.00
10.2077 2562.00
10.512 2490.00
10.8162 2259.00
11.1205 2196.00
11.4247 2292.00
11.729 2101.00
12.0333 2004.00
12.3375 1927.00
12.6418 1994.00
12.946 1801.00
13.2503 1830.00
13.5546 1748.00
13.8588 1756.00
14.1631 1951.00
14.4673 3145.00
14.7716 1770.00
15.0759 1653.00
15.3801 1727.00
15.6844 1571.00
15.9886 1661.00
16.2929 1505.00
16.5972 1572.00
16.9014 1541.00
17.2057 1519.00
17.5099 1538.00
17.8142 1496.00
18.1185 1450.00
18.4227 1469.00
18.727 1401.00
19.0312 1379.00
19.3355 1383.00
19.6398 1447.00
19.944 1351.00
20.2483 1430.00
20.5525 1426.00
20.8568 1320.00
21.1611 1424.00
21.4653 1319.00
21.7696 1345.00
22.0738 1246.00
22.3781 1288.00
22.6824 1369.00
22.9866 1311.00
23.2909 1310.00
23.5951 1254.00
23.8994 1276.00
24.2037 1267.00
24.5079 1371.00
24.8122 1337.00
25.1164 1265.00
25.4207 1240.00
25.725 1247.00
26.0292 1497.00
26.3335 2746.00
26.6378 18269.00
26.942 3796.00
27.2463 1743.00
27.5505 2173.00
27.8548 1401.00
28.1591 1296.00
28.4633 1329.00
28.7676 1673.00
29.0718 2366.00
29.3761 1633.00
29.6804 1252.00
29.9846 1228.00
30.2889 1193.00
30.5931 1700.00
30.8974 2558.00
31.2017 4829.00
31.5059 1589.00
31.8102 1826.00
32.1144 3249.00
32.4187 7668.00
32.723 2824.00
33.0272 1889.00
33.3315 2272.00
33.6357 1350.00
33.94 1556.00
34.2443 4287.00
34.5485 2514.00
34.8528 1218.00
35.157 1302.00
35.4613 1098.00
35.7656 1139.00
36.0698 1134.00
36.3741 1285.00
36.6783 1187.00
36.9826 1306.00
37.2869 1191.00
37.5911 1028.00
37.8954 972.00
38.1996 1050.00
38.5039 1198.00
38.8082 1011.00
39.1124 981.00
39.4167 1099.00
39.7209 1591.00
40.0252 1270.00
40.3295 1486.00
40.6337 1018.00
40.938 1473.00
41.2422 1081.00
41.5465 992.00
41.8508 1010.00
42.155 955.00
42.4593 1048.00
42.7635 976.00
43.0678 1004.00
43.3721 993.00
43.6763 1107.00
43.9806 1196.00
44.2849 1184.00
44.5891 1660.00
44.8934 2155.00
45.1976 1498.00
45.5019 1275.00
45.8062 1194.00
46.1104 1611.00
46.4147 2291.00
46.7189 1599.00
47.0232 1155.00
47.3275 1160.00
47.6317 1950.00
47.936 3507.00
48.2402 1180.00
48.5445 1135.00
48.8488 1027.00
49.153 1060.00
49.4573 1298.00
49.7615 1733.00
50.0658 3274.00
50.3701 2254.00
50.6743 1510.00
50.9786 1234.00
51.2828 1152.00
51.5871 1039.00
51.8914 1095.00
52.1956 2163.00
52.4999 5327.00
52.8041 1328.00
53.1084 1161.00
53.4127 1316.00
53.7169 1147.00
54.0212 1255.00
54.3254 1123.00
54.6297 1143.00
54.934 1075.00
55.2382 1167.00
55.5425 1309.00
55.8467 1095.00
56.151 1363.00
56.4553 1779.00
56.7595 1174.00
57.0638 1121.00
57.368 1045.00
57.6723 1176.00
57.9766 1432.00
58.2808 2222.00
58.5851 1744.00
58.8893 1569.00
59.1936 1264.00
59.4979 2108.00
59.8021 1404.00
60.1064 1293.00
60.4106 1405.00
60.7149 1980.00
61.0192 1646.00
61.3234 1286.00
61.6277 1255.00
61.932 952.00
62.2362 967.00
62.5405 1024.00
62.8447 1088.00
63.149 1158.00
63.4533 1391.00
63.7575 1321.00
64.0618 1152.00
64.366 1735.00
64.6703 1103.00
64.9745 1006.00
65.2788 1007.00
65.5831 959.00
65.8873 1263.00
66.1916 2419.00
66.4959 2069.00
66.8001 1138.00
67.1044 963.00
67.4086 997.00
67.7129 988.00
68.0172 947.00
68.3214 1039.00
68.6257 1106.00
68.9299 977.00
69.2342 996.00
69.5385 1018.00
69.8427 1135.00
70.147 1336.00
70.4512 1112.00
70.7555 895.00
71.0598 909.00
71.364 958.00
71.6683 1004.00
71.9725 1242.00
72.2768 1433.00
72.5811 1239.00
72.8853 1014.00
73.1896 984.00
73.4938 1062.00
73.7981 1150.00
74.1024 1250.00
74.4066 1138.00
74.7109 972.00
75.0151 1048.00
75.3194 1139.00
75.6237 1446.00
75.9279 1153.00
76.2322 1013.00
76.5364 1345.00
76.8407 1510.00
77.145 996.00
77.4492 909.00
77.7535 861.00
78.0577 908.00
78.362 903.00
78.6663 907.00
78.9705 898.00
79.2748 1016.00
79.579 995.00
79.8833 1059.00
80.1876 1021.00
80.4918 1006.00
80.7961 1069.00
81.1003 1059.00
81.4046 929.00
81.7089 987.00
82.0131 1012.00
82.3174 999.00
82.6217 1117.00
82.9259 1443.00
83.2302 1476.00
83.5344 1431.00
83.8387 1436.00
84.143 1259.00
84.4472 1302.00
84.7515 1640.00
85.0557 1419.00
85.36 1149.00
85.6643 1078.00
85.9685 1024.00
86.2728 1366.00
86.577 1089.00
86.8813 1079.00
87.1856 1119.00
87.4898 1068.00
87.7941 1160.00
88.0983 1175.00
88.4026 1000.00
88.7069 997.00
89.0111 1037.00
89.3154 1043.00
89.6196 1143.00
89.9239 1195.00
90.2282 1120.00
90.5324 1065.00
90.8367 1079.00
91.1409 1064.00
91.4452 1363.00
91.7495 1111.00
92.0537 1029.00
92.358 1005.00
92.6622 951.00
92.9665 1005.00
93.2708 1174.00
93.575 1090.00
93.8793 1066.00
94.1835 917.00
94.4878 943.00
94.7921 916.00
95.0963 911.00
95.4006 893.00
95.7048 884.00
96.0091 1086.00
96.3134 996.00
96.6176 930.00
96.9219 982.00
97.2261 1013.00
97.5304 1032.00
97.8347 1171.00
98.1389 1154.00
98.4432 1041.00
98.7474 1013.00
99.0517 975.00
99.356 945.00
99.6602 914.00
99.9645 923.00
100.095 873.00