File: data/xrd_creation/results/PG_2444-1.xy
9.903433 2616.00
10.2077 2553.00
10.512 2406.00
10.8162 2440.00
11.1205 2302.00
11.4247 2214.00
11.729 2192.00
12.0333 2115.00
12.3375 2045.00
12.6418 2035.00
12.946 1965.00
13.2503 1943.00
13.5546 1830.00
13.8588 1763.00
14.1631 1809.00
14.4673 1823.00
14.7716 1675.00
15.0759 1614.00
15.3801 1721.00
15.6844 1664.00
15.9886 1623.00
16.2929 1585.00
16.5972 1586.00
16.9014 1481.00
17.2057 1537.00
17.5099 1508.00
17.8142 1429.00
18.1185 1463.00
18.4227 1425.00
18.727 1429.00
19.0312 1344.00
19.3355 1384.00
19.6398 1317.00
19.944 1176.00
20.2483 1235.00
20.5525 1246.00
20.8568 1176.00
21.1611 1211.00
21.4653 1367.00
21.7696 1338.00
22.0738 1180.00
22.3781 1151.00
22.6824 1170.00
22.9866 1149.00
23.2909 1142.00
23.5951 1129.00
23.8994 1081.00
24.2037 1100.00
24.5079 1057.00
24.8122 1024.00
25.1164 1103.00
25.4207 995.00
25.725 1074.00
26.0292 1246.00
26.3335 1599.00
26.6378 4151.00
26.942 22178.00
27.2463 2204.00
27.5505 1251.00
27.8548 1108.00
28.1591 1059.00
28.4633 1005.00
28.7676 953.00
29.0718 918.00
29.3761 946.00
29.6804 965.00
29.9846 913.00
30.2889 827.00
30.5931 930.00
30.8974 1121.00
31.2017 870.00
31.5059 871.00
31.8102 988.00
32.1144 1034.00
32.4187 852.00
32.723 830.00
33.0272 831.00
33.3315 970.00
33.6357 1286.00
33.94 3427.00
34.2443 17122.00
34.5485 1894.00
34.8528 956.00
35.157 861.00
35.4613 790.00
35.7656 723.00
36.0698 721.00
36.3741 746.00
36.6783 696.00
36.9826 762.00
37.2869 809.00
37.5911 804.00
37.8954 946.00
38.1996 4869.00
38.5039 1262.00
38.8082 773.00
39.1124 817.00
39.4167 1160.00
39.7209 649.00
40.0252 635.00
40.3295 628.00
40.6337 537.00
40.938 533.00
41.2422 572.00
41.5465 526.00
41.8508 487.00
42.155 501.00
42.4593 548.00
42.7635 600.00
43.0678 728.00
43.3721 520.00
43.6763 508.00
43.9806 504.00
44.2849 483.00
44.5891 480.00
44.8934 482.00
45.1976 513.00
45.5019 458.00
45.8062 495.00
46.1104 463.00
46.4147 468.00
46.7189 507.00
47.0232 442.00
47.3275 464.00
47.6317 436.00
47.936 459.00
48.2402 450.00
48.5445 467.00
48.8488 416.00
49.153 511.00
49.4573 459.00
49.7615 488.00
50.0658 485.00
50.3701 519.00
50.6743 517.00
50.9786 552.00
51.2828 661.00
51.5871 1032.00
51.8914 3986.00
52.1956 10505.00
52.4999 1240.00
52.8041 662.00
53.1084 569.00
53.4127 553.00
53.7169 458.00
54.0212 506.00
54.3254 537.00
54.6297 637.00
54.934 2188.00
55.2382 1939.00
55.5425 533.00
55.8467 514.00
56.151 433.00
56.4553 495.00
56.7595 419.00
57.0638 425.00
57.368 458.00
57.6723 510.00
57.9766 1047.00
58.2808 1276.00
58.5851 527.00
58.8893 461.00
59.1936 428.00
59.4979 417.00
59.8021 470.00
60.1064 463.00
60.4106 394.00
60.7149 378.00
61.0192 414.00
61.3234 431.00
61.6277 503.00
61.932 883.00
62.2362 2528.00
62.5405 697.00
62.8447 512.00
63.149 446.00
63.4533 425.00
63.7575 453.00
64.0618 453.00
64.366 508.00
64.6703 746.00
64.9745 3309.00
65.2788 1324.00
65.5831 550.00
65.8873 782.00
66.1916 3895.00
66.4959 1665.00
66.8001 495.00
67.1044 404.00
67.4086 395.00
67.7129 408.00
68.0172 370.00
68.3214 363.00
68.6257 345.00
68.9299 397.00
69.2342 382.00
69.5385 408.00
69.8427 395.00
70.147 332.00
70.4512 398.00
70.7555 372.00
71.0598 386.00
71.364 819.00
71.6683 1262.00
71.9725 487.00
72.2768 364.00
72.5811 394.00
72.8853 349.00
73.1896 351.00
73.4938 333.00
73.7981 340.00
74.1024 317.00
74.4066 328.00
74.7109 379.00
75.0151 359.00
75.3194 342.00
75.6237 315.00
75.9279 321.00
76.2322 331.00
76.5364 322.00
76.8407 311.00
77.145 314.00
77.4492 290.00
77.7535 355.00
78.0577 338.00
78.362 367.00
78.6663 606.00
78.9705 2736.00
79.2748 1078.00
79.579 421.00
79.8833 337.00
80.1876 372.00
80.4918 344.00
80.7961 335.00
81.1003 434.00
81.4046 1060.00
81.7089 521.00
82.0131 365.00
82.3174 365.00
82.6217 319.00
82.9259 365.00
83.2302 349.00
83.5344 413.00
83.8387 1092.00
84.143 1233.00
84.4472 508.00
84.7515 356.00
85.0557 337.00
85.36 311.00
85.6643 329.00
85.9685 340.00
86.2728 303.00
86.577 313.00
86.8813 344.00
87.1856 411.00
87.4898 972.00
87.7941 647.00
88.0983 341.00
88.4026 333.00
88.7069 334.00
89.0111 335.00
89.3154 374.00
89.6196 515.00
89.9239 1487.00
90.2282 1350.00
90.5324 584.00
90.8367 688.00
91.1409 2261.00
91.4452 1308.00
91.7495 452.00
92.0537 383.00
92.358 327.00
92.6622 348.00
92.9665 357.00
93.2708 523.00
93.575 1001.00
93.8793 676.00
94.1835 370.00
94.4878 303.00
94.7921 292.00
95.0963 290.00
95.4006 327.00
95.7048 320.00
96.0091 530.00
96.3134 783.00
96.6176 611.00
96.9219 356.00
97.2261 301.00
97.5304 318.00
97.8347 296.00
98.1389 312.00
98.4432 268.00
98.7474 295.00
99.0517 331.00
99.356 340.00
99.6602 300.00
99.9645 320.00
100.095 314.00