File: data/xrd_creation/results/TRI_199.xy
10.0094 2473.00
10.3137 2441.00
10.618 2409.00
10.9222 2239.00
11.2265 2106.00
11.5307 2128.00
11.835 1994.00
12.1393 1989.00
12.4435 1923.00
12.7478 1859.00
13.052 1839.00
13.3563 1862.00
13.6606 1801.00
13.9648 1756.00
14.2691 1720.00
14.5733 1666.00
14.8776 1727.00
15.1819 1642.00
15.4861 1622.00
15.7904 1630.00
16.0946 1630.00
16.3989 1596.00
16.7032 1598.00
17.0074 1534.00
17.3117 1572.00
17.6159 1551.00
17.9202 1587.00
18.2245 1976.00
18.5287 1513.00
18.833 1471.00
19.1372 1439.00
19.4415 1401.00
19.7458 1403.00
20.05 1450.00
20.3543 1373.00
20.6585 1459.00
20.9628 1371.00
21.2671 1314.00
21.5713 1401.00
21.8756 1344.00
22.1798 1359.00
22.4841 1367.00
22.7884 1272.00
23.0926 1300.00
23.3969 1316.00
23.7011 1296.00
24.0054 1277.00
24.3097 1173.00
24.6139 1363.00
24.9182 1189.00
25.2224 1178.00
25.5267 1192.00
25.831 1181.00
26.1352 1183.00
26.4395 1162.00
26.7438 1224.00
27.048 1166.00
27.3523 1160.00
27.6565 1150.00
27.9608 1181.00
28.2651 1096.00
28.5693 1085.00
28.8736 1149.00
29.1778 1116.00
29.4821 1231.00
29.7864 2219.00
30.0906 1505.00
30.3949 1097.00
30.6991 1041.00
31.0034 1136.00
31.3077 1088.00
31.6119 1131.00
31.9162 1054.00
32.2204 1063.00
32.5247 1019.00
32.829 1004.00
33.1332 1069.00
33.4375 1076.00
33.7417 967.00
34.046 1023.00
34.3503 1159.00
34.6545 1458.00
34.9588 2947.00
35.263 5441.00
35.5673 1374.00
35.8716 1094.00
36.1758 1086.00
36.4801 1245.00
36.7843 1383.00
37.0886 985.00
37.3929 1044.00
37.6971 976.00
38.0014 1028.00
38.3056 1015.00
38.6099 937.00
38.9142 962.00
39.2184 915.00
39.5227 940.00
39.8269 911.00
40.1312 945.00
40.4355 990.00
40.7397 1062.00
41.044 1094.00
41.3482 1016.00
41.6525 1038.00
41.9568 1036.00
42.261 1154.00
42.5653 1784.00
42.8695 1315.00
43.1738 1009.00
43.4781 958.00
43.7823 900.00
44.0866 870.00
44.3909 904.00
44.6951 949.00
44.9994 871.00
45.3036 866.00
45.6079 901.00
45.9122 898.00
46.2164 884.00
46.5207 945.00
46.8249 947.00
47.1292 899.00
47.4335 920.00
47.7377 915.00
48.042 859.00
48.3462 918.00
48.6505 872.00
48.9548 899.00
49.259 895.00
49.5633 939.00
49.8675 946.00
50.1718 966.00
50.4761 935.00
50.7803 968.00
51.0846 895.00
51.3888 897.00
51.6931 891.00
51.9974 961.00
52.3016 969.00
52.6059 1053.00
52.9101 1357.00
53.2144 966.00
53.5187 927.00
53.8229 940.00
54.1272 1054.00
54.4314 1024.00
54.7357 930.00
55.04 937.00
55.3442 999.00
55.6485 1093.00
55.9527 1339.00
56.257 2851.00
56.5613 1428.00
56.8655 971.00
57.1698 936.00
57.474 978.00
57.7783 906.00
58.0826 960.00
58.3868 952.00
58.6911 978.00
58.9953 1090.00
59.2996 984.00
59.6039 972.00
59.9081 940.00
60.2124 964.00
60.5166 1033.00
60.8209 982.00
61.1252 1122.00
61.4294 1538.00
61.7337 3365.00
62.0379 1485.00
62.3422 980.00
62.6465 995.00
62.9507 973.00
63.255 963.00
63.5592 959.00
63.8635 879.00
64.1678 883.00
64.472 866.00
64.7763 956.00
65.0806 979.00
65.3848 984.00
65.6891 888.00
65.9933 853.00
66.2976 901.00
66.6019 927.00
66.9061 957.00
67.2104 908.00
67.5146 920.00
67.8189 897.00
68.1232 811.00
68.4274 948.00
68.7317 901.00
69.0359 941.00
69.3402 897.00
69.6445 933.00
69.9487 1025.00
70.253 1005.00
70.5572 975.00
70.8615 953.00
71.1658 924.00
71.47 921.00
71.7743 947.00
72.0785 952.00
72.3828 1030.00
72.6871 1028.00
72.9913 1273.00
73.2956 986.00
73.5998 974.00
73.9041 1085.00
74.2084 1044.00
74.5126 925.00
74.8169 906.00
75.1211 942.00
75.4254 952.00
75.7297 906.00
76.0339 854.00
76.3382 962.00
76.6424 899.00
76.9467 910.00
77.251 926.00
77.5552 1003.00
77.8595 975.00
78.1637 877.00
78.468 885.00
78.7723 895.00
79.0765 923.00
79.3808 941.00
79.685 941.00
79.9893 959.00
80.2936 969.00
80.5978 1006.00
80.9021 956.00
81.2063 884.00
81.5106 967.00
81.8149 966.00
82.1191 967.00
82.4234 956.00
82.7277 892.00
83.0319 941.00
83.3362 879.00
83.6404 968.00
83.9447 922.00
84.249 887.00
84.5532 932.00
84.8575 978.00
85.1617 1037.00
85.466 991.00
85.7703 988.00
86.0745 943.00
86.3788 959.00
86.683 953.00
86.9873 918.00
87.2916 938.00
87.5958 1025.00
87.9001 1206.00
88.2043 1388.00
88.5086 1166.00
88.8129 966.00
89.1171 956.00
89.4214 1007.00
89.7256 956.00
90.0299 947.00
90.3342 977.00
90.6384 989.00
90.9427 926.00
91.2469 970.00
91.5512 941.00
91.8555 950.00
92.1597 957.00
92.464 952.00
92.7682 1124.00
93.0725 1082.00
93.3768 995.00
93.681 956.00
93.9853 950.00
94.2895 919.00
94.5938 957.00
94.8981 918.00
95.2023 979.00
95.5066 940.00
95.8108 913.00
96.1151 882.00
96.4194 954.00
96.7236 974.00
97.0279 980.00
97.3321 908.00
97.6364 946.00
97.9407 950.00
98.2449 922.00
98.5492 917.00
98.8534 967.00
99.1577 949.00
99.462 963.00
99.7662 990.00
99.9944 952.00