File: data/xrd_creation/results/TRI_193.xy
10.0094 2303.00
10.3137 2278.00
10.618 2262.00
10.9222 2154.00
11.2265 2001.00
11.5307 1924.00
11.835 1819.00
12.1393 1800.00
12.4435 1726.00
12.7478 1743.00
13.052 1625.00
13.3563 1673.00
13.6606 1569.00
13.9648 1561.00
14.2691 1477.00
14.5733 1504.00
14.8776 1468.00
15.1819 1410.00
15.4861 1467.00
15.7904 1406.00
16.0946 1338.00
16.3989 1395.00
16.7032 1335.00
17.0074 1397.00
17.3117 1434.00
17.6159 1401.00
17.9202 1252.00
18.2245 1243.00
18.5287 1213.00
18.833 1201.00
19.1372 1181.00
19.4415 1173.00
19.7458 1155.00
20.05 1116.00
20.3543 1155.00
20.6585 1166.00
20.9628 1171.00
21.2671 1134.00
21.5713 1139.00
21.8756 1071.00
22.1798 1015.00
22.4841 1131.00
22.7884 1058.00
23.0926 1034.00
23.3969 1020.00
23.7011 997.00
24.0054 1007.00
24.3097 1015.00
24.6139 999.00
24.9182 1018.00
25.2224 936.00
25.5267 939.00
25.831 944.00
26.1352 960.00
26.4395 929.00
26.7438 1000.00
27.048 1016.00
27.3523 1225.00
27.6565 2962.00
27.9608 1563.00
28.2651 1152.00
28.5693 1200.00
28.8736 913.00
29.1778 1165.00
29.4821 1755.00
29.7864 955.00
30.0906 922.00
30.3949 871.00
30.6991 862.00
31.0034 909.00
31.3077 850.00
31.6119 835.00
31.9162 806.00
32.2204 767.00
32.5247 772.00
32.829 783.00
33.1332 741.00
33.4375 781.00
33.7417 911.00
34.046 998.00
34.3503 1038.00
34.6545 1123.00
34.9588 778.00
35.263 846.00
35.5673 856.00
35.8716 798.00
36.1758 790.00
36.4801 731.00
36.7843 841.00
37.0886 959.00
37.3929 985.00
37.6971 736.00
38.0014 765.00
38.3056 786.00
38.6099 761.00
38.9142 779.00
39.2184 685.00
39.5227 741.00
39.8269 732.00
40.1312 701.00
40.4355 866.00
40.7397 745.00
41.044 779.00
41.3482 747.00
41.6525 878.00
41.9568 865.00
42.261 792.00
42.5653 842.00
42.8695 1059.00
43.1738 811.00
43.4781 719.00
43.7823 731.00
44.0866 769.00
44.3909 767.00
44.6951 774.00
44.9994 686.00
45.3036 641.00
45.6079 756.00
45.9122 902.00
46.2164 922.00
46.5207 858.00
46.8249 748.00
47.1292 699.00
47.4335 695.00
47.7377 714.00
48.042 664.00
48.3462 695.00
48.6505 727.00
48.9548 682.00
49.259 695.00
49.5633 694.00
49.8675 693.00
50.1718 706.00
50.4761 737.00
50.7803 738.00
51.0846 723.00
51.3888 757.00
51.6931 805.00
51.9974 749.00
52.3016 801.00
52.6059 860.00
52.9101 717.00
53.2144 688.00
53.5187 794.00
53.8229 1244.00
54.1272 799.00
54.4314 774.00
54.7357 782.00
55.04 754.00
55.3442 854.00
55.6485 982.00
55.9527 829.00
56.257 749.00
56.5613 930.00
56.8655 862.00
57.1698 764.00
57.474 850.00
57.7783 789.00
58.0826 723.00
58.3868 744.00
58.6911 811.00
58.9953 768.00
59.2996 1068.00
59.6039 953.00
59.9081 900.00
60.2124 751.00
60.5166 748.00
60.8209 843.00
61.1252 795.00
61.4294 779.00
61.7337 801.00
62.0379 737.00
62.3422 701.00
62.6465 710.00
62.9507 710.00
63.255 706.00
63.5592 759.00
63.8635 775.00
64.1678 844.00
64.472 837.00
64.7763 872.00
65.0806 945.00
65.3848 844.00
65.6891 858.00
65.9933 811.00
66.2976 751.00
66.6019 728.00
66.9061 710.00
67.2104 688.00
67.5146 671.00
67.8189 720.00
68.1232 805.00
68.4274 832.00
68.7317 808.00
69.0359 920.00
69.3402 772.00
69.6445 731.00
69.9487 770.00
70.253 702.00
70.5572 819.00
70.8615 791.00
71.1658 783.00
71.47 766.00
71.7743 748.00
72.0785 848.00
72.3828 763.00
72.6871 736.00
72.9913 695.00
73.2956 778.00
73.5998 739.00
73.9041 735.00
74.2084 729.00
74.5126 729.00
74.8169 723.00
75.1211 781.00
75.4254 761.00
75.7297 752.00
76.0339 781.00
76.3382 740.00
76.6424 707.00
76.9467 706.00
77.251 698.00
77.5552 768.00
77.8595 812.00
78.1637 787.00
78.468 682.00
78.7723 693.00
79.0765 781.00
79.3808 707.00
79.685 767.00
79.9893 793.00
80.2936 722.00
80.5978 730.00
80.9021 725.00
81.2063 704.00
81.5106 738.00
81.8149 784.00
82.1191 724.00
82.4234 704.00
82.7277 757.00
83.0319 799.00
83.3362 807.00
83.6404 714.00
83.9447 762.00
84.249 741.00
84.5532 748.00
84.8575 765.00
85.1617 794.00
85.466 762.00
85.7703 760.00
86.0745 815.00
86.3788 794.00
86.683 785.00
86.9873 766.00
87.2916 809.00
87.5958 744.00
87.9001 770.00
88.2043 766.00
88.5086 808.00
88.8129 808.00
89.1171 751.00
89.4214 722.00
89.7256 791.00
90.0299 772.00
90.3342 795.00
90.6384 850.00
90.9427 808.00
91.2469 769.00
91.5512 792.00
91.8555 865.00
92.1597 837.00
92.464 849.00
92.7682 806.00
93.0725 821.00
93.3768 879.00
93.681 806.00
93.9853 799.00
94.2895 779.00
94.5938 789.00
94.8981 743.00
95.2023 764.00
95.5066 835.00
95.8108 807.00
96.1151 763.00
96.4194 848.00
96.7236 844.00
97.0279 836.00
97.3321 878.00
97.6364 829.00
97.9407 754.00
98.2449 834.00
98.5492 815.00
98.8534 816.00
99.1577 794.00
99.462 801.00
99.7662 831.00
99.9944 821.00