File: data/xrd_creation/results/TRI_196.xy
10.0094 2356.00
10.3137 2234.00
10.618 2176.00
10.9222 1940.00
11.2265 1927.00
11.5307 1777.00
11.835 1700.00
12.1393 1685.00
12.4435 1608.00
12.7478 1566.00
13.052 1488.00
13.3563 1449.00
13.6606 1342.00
13.9648 1298.00
14.2691 1255.00
14.5733 1269.00
14.8776 1233.00
15.1819 1201.00
15.4861 1158.00
15.7904 1125.00
16.0946 1118.00
16.3989 1114.00
16.7032 1066.00
17.0074 1027.00
17.3117 1004.00
17.6159 1007.00
17.9202 1035.00
18.2245 1111.00
18.5287 938.00
18.833 925.00
19.1372 915.00
19.4415 979.00
19.7458 965.00
20.05 819.00
20.3543 811.00
20.6585 892.00
20.9628 752.00
21.2671 823.00
21.5713 789.00
21.8756 778.00
22.1798 728.00
22.4841 729.00
22.7884 737.00
23.0926 734.00
23.3969 699.00
23.7011 675.00
24.0054 673.00
24.3097 677.00
24.6139 627.00
24.9182 729.00
25.2224 763.00
25.5267 666.00
25.831 680.00
26.1352 733.00
26.4395 696.00
26.7438 553.00
27.048 537.00
27.3523 581.00
27.6565 602.00
27.9608 782.00
28.2651 673.00
28.5693 560.00
28.8736 542.00
29.1778 538.00
29.4821 520.00
29.7864 519.00
30.0906 605.00
30.3949 599.00
30.6991 538.00
31.0034 532.00
31.3077 506.00
31.6119 494.00
31.9162 448.00
32.2204 448.00
32.5247 419.00
32.829 452.00
33.1332 467.00
33.4375 408.00
33.7417 465.00
34.046 377.00
34.3503 400.00
34.6545 411.00
34.9588 377.00
35.263 411.00
35.5673 416.00
35.8716 415.00
36.1758 427.00
36.4801 377.00
36.7843 460.00
37.0886 373.00
37.3929 331.00
37.6971 348.00
38.0014 383.00
38.3056 364.00
38.6099 372.00
38.9142 352.00
39.2184 320.00
39.5227 320.00
39.8269 360.00
40.1312 289.00
40.4355 331.00
40.7397 324.00
41.044 325.00
41.3482 318.00
41.6525 340.00
41.9568 286.00
42.261 275.00
42.5653 294.00
42.8695 303.00
43.1738 309.00
43.4781 260.00
43.7823 312.00
44.0866 245.00
44.3909 283.00
44.6951 266.00
44.9994 256.00
45.3036 231.00
45.6079 232.00
45.9122 311.00
46.2164 279.00
46.5207 278.00
46.8249 268.00
47.1292 242.00
47.4335 281.00
47.7377 237.00
48.042 261.00
48.3462 238.00
48.6505 273.00
48.9548 222.00
49.259 281.00
49.5633 296.00
49.8675 260.00
50.1718 269.00
50.4761 227.00
50.7803 237.00
51.0846 228.00
51.3888 238.00
51.6931 282.00
51.9974 246.00
52.3016 219.00
52.6059 228.00
52.9101 242.00
53.2144 222.00
53.5187 235.00
53.8229 219.00
54.1272 259.00
54.4314 262.00
54.7357 214.00
55.04 210.00
55.3442 215.00
55.6485 239.00
55.9527 219.00
56.257 232.00
56.5613 225.00
56.8655 210.00
57.1698 199.00
57.474 227.00
57.7783 240.00
58.0826 193.00
58.3868 188.00
58.6911 213.00
58.9953 226.00
59.2996 213.00
59.6039 222.00
59.9081 186.00
60.2124 206.00
60.5166 186.00
60.8209 194.00
61.1252 195.00
61.4294 191.00
61.7337 219.00
62.0379 190.00
62.3422 228.00
62.6465 220.00
62.9507 184.00
63.255 207.00
63.5592 194.00
63.8635 158.00
64.1678 186.00
64.472 193.00
64.7763 183.00
65.0806 183.00
65.3848 201.00
65.6891 164.00
65.9933 184.00
66.2976 187.00
66.6019 188.00
66.9061 164.00
67.2104 179.00
67.5146 184.00
67.8189 166.00
68.1232 164.00
68.4274 182.00
68.7317 159.00
69.0359 162.00
69.3402 144.00
69.6445 174.00
69.9487 192.00
70.253 184.00
70.5572 202.00
70.8615 177.00
71.1658 187.00
71.47 191.00
71.7743 169.00
72.0785 157.00
72.3828 179.00
72.6871 190.00
72.9913 174.00
73.2956 177.00
73.5998 182.00
73.9041 170.00
74.2084 178.00
74.5126 177.00
74.8169 185.00
75.1211 151.00
75.4254 188.00
75.7297 166.00
76.0339 173.00
76.3382 206.00
76.6424 168.00
76.9467 188.00
77.251 168.00
77.5552 152.00
77.8595 222.00
78.1637 198.00
78.468 207.00
78.7723 215.00
79.0765 183.00
79.3808 177.00
79.685 178.00
79.9893 219.00
80.2936 212.00
80.5978 169.00
80.9021 222.00
81.2063 221.00
81.5106 196.00
81.8149 219.00
82.1191 249.00
82.4234 211.00
82.7277 196.00
83.0319 215.00
83.3362 187.00
83.6404 206.00
83.9447 200.00
84.249 184.00
84.5532 207.00
84.8575 171.00
85.1617 210.00
85.466 188.00
85.7703 164.00
86.0745 205.00
86.3788 166.00
86.683 159.00
86.9873 197.00
87.2916 207.00
87.5958 150.00
87.9001 161.00
88.2043 183.00
88.5086 188.00
88.8129 184.00
89.1171 172.00
89.4214 156.00
89.7256 190.00
90.0299 168.00
90.3342 190.00
90.6384 175.00
90.9427 179.00
91.2469 153.00
91.5512 154.00
91.8555 165.00
92.1597 159.00
92.464 176.00
92.7682 162.00
93.0725 178.00
93.3768 170.00
93.681 186.00
93.9853 178.00
94.2895 181.00
94.5938 179.00
94.8981 192.00
95.2023 175.00
95.5066 154.00
95.8108 164.00
96.1151 171.00
96.4194 165.00
96.7236 150.00
97.0279 174.00
97.3321 166.00
97.6364 187.00
97.9407 174.00
98.2449 158.00
98.5492 182.00
98.8534 156.00
99.1577 136.00
99.462 162.00
99.7662 137.00
99.9944 173.00