File: data/xrd_creation/results/TRI_194.xy
10.0094 2385.00
10.3137 2336.00
10.618 2217.00
10.9222 2149.00
11.2265 1987.00
11.5307 1958.00
11.835 1926.00
12.1393 1816.00
12.4435 1689.00
12.7478 1688.00
13.052 1598.00
13.3563 1604.00
13.6606 1545.00
13.9648 1629.00
14.2691 1614.00
14.5733 1551.00
14.8776 1506.00
15.1819 1457.00
15.4861 1400.00
15.7904 1356.00
16.0946 1370.00
16.3989 1356.00
16.7032 1377.00
17.0074 1282.00
17.3117 1287.00
17.6159 1209.00
17.9202 1319.00
18.2245 1272.00
18.5287 1219.00
18.833 1227.00
19.1372 1139.00
19.4415 1178.00
19.7458 1197.00
20.05 1244.00
20.3543 1393.00
20.6585 1135.00
20.9628 1119.00
21.2671 1054.00
21.5713 1093.00
21.8756 1052.00
22.1798 987.00
22.4841 953.00
22.7884 1015.00
23.0926 996.00
23.3969 905.00
23.7011 922.00
24.0054 945.00
24.3097 924.00
24.6139 878.00
24.9182 899.00
25.2224 942.00
25.5267 1109.00
25.831 937.00
26.1352 845.00
26.4395 908.00
26.7438 979.00
27.048 1182.00
27.3523 1693.00
27.6565 1160.00
27.9608 1735.00
28.2651 1903.00
28.5693 1015.00
28.8736 1040.00
29.1778 1426.00
29.4821 1801.00
29.7864 1012.00
30.0906 816.00
30.3949 888.00
30.6991 742.00
31.0034 723.00
31.3077 805.00
31.6119 775.00
31.9162 699.00
32.2204 735.00
32.5247 792.00
32.829 1488.00
33.1332 745.00
33.4375 768.00
33.7417 822.00
34.046 737.00
34.3503 653.00
34.6545 633.00
34.9588 657.00
35.263 661.00
35.5673 735.00
35.8716 649.00
36.1758 757.00
36.4801 723.00
36.7843 782.00
37.0886 1099.00
37.3929 761.00
37.6971 665.00
38.0014 623.00
38.3056 629.00
38.6099 824.00
38.9142 1399.00
39.2184 671.00
39.5227 635.00
39.8269 643.00
40.1312 642.00
40.4355 639.00
40.7397 749.00
41.044 816.00
41.3482 586.00
41.6525 667.00
41.9568 730.00
42.261 954.00
42.5653 778.00
42.8695 601.00
43.1738 640.00
43.4781 731.00
43.7823 865.00
44.0866 556.00
44.3909 650.00
44.6951 562.00
44.9994 612.00
45.3036 630.00
45.6079 707.00
45.9122 663.00
46.2164 582.00
46.5207 596.00
46.8249 548.00
47.1292 595.00
47.4335 803.00
47.7377 685.00
48.042 882.00
48.3462 796.00
48.6505 738.00
48.9548 555.00
49.259 580.00
49.5633 671.00
49.8675 611.00
50.1718 538.00
50.4761 564.00
50.7803 588.00
51.0846 549.00
51.3888 557.00
51.6931 870.00
51.9974 977.00
52.3016 537.00
52.6059 589.00
52.9101 532.00
53.2144 591.00
53.5187 530.00
53.8229 618.00
54.1272 644.00
54.4314 654.00
54.7357 617.00
55.04 587.00
55.3442 735.00
55.6485 960.00
55.9527 997.00
56.257 633.00
56.5613 545.00
56.8655 575.00
57.1698 624.00
57.474 689.00
57.7783 840.00
58.0826 616.00
58.3868 618.00
58.6911 562.00
58.9953 583.00
59.2996 594.00
59.6039 607.00
59.9081 1052.00
60.2124 835.00
60.5166 721.00
60.8209 1020.00
61.1252 1037.00
61.4294 993.00
61.7337 829.00
62.0379 620.00
62.3422 549.00
62.6465 519.00
62.9507 580.00
63.255 545.00
63.5592 542.00
63.8635 563.00
64.1678 558.00
64.472 562.00
64.7763 611.00
65.0806 702.00
65.3848 667.00
65.6891 523.00
65.9933 567.00
66.2976 613.00
66.6019 564.00
66.9061 530.00
67.2104 540.00
67.5146 540.00
67.8189 593.00
68.1232 582.00
68.4274 518.00
68.7317 583.00
69.0359 583.00
69.3402 554.00
69.6445 630.00
69.9487 706.00
70.253 666.00
70.5572 746.00
70.8615 696.00
71.1658 521.00
71.47 584.00
71.7743 603.00
72.0785 637.00
72.3828 586.00
72.6871 541.00
72.9913 571.00
73.2956 666.00
73.5998 608.00
73.9041 545.00
74.2084 562.00
74.5126 570.00
74.8169 544.00
75.1211 575.00
75.4254 544.00
75.7297 547.00
76.0339 562.00
76.3382 573.00
76.6424 640.00
76.9467 578.00
77.251 552.00
77.5552 562.00
77.8595 654.00
78.1637 653.00
78.468 638.00
78.7723 538.00
79.0765 627.00
79.3808 579.00
79.685 539.00
79.9893 565.00
80.2936 558.00
80.5978 562.00
80.9021 573.00
81.2063 546.00
81.5106 497.00
81.8149 563.00
82.1191 610.00
82.4234 571.00
82.7277 595.00
83.0319 680.00
83.3362 595.00
83.6404 600.00
83.9447 650.00
84.249 589.00
84.5532 613.00
84.8575 577.00
85.1617 566.00
85.466 594.00
85.7703 629.00
86.0745 591.00
86.3788 565.00
86.683 529.00
86.9873 558.00
87.2916 639.00
87.5958 616.00
87.9001 605.00
88.2043 621.00
88.5086 642.00
88.8129 605.00
89.1171 595.00
89.4214 566.00
89.7256 541.00
90.0299 595.00
90.3342 536.00
90.6384 539.00
90.9427 572.00
91.2469 540.00
91.5512 615.00
91.8555 690.00
92.1597 662.00
92.464 606.00
92.7682 570.00
93.0725 656.00
93.3768 555.00
93.681 580.00
93.9853 659.00
94.2895 609.00
94.5938 593.00
94.8981 630.00
95.2023 658.00
95.5066 678.00
95.8108 635.00
96.1151 546.00
96.4194 500.00
96.7236 560.00
97.0279 561.00
97.3321 558.00
97.6364 640.00
97.9407 606.00
98.2449 536.00
98.5492 502.00
98.8534 561.00
99.1577 628.00
99.462 644.00
99.7662 580.00
99.9944 636.00