File: data/xrd_creation/results/TRI_198.xy
10.0094 2346.00
10.3137 2226.00
10.618 2041.00
10.9222 1957.00
11.2265 1896.00
11.5307 1834.00
11.835 1805.00
12.1393 1707.00
12.4435 1633.00
12.7478 1632.00
13.052 1565.00
13.3563 1567.00
13.6606 1495.00
13.9648 1468.00
14.2691 1411.00
14.5733 1313.00
14.8776 1373.00
15.1819 1316.00
15.4861 1192.00
15.7904 1231.00
16.0946 1235.00
16.3989 1268.00
16.7032 1163.00
17.0074 1213.00
17.3117 1149.00
17.6159 1166.00
17.9202 1331.00
18.2245 1284.00
18.5287 1654.00
18.833 1075.00
19.1372 1119.00
19.4415 1178.00
19.7458 1728.00
20.05 942.00
20.3543 891.00
20.6585 893.00
20.9628 876.00
21.2671 849.00
21.5713 926.00
21.8756 808.00
22.1798 828.00
22.4841 838.00
22.7884 857.00
23.0926 802.00
23.3969 816.00
23.7011 762.00
24.0054 733.00
24.3097 789.00
24.6139 701.00
24.9182 801.00
25.2224 1461.00
25.5267 829.00
25.831 926.00
26.1352 1177.00
26.4395 773.00
26.7438 655.00
27.048 728.00
27.3523 663.00
27.6565 879.00
27.9608 1980.00
28.2651 2026.00
28.5693 1187.00
28.8736 1042.00
29.1778 800.00
29.4821 710.00
29.7864 875.00
30.0906 1712.00
30.3949 1830.00
30.6991 602.00
31.0034 663.00
31.3077 1041.00
31.6119 724.00
31.9162 727.00
32.2204 540.00
32.5247 490.00
32.829 491.00
33.1332 518.00
33.4375 492.00
33.7417 561.00
34.046 560.00
34.3503 664.00
34.6545 416.00
34.9588 477.00
35.263 488.00
35.5673 576.00
35.8716 479.00
36.1758 527.00
36.4801 411.00
36.7843 619.00
37.0886 1415.00
37.3929 838.00
37.6971 457.00
38.0014 451.00
38.3056 502.00
38.6099 414.00
38.9142 417.00
39.2184 439.00
39.5227 480.00
39.8269 590.00
40.1312 664.00
40.4355 451.00
40.7397 384.00
41.044 363.00
41.3482 384.00
41.6525 437.00
41.9568 618.00
42.261 588.00
42.5653 579.00
42.8695 432.00
43.1738 387.00
43.4781 421.00
43.7823 544.00
44.0866 356.00
44.3909 401.00
44.6951 353.00
44.9994 395.00
45.3036 366.00
45.6079 401.00
45.9122 568.00
46.2164 547.00
46.5207 314.00
46.8249 425.00
47.1292 415.00
47.4335 663.00
47.7377 434.00
48.042 355.00
48.3462 430.00
48.6505 546.00
48.9548 491.00
49.259 531.00
49.5633 442.00
49.8675 909.00
50.1718 463.00
50.4761 531.00
50.7803 508.00
51.0846 441.00
51.3888 353.00
51.6931 346.00
51.9974 604.00
52.3016 375.00
52.6059 523.00
52.9101 355.00
53.2144 428.00
53.5187 497.00
53.8229 357.00
54.1272 609.00
54.4314 473.00
54.7357 412.00
55.04 421.00
55.3442 513.00
55.6485 985.00
55.9527 551.00
56.257 390.00
56.5613 574.00
56.8655 401.00
57.1698 487.00
57.474 461.00
57.7783 618.00
58.0826 551.00
58.3868 470.00
58.6911 462.00
58.9953 362.00
59.2996 339.00
59.6039 376.00
59.9081 460.00
60.2124 400.00
60.5166 413.00
60.8209 409.00
61.1252 340.00
61.4294 342.00
61.7337 305.00
62.0379 338.00
62.3422 427.00
62.6465 352.00
62.9507 379.00
63.255 500.00
63.5592 479.00
63.8635 381.00
64.1678 299.00
64.472 270.00
64.7763 377.00
65.0806 462.00
65.3848 527.00
65.6891 438.00
65.9933 311.00
66.2976 304.00
66.6019 349.00
66.9061 317.00
67.2104 275.00
67.5146 349.00
67.8189 358.00
68.1232 304.00
68.4274 369.00
68.7317 287.00
69.0359 260.00
69.3402 304.00
69.6445 300.00
69.9487 317.00
70.253 406.00
70.5572 499.00
70.8615 385.00
71.1658 378.00
71.47 338.00
71.7743 383.00
72.0785 436.00
72.3828 364.00
72.6871 328.00
72.9913 294.00
73.2956 261.00
73.5998 285.00
73.9041 282.00
74.2084 308.00
74.5126 318.00
74.8169 302.00
75.1211 326.00
75.4254 302.00
75.7297 295.00
76.0339 311.00
76.3382 291.00
76.6424 311.00
76.9467 281.00
77.251 277.00
77.5552 275.00
77.8595 272.00
78.1637 287.00
78.468 319.00
78.7723 321.00
79.0765 322.00
79.3808 293.00
79.685 321.00
79.9893 310.00
80.2936 289.00
80.5978 274.00
80.9021 329.00
81.2063 315.00
81.5106 306.00
81.8149 375.00
82.1191 347.00
82.4234 302.00
82.7277 275.00
83.0319 274.00
83.3362 343.00
83.6404 430.00
83.9447 361.00
84.249 376.00
84.5532 328.00
84.8575 326.00
85.1617 291.00
85.466 304.00
85.7703 378.00
86.0745 382.00
86.3788 312.00
86.683 281.00
86.9873 277.00
87.2916 275.00
87.5958 296.00
87.9001 278.00
88.2043 308.00
88.5086 362.00
88.8129 331.00
89.1171 292.00
89.4214 298.00
89.7256 303.00
90.0299 266.00
90.3342 242.00
90.6384 314.00
90.9427 288.00
91.2469 259.00
91.5512 306.00
91.8555 309.00
92.1597 289.00
92.464 399.00
92.7682 335.00
93.0725 325.00
93.3768 287.00
93.681 320.00
93.9853 291.00
94.2895 281.00
94.5938 282.00
94.8981 258.00
95.2023 283.00
95.5066 296.00
95.8108 322.00
96.1151 321.00
96.4194 317.00
96.7236 309.00
97.0279 273.00
97.3321 294.00
97.6364 287.00
97.9407 300.00
98.2449 276.00
98.5492 316.00
98.8534 333.00
99.1577 369.00
99.462 350.00
99.7662 287.00
99.9944 342.00