File: data/xrd_creation/results/TRI_197.xy
10.0094 2327.00
10.3137 2122.00
10.618 2158.00
10.9222 2018.00
11.2265 1876.00
11.5307 1831.00
11.835 1771.00
12.1393 1680.00
12.4435 1642.00
12.7478 1561.00
13.052 1546.00
13.3563 1495.00
13.6606 1625.00
13.9648 1441.00
14.2691 1492.00
14.5733 1300.00
14.8776 1353.00
15.1819 1348.00
15.4861 1254.00
15.7904 1250.00
16.0946 1278.00
16.3989 1304.00
16.7032 1437.00
17.0074 1195.00
17.3117 1241.00
17.6159 1135.00
17.9202 1601.00
18.2245 1250.00
18.5287 1123.00
18.833 1025.00
19.1372 1054.00
19.4415 1079.00
19.7458 1131.00
20.05 935.00
20.3543 928.00
20.6585 919.00
20.9628 938.00
21.2671 954.00
21.5713 933.00
21.8756 889.00
22.1798 883.00
22.4841 1000.00
22.7884 786.00
23.0926 871.00
23.3969 928.00
23.7011 864.00
24.0054 813.00
24.3097 875.00
24.6139 818.00
24.9182 792.00
25.2224 769.00
25.5267 926.00
25.831 1185.00
26.1352 775.00
26.4395 690.00
26.7438 635.00
27.048 1097.00
27.3523 787.00
27.6565 785.00
27.9608 729.00
28.2651 893.00
28.5693 1315.00
28.8736 1105.00
29.1778 974.00
29.4821 848.00
29.7864 1599.00
30.0906 2291.00
30.3949 1113.00
30.6991 1896.00
31.0034 1667.00
31.3077 1218.00
31.6119 1154.00
31.9162 1597.00
32.2204 750.00
32.5247 543.00
32.829 565.00
33.1332 794.00
33.4375 1786.00
33.7417 556.00
34.046 601.00
34.3503 1128.00
34.6545 770.00
34.9588 725.00
35.263 511.00
35.5673 553.00
35.8716 501.00
36.1758 691.00
36.4801 716.00
36.7843 546.00
37.0886 486.00
37.3929 465.00
37.6971 514.00
38.0014 496.00
38.3056 592.00
38.6099 516.00
38.9142 516.00
39.2184 440.00
39.5227 607.00
39.8269 673.00
40.1312 459.00
40.4355 467.00
40.7397 495.00
41.044 479.00
41.3482 408.00
41.6525 395.00
41.9568 545.00
42.261 459.00
42.5653 462.00
42.8695 430.00
43.1738 446.00
43.4781 759.00
43.7823 782.00
44.0866 419.00
44.3909 433.00
44.6951 415.00
44.9994 392.00
45.3036 397.00
45.6079 679.00
45.9122 756.00
46.2164 402.00
46.5207 442.00
46.8249 565.00
47.1292 555.00
47.4335 658.00
47.7377 785.00
48.042 401.00
48.3462 554.00
48.6505 821.00
48.9548 792.00
49.259 857.00
49.5633 506.00
49.8675 557.00
50.1718 451.00
50.4761 462.00
50.7803 610.00
51.0846 456.00
51.3888 361.00
51.6931 368.00
51.9974 560.00
52.3016 602.00
52.6059 880.00
52.9101 537.00
53.2144 351.00
53.5187 399.00
53.8229 369.00
54.1272 619.00
54.4314 556.00
54.7357 447.00
55.04 448.00
55.3442 441.00
55.6485 572.00
55.9527 453.00
56.257 352.00
56.5613 388.00
56.8655 397.00
57.1698 460.00
57.474 416.00
57.7783 583.00
58.0826 481.00
58.3868 565.00
58.6911 651.00
58.9953 440.00
59.2996 376.00
59.6039 402.00
59.9081 407.00
60.2124 367.00
60.5166 371.00
60.8209 462.00
61.1252 522.00
61.4294 379.00
61.7337 379.00
62.0379 334.00
62.3422 325.00
62.6465 407.00
62.9507 365.00
63.255 469.00
63.5592 351.00
63.8635 475.00
64.1678 325.00
64.472 369.00
64.7763 353.00
65.0806 439.00
65.3848 456.00
65.6891 453.00
65.9933 385.00
66.2976 380.00
66.6019 377.00
66.9061 314.00
67.2104 299.00
67.5146 272.00
67.8189 378.00
68.1232 339.00
68.4274 318.00
68.7317 323.00
69.0359 309.00
69.3402 327.00
69.6445 408.00
69.9487 361.00
70.253 321.00
70.5572 343.00
70.8615 316.00
71.1658 297.00
71.47 324.00
71.7743 411.00
72.0785 380.00
72.3828 266.00
72.6871 304.00
72.9913 321.00
73.2956 345.00
73.5998 330.00
73.9041 333.00
74.2084 299.00
74.5126 319.00
74.8169 344.00
75.1211 284.00
75.4254 302.00
75.7297 322.00
76.0339 293.00
76.3382 272.00
76.6424 316.00
76.9467 285.00
77.251 351.00
77.5552 298.00
77.8595 281.00
78.1637 266.00
78.468 276.00
78.7723 276.00
79.0765 283.00
79.3808 280.00
79.685 338.00
79.9893 330.00
80.2936 267.00
80.5978 300.00
80.9021 272.00
81.2063 259.00
81.5106 290.00
81.8149 395.00
82.1191 337.00
82.4234 290.00
82.7277 304.00
83.0319 307.00
83.3362 338.00
83.6404 321.00
83.9447 405.00
84.249 332.00
84.5532 302.00
84.8575 342.00
85.1617 352.00
85.466 293.00
85.7703 337.00
86.0745 359.00
86.3788 276.00
86.683 282.00
86.9873 280.00
87.2916 292.00
87.5958 261.00
87.9001 312.00
88.2043 296.00
88.5086 265.00
88.8129 314.00
89.1171 272.00
89.4214 236.00
89.7256 293.00
90.0299 270.00
90.3342 256.00
90.6384 265.00
90.9427 266.00
91.2469 266.00
91.5512 279.00
91.8555 256.00
92.1597 278.00
92.464 322.00
92.7682 308.00
93.0725 294.00
93.3768 307.00
93.681 308.00
93.9853 305.00
94.2895 259.00
94.5938 283.00
94.8981 326.00
95.2023 342.00
95.5066 278.00
95.8108 294.00
96.1151 277.00
96.4194 268.00
96.7236 260.00
97.0279 251.00
97.3321 271.00
97.6364 232.00
97.9407 232.00
98.2449 261.00
98.5492 265.00
98.8534 281.00
99.1577 319.00
99.462 340.00
99.7662 290.00
99.9944 247.00