File: data/xrd_creation/results/TRI_195.xy
10.0094 2362.00
10.3137 2305.00
10.618 2267.00
10.9222 2085.00
11.2265 1954.00
11.5307 1863.00
11.835 1974.00
12.1393 1792.00
12.4435 1877.00
12.7478 1751.00
13.052 1707.00
13.3563 1574.00
13.6606 1509.00
13.9648 1470.00
14.2691 1416.00
14.5733 1355.00
14.8776 1313.00
15.1819 1344.00
15.4861 1359.00
15.7904 1354.00
16.0946 1246.00
16.3989 1404.00
16.7032 1842.00
17.0074 1246.00
17.3117 1180.00
17.6159 1182.00
17.9202 1109.00
18.2245 1258.00
18.5287 1482.00
18.833 1434.00
19.1372 1139.00
19.4415 1059.00
19.7458 1012.00
20.05 1030.00
20.3543 982.00
20.6585 969.00
20.9628 939.00
21.2671 992.00
21.5713 962.00
21.8756 967.00
22.1798 856.00
22.4841 852.00
22.7884 868.00
23.0926 910.00
23.3969 857.00
23.7011 882.00
24.0054 846.00
24.3097 844.00
24.6139 809.00
24.9182 784.00
25.2224 743.00
25.5267 748.00
25.831 775.00
26.1352 820.00
26.4395 842.00
26.7438 1585.00
27.048 743.00
27.3523 656.00
27.6565 1082.00
27.9608 903.00
28.2651 829.00
28.5693 687.00
28.8736 934.00
29.1778 1308.00
29.4821 789.00
29.7864 732.00
30.0906 915.00
30.3949 711.00
30.6991 595.00
31.0034 665.00
31.3077 1103.00
31.6119 691.00
31.9162 577.00
32.2204 695.00
32.5247 1101.00
32.829 662.00
33.1332 577.00
33.4375 528.00
33.7417 435.00
34.046 522.00
34.3503 465.00
34.6545 502.00
34.9588 526.00
35.263 574.00
35.5673 499.00
35.8716 511.00
36.1758 462.00
36.4801 471.00
36.7843 433.00
37.0886 446.00
37.3929 465.00
37.6971 494.00
38.0014 439.00
38.3056 501.00
38.6099 438.00
38.9142 519.00
39.2184 432.00
39.5227 460.00
39.8269 396.00
40.1312 394.00
40.4355 376.00
40.7397 409.00
41.044 511.00
41.3482 361.00
41.6525 385.00
41.9568 397.00
42.261 395.00
42.5653 396.00
42.8695 385.00
43.1738 434.00
43.4781 580.00
43.7823 356.00
44.0866 466.00
44.3909 360.00
44.6951 382.00
44.9994 371.00
45.3036 432.00
45.6079 385.00
45.9122 475.00
46.2164 682.00
46.5207 404.00
46.8249 374.00
47.1292 386.00
47.4335 376.00
47.7377 488.00
48.042 383.00
48.3462 373.00
48.6505 403.00
48.9548 427.00
49.259 453.00
49.5633 397.00
49.8675 380.00
50.1718 412.00
50.4761 418.00
50.7803 524.00
51.0846 446.00
51.3888 508.00
51.6931 383.00
51.9974 345.00
52.3016 429.00
52.6059 341.00
52.9101 324.00
53.2144 320.00
53.5187 363.00
53.8229 385.00
54.1272 412.00
54.4314 466.00
54.7357 357.00
55.04 382.00
55.3442 343.00
55.6485 380.00
55.9527 463.00
56.257 298.00
56.5613 293.00
56.8655 329.00
57.1698 347.00
57.474 446.00
57.7783 351.00
58.0826 358.00
58.3868 313.00
58.6911 364.00
58.9953 371.00
59.2996 385.00
59.6039 350.00
59.9081 368.00
60.2124 383.00
60.5166 368.00
60.8209 358.00
61.1252 420.00
61.4294 380.00
61.7337 297.00
62.0379 312.00
62.3422 310.00
62.6465 303.00
62.9507 322.00
63.255 406.00
63.5592 344.00
63.8635 313.00
64.1678 359.00
64.472 301.00
64.7763 307.00
65.0806 405.00
65.3848 332.00
65.6891 368.00
65.9933 381.00
66.2976 429.00
66.6019 355.00
66.9061 338.00
67.2104 366.00
67.5146 349.00
67.8189 372.00
68.1232 348.00
68.4274 337.00
68.7317 339.00
69.0359 368.00
69.3402 350.00
69.6445 406.00
69.9487 351.00
70.253 365.00
70.5572 387.00
70.8615 385.00
71.1658 319.00
71.47 328.00
71.7743 302.00
72.0785 288.00
72.3828 300.00
72.6871 291.00
72.9913 295.00
73.2956 302.00
73.5998 312.00
73.9041 363.00
74.2084 336.00
74.5126 323.00
74.8169 326.00
75.1211 346.00
75.4254 415.00
75.7297 313.00
76.0339 308.00
76.3382 284.00
76.6424 309.00
76.9467 330.00
77.251 343.00
77.5552 289.00
77.8595 315.00
78.1637 298.00
78.468 284.00
78.7723 307.00
79.0765 330.00
79.3808 281.00
79.685 338.00
79.9893 278.00
80.2936 336.00
80.5978 269.00
80.9021 301.00
81.2063 316.00
81.5106 295.00
81.8149 268.00
82.1191 275.00
82.4234 277.00
82.7277 270.00
83.0319 298.00
83.3362 303.00
83.6404 297.00
83.9447 320.00
84.249 267.00
84.5532 308.00
84.8575 275.00
85.1617 312.00
85.466 298.00
85.7703 300.00
86.0745 285.00
86.3788 321.00
86.683 358.00
86.9873 357.00
87.2916 311.00
87.5958 276.00
87.9001 299.00
88.2043 312.00
88.5086 319.00
88.8129 269.00
89.1171 292.00
89.4214 284.00
89.7256 320.00
90.0299 316.00
90.3342 268.00
90.6384 277.00
90.9427 268.00
91.2469 270.00
91.5512 293.00
91.8555 293.00
92.1597 332.00
92.464 284.00
92.7682 295.00
93.0725 317.00
93.3768 300.00
93.681 335.00
93.9853 326.00
94.2895 275.00
94.5938 311.00
94.8981 312.00
95.2023 329.00
95.5066 287.00
95.8108 262.00
96.1151 311.00
96.4194 290.00
96.7236 282.00
97.0279 281.00
97.3321 277.00
97.6364 280.00
97.9407 311.00
98.2449 307.00
98.5492 299.00
98.8534 280.00
99.1577 310.00
99.462 293.00
99.7662 306.00
99.9944 295.00