File: data/xrd_creation/results/TRI_200.xy
10.0094 2368.00
10.3137 2377.00
10.618 2301.00
10.9222 2196.00
11.2265 2116.00
11.5307 1964.00
11.835 1994.00
12.1393 1862.00
12.4435 1785.00
12.7478 1753.00
13.052 1712.00
13.3563 1648.00
13.6606 1647.00
13.9648 1604.00
14.2691 1660.00
14.5733 1510.00
14.8776 1525.00
15.1819 1482.00
15.4861 1491.00
15.7904 1454.00
16.0946 1377.00
16.3989 1356.00
16.7032 1416.00
17.0074 1461.00
17.3117 1502.00
17.6159 1408.00
17.9202 1339.00
18.2245 1511.00
18.5287 1343.00
18.833 1311.00
19.1372 1272.00
19.4415 1254.00
19.7458 1270.00
20.05 1236.00
20.3543 1163.00
20.6585 1276.00
20.9628 1141.00
21.2671 1144.00
21.5713 1228.00
21.8756 1089.00
22.1798 1072.00
22.4841 1112.00
22.7884 1139.00
23.0926 1113.00
23.3969 1069.00
23.7011 1046.00
24.0054 1030.00
24.3097 1025.00
24.6139 1215.00
24.9182 988.00
25.2224 965.00
25.5267 946.00
25.831 986.00
26.1352 861.00
26.4395 950.00
26.7438 928.00
27.048 1363.00
27.3523 1019.00
27.6565 1874.00
27.9608 1374.00
28.2651 1029.00
28.5693 1389.00
28.8736 937.00
29.1778 1006.00
29.4821 1519.00
29.7864 1251.00
30.0906 1097.00
30.3949 919.00
30.6991 917.00
31.0034 886.00
31.3077 923.00
31.6119 884.00
31.9162 878.00
32.2204 899.00
32.5247 823.00
32.829 832.00
33.1332 923.00
33.4375 886.00
33.7417 816.00
34.046 992.00
34.3503 869.00
34.6545 1054.00
34.9588 1217.00
35.263 2420.00
35.5673 909.00
35.8716 868.00
36.1758 861.00
36.4801 1072.00
36.7843 1117.00
37.0886 895.00
37.3929 1015.00
37.6971 762.00
38.0014 791.00
38.3056 866.00
38.6099 799.00
38.9142 730.00
39.2184 728.00
39.5227 733.00
39.8269 704.00
40.1312 678.00
40.4355 804.00
40.7397 748.00
41.044 696.00
41.3482 815.00
41.6525 1009.00
41.9568 834.00
42.261 812.00
42.5653 1092.00
42.8695 1030.00
43.1738 752.00
43.4781 651.00
43.7823 686.00
44.0866 669.00
44.3909 753.00
44.6951 644.00
44.9994 632.00
45.3036 596.00
45.6079 678.00
45.9122 802.00
46.2164 760.00
46.5207 677.00
46.8249 662.00
47.1292 601.00
47.4335 611.00
47.7377 641.00
48.042 631.00
48.3462 650.00
48.6505 641.00
48.9548 652.00
49.259 621.00
49.5633 640.00
49.8675 666.00
50.1718 710.00
50.4761 664.00
50.7803 625.00
51.0846 622.00
51.3888 695.00
51.6931 639.00
51.9974 645.00
52.3016 677.00
52.6059 763.00
52.9101 829.00
53.2144 671.00
53.5187 721.00
53.8229 904.00
54.1272 1154.00
54.4314 928.00
54.7357 926.00
55.04 814.00
55.3442 707.00
55.6485 708.00
55.9527 867.00
56.257 1518.00
56.5613 1030.00
56.8655 798.00
57.1698 824.00
57.474 725.00
57.7783 648.00
58.0826 632.00
58.3868 671.00
58.6911 757.00
58.9953 735.00
59.2996 770.00
59.6039 769.00
59.9081 704.00
60.2124 653.00
60.5166 673.00
60.8209 651.00
61.1252 712.00
61.4294 737.00
61.7337 1443.00
62.0379 926.00
62.3422 659.00
62.6465 666.00
62.9507 642.00
63.255 700.00
63.5592 669.00
63.8635 667.00
64.1678 724.00
64.472 664.00
64.7763 677.00
65.0806 810.00
65.3848 813.00
65.6891 823.00
65.9933 724.00
66.2976 621.00
66.6019 673.00
66.9061 650.00
67.2104 698.00
67.5146 692.00
67.8189 707.00
68.1232 713.00
68.4274 727.00
68.7317 718.00
69.0359 737.00
69.3402 676.00
69.6445 661.00
69.9487 672.00
70.253 660.00
70.5572 642.00
70.8615 664.00
71.1658 621.00
71.47 616.00
71.7743 684.00
72.0785 667.00
72.3828 696.00
72.6871 675.00
72.9913 810.00
73.2956 709.00
73.5998 608.00
73.9041 721.00
74.2084 700.00
74.5126 672.00
74.8169 677.00
75.1211 665.00
75.4254 658.00
75.7297 655.00
76.0339 670.00
76.3382 643.00
76.6424 623.00
76.9467 673.00
77.251 648.00
77.5552 647.00
77.8595 652.00
78.1637 691.00
78.468 627.00
78.7723 646.00
79.0765 641.00
79.3808 649.00
79.685 616.00
79.9893 673.00
80.2936 670.00
80.5978 632.00
80.9021 697.00
81.2063 631.00
81.5106 663.00
81.8149 619.00
82.1191 635.00
82.4234 695.00
82.7277 628.00
83.0319 655.00
83.3362 654.00
83.6404 630.00
83.9447 646.00
84.249 650.00
84.5532 650.00
84.8575 615.00
85.1617 700.00
85.466 700.00
85.7703 662.00
86.0745 721.00
86.3788 712.00
86.683 706.00
86.9873 691.00
87.2916 704.00
87.5958 664.00
87.9001 729.00
88.2043 749.00
88.5086 788.00
88.8129 675.00
89.1171 668.00
89.4214 648.00
89.7256 721.00
90.0299 714.00
90.3342 699.00
90.6384 725.00
90.9427 667.00
91.2469 663.00
91.5512 685.00
91.8555 737.00
92.1597 675.00
92.464 665.00
92.7682 771.00
93.0725 711.00
93.3768 765.00
93.681 722.00
93.9853 741.00
94.2895 684.00
94.5938 640.00
94.8981 606.00
95.2023 676.00
95.5066 682.00
95.8108 670.00
96.1151 713.00
96.4194 715.00
96.7236 711.00
97.0279 718.00
97.3321 658.00
97.6364 641.00
97.9407 680.00
98.2449 658.00
98.5492 720.00
98.8534 697.00
99.1577 684.00
99.462 700.00
99.7662 762.00
99.9944 654.00