File: data/xrd_creation/results/TRI_-1.xy
9.903433 2855.00
10.2077 2723.00
10.512 2725.00
10.8162 2599.00
11.1205 2475.00
11.4247 2378.00
11.729 2372.00
12.0333 2362.00
12.3375 2430.00
12.6418 2412.00
12.946 2244.00
13.2503 2278.00
13.5546 2195.00
13.8588 2165.00
14.1631 2056.00
14.4673 2163.00
14.7716 2037.00
15.0759 2067.00
15.3801 2050.00
15.6844 2014.00
15.9886 2007.00
16.2929 1931.00
16.5972 1860.00
16.9014 1827.00
17.2057 1988.00
17.5099 1783.00
17.8142 1951.00
18.1185 2242.00
18.4227 2290.00
18.727 1997.00
19.0312 1746.00
19.3355 1695.00
19.6398 1642.00
19.944 1687.00
20.2483 1657.00
20.5525 1630.00
20.8568 1536.00
21.1611 1608.00
21.4653 1544.00
21.7696 1564.00
22.0738 1519.00
22.3781 1517.00
22.6824 1662.00
22.9866 1919.00
23.2909 7978.00
23.5951 3203.00
23.8994 1427.00
24.2037 1435.00
24.5079 1426.00
24.8122 1418.00
25.1164 1368.00
25.4207 1541.00
25.725 1415.00
26.0292 1576.00
26.3335 1493.00
26.6378 1365.00
26.942 1286.00
27.2463 1416.00
27.5505 1569.00
27.8548 1375.00
28.1591 1320.00
28.4633 1257.00
28.7676 1405.00
29.0718 1467.00
29.3761 1435.00
29.6804 1791.00
29.9846 1460.00
30.2889 1125.00
30.5931 1133.00
30.8974 1144.00
31.2017 1153.00
31.5059 1113.00
31.8102 1124.00
32.1144 1328.00
32.4187 2667.00
32.723 5509.00
33.0272 5731.00
33.3315 12556.00
33.6357 5375.00
33.94 1803.00
34.2443 1856.00
34.5485 1903.00
34.8528 1531.00
35.157 1145.00
35.4613 1135.00
35.7656 1095.00
36.0698 1089.00
36.3741 1052.00
36.6783 1153.00
36.9826 1171.00
37.2869 1158.00
37.5911 3488.00
37.8954 1214.00
38.1996 938.00
38.5039 956.00
38.8082 1035.00
39.1124 1197.00
39.4167 1449.00
39.7209 1079.00
40.0252 956.00
40.3295 1124.00
40.6337 981.00
40.938 976.00
41.2422 1128.00
41.5465 997.00
41.8508 933.00
42.155 872.00
42.4593 1032.00
42.7635 1167.00
43.0678 870.00
43.3721 960.00
43.6763 890.00
43.9806 1052.00
44.2849 980.00
44.5891 1055.00
44.8934 947.00
45.1976 903.00
45.5019 889.00
45.8062 855.00
46.1104 965.00
46.4147 944.00
46.7189 1006.00
47.0232 1370.00
47.3275 3886.00
47.6317 5249.00
47.936 1423.00
48.2402 970.00
48.5445 1081.00
48.8488 1179.00
49.153 993.00
49.4573 961.00
49.7615 978.00
50.0658 999.00
50.3701 978.00
50.6743 974.00
50.9786 1110.00
51.2828 1060.00
51.5871 932.00
51.8914 863.00
52.1956 911.00
52.4999 1151.00
52.8041 1749.00
53.1084 1238.00
53.4127 2412.00
53.7169 2148.00
54.0212 2052.00
54.3254 1673.00
54.6297 958.00
54.934 873.00
55.2382 819.00
55.5425 848.00
55.8467 782.00
56.151 834.00
56.4553 840.00
56.7595 813.00
57.0638 841.00
57.368 898.00
57.6723 902.00
57.9766 1072.00
58.2808 2375.00
58.5851 2099.00
58.8893 2302.00
59.1936 1735.00
59.4979 3740.00
59.8021 2379.00
60.1064 880.00
60.4106 807.00
60.7149 762.00
61.0192 748.00
61.3234 758.00
61.6277 761.00
61.932 783.00
62.2362 776.00
62.5405 762.00
62.8447 796.00
63.149 863.00
63.4533 781.00
63.7575 765.00
64.0618 804.00
64.366 1041.00
64.6703 862.00
64.9745 870.00
65.2788 761.00
65.5831 685.00
65.8873 684.00
66.1916 713.00
66.4959 755.00
66.8001 633.00
67.1044 683.00
67.4086 732.00
67.7129 981.00
68.0172 921.00
68.3214 849.00
68.6257 774.00
68.9299 930.00
69.2342 1819.00
69.5385 1620.00
69.8427 824.00
70.147 823.00
70.4512 892.00
70.7555 774.00
71.0598 679.00
71.364 717.00
71.6683 741.00
71.9725 778.00
72.2768 709.00
72.5811 836.00
72.8853 928.00
73.1896 937.00
73.4938 1118.00
73.7981 1100.00
74.1024 869.00
74.4066 775.00
74.7109 925.00
75.0151 874.00
75.3194 818.00
75.6237 615.00
75.9279 683.00
76.2322 629.00
76.5364 623.00
76.8407 622.00
77.145 622.00
77.4492 686.00
77.7535 829.00
78.0577 912.00
78.362 830.00
78.6663 1280.00
78.9705 1593.00
79.2748 1298.00
79.579 1050.00
79.8833 942.00
80.1876 764.00
80.4918 703.00
80.7961 684.00
81.1003 608.00
81.4046 648.00
81.7089 703.00
82.0131 714.00
82.3174 746.00
82.6217 871.00
82.9259 789.00
83.2302 760.00
83.5344 756.00
83.8387 815.00
84.143 889.00
84.4472 889.00
84.7515 786.00
85.0557 698.00
85.36 700.00
85.6643 660.00
85.9685 699.00
86.2728 653.00
86.577 715.00
86.8813 788.00
87.1856 778.00
87.4898 748.00
87.7941 718.00
88.0983 704.00
88.4026 752.00
88.7069 817.00
89.0111 888.00
89.3154 830.00
89.6196 745.00
89.9239 662.00
90.2282 647.00
90.5324 675.00
90.8367 745.00
91.1409 744.00
91.4452 756.00
91.7495 890.00
92.0537 827.00
92.358 742.00
92.6622 872.00
92.9665 836.00
93.2708 726.00
93.575 666.00
93.8793 624.00
94.1835 677.00
94.4878 633.00
94.7921 645.00
95.0963 687.00
95.4006 736.00
95.7048 772.00
96.0091 809.00
96.3134 904.00
96.6176 928.00
96.9219 1047.00
97.2261 931.00
97.5304 890.00
97.8347 1094.00
98.1389 1317.00
98.4432 1173.00
98.7474 1011.00
99.0517 869.00
99.356 755.00
99.6602 682.00
99.9645 657.00
100.095 657.00